timestamps,TP9,AF7,AF8,TP10,Right AUX
1572494015.379,31.738,177.246,-181.641,37.598,-0.488
1572494015.383,43.457,49.316,-360.840,47.363,-18.066
1572494015.386,42.969,90.820,-403.809,43.457,-5.371
1572494015.390,33.691,199.707,-151.855,36.621,-0.488
1572494015.394,30.273,185.547,-22.949,36.621,11.719
1572494015.398,35.156,62.500,-191.406,47.363,21.973
1572494015.402,32.227,21.973,-388.672,42.480,-14.648
1572494015.406,21.484,208.496,-6.836,23.438,17.578
1572494015.410,30.273,144.043,130.859,32.227,25.879
1572494015.414,39.062,-68.848,-312.988,43.457,-26.367
1572494015.418,27.344,-0.488,-400.391,31.250,-17.090
1572494015.422,19.043,165.039,26.367,29.297,23.926
1572494015.426,35.156,52.246,-6.836,43.945,14.648
1572494015.429,29.297,6.348,-181.152,33.691,2.930
1572494015.433,13.672,101.562,-46.875,22.461,17.578
1572494015.437,21.484,116.211,125.000,30.273,51.270
1572494015.441,27.832,17.090,34.668,43.945,56.152
1572494015.445,33.691,-67.871,-236.816,47.852,2.441
1572494015.449,31.250,1.465,-255.859,37.598,10.254
1572494015.453,24.414,64.453,-147.949,33.203,17.090
1572494015.457,21.484,53.711,-149.902,29.297,14.160
1572494015.461,15.625,47.852,-163.574,20.508,17.090
1572494015.465,17.090,104.980,-26.855,20.020,31.250
1572494015.468,24.414,122.559,98.145,32.227,53.711
1572494015.472,28.809,-35.645,-159.668,33.691,17.578
1572494015.476,17.578,-61.523,-407.227,12.207,3.906
1572494015.480,3.906,119.141,-112.305,-2.930,18.066
1572494015.484,13.184,53.223,-93.262,8.301,2.441
1572494015.488,13.184,2.930,-242.676,15.137,-2.441
1572494015.492,11.230,41.504,-193.359,11.719,18.555
1572494015.496,19.043,26.855,-218.750,13.672,3.906
1572494015.500,20.020,25.391,-223.633,14.648,-19.043
1572494015.504,19.043,18.066,-296.875,9.277,-17.578
1572494015.508,21.973,75.684,-249.512,10.254,-12.695
1572494015.511,27.344,149.414,29.297,21.484,20.508
1572494015.515,29.297,47.852,-10.742,27.344,17.090
1572494015.519,27.344,-11.719,-194.336,23.438,-10.742
1572494015.523,21.484,77.148,-110.840,12.695,-1.465
1572494015.527,22.949,102.539,-1.465,15.137,2.441
1572494015.531,30.762,12.695,-96.191,20.020,5.859
1572494015.535,26.855,-70.312,-411.133,15.625,-30.273
1572494015.539,20.020,42.969,-390.625,7.812,-24.414
1572494015.543,21.973,99.609,-251.465,9.277,-8.789
1572494015.547,27.832,32.715,-355.469,22.461,-19.043
1572494015.551,33.203,47.363,-364.746,27.344,-3.906
1572494015.554,23.926,185.547,-71.777,20.996,25.391
1572494015.558,12.695,186.035,138.672,12.695,59.570
1572494015.562,15.137,25.879,-128.906,15.137,35.645
1572494015.566,21.973,19.043,-282.227,22.949,3.906
1572494015.570,18.555,123.535,-82.520,14.160,5.371
1572494015.574,13.672,115.234,17.578,13.672,20.020
1572494015.578,22.949,5.371,-236.328,19.531,-1.953
1572494015.582,22.461,32.227,-310.547,18.066,4.395
1572494015.586,26.367,80.566,-141.113,31.738,35.156
1572494015.590,27.832,56.152,-173.340,32.715,41.016
1572494015.593,14.648,-17.090,-381.836,15.625,25.879
1572494015.597,9.277,-3.906,-510.742,5.859,-1.465
1572494015.601,15.625,191.406,-72.266,10.254,36.133
1572494015.605,35.645,112.305,43.945,32.227,39.551
1572494015.609,34.668,9.766,-171.387,39.551,12.695
1572494015.613,23.438,101.562,-72.754,25.879,28.320
1572494015.617,20.508,75.684,-2.441,18.066,39.551
1572494015.621,28.320,-14.160,-229.004,23.438,17.578
1572494015.625,30.273,60.547,-162.109,27.832,33.203
1572494015.629,22.949,75.684,-20.508,27.344,28.809
1572494015.633,21.973,7.324,-150.391,25.391,7.812
1572494015.636,25.879,-43.457,-375.488,24.902,-11.230
1572494015.640,27.344,7.324,-394.043,20.508,-8.301
1572494015.644,18.066,129.395,-138.672,12.207,15.625
1572494015.648,17.090,146.484,22.461,20.508,23.438
1572494015.652,26.367,-7.324,-183.594,27.832,9.766
1572494015.656,17.090,-99.121,-571.289,17.090,-33.691
1572494015.660,-0.977,88.867,-343.750,2.930,-17.090
1572494015.664,9.766,126.953,-40.527,12.207,19.531
1572494015.668,16.602,66.895,-110.352,20.020,29.297
1572494015.672,17.090,70.312,-121.094,20.508,37.598
1572494015.676,25.879,74.707,-21.484,29.785,68.359
1572494015.679,25.391,-13.672,-204.590,28.809,37.109
1572494015.683,19.531,-11.719,-340.332,16.602,14.160
1572494015.687,22.949,84.961,-156.738,14.160,39.551
1572494015.691,37.109,80.078,-52.734,30.273,26.367
1572494015.695,29.785,6.348,-144.043,38.086,3.418
1572494015.699,16.113,-97.656,-461.914,23.926,-4.395
1572494015.703,18.066,5.371,-422.363,20.996,13.672
1572494015.707,23.926,120.117,-101.074,29.297,17.578
1572494015.711,26.855,16.113,-163.086,29.297,8.789
1572494015.715,29.297,-20.996,-268.066,28.809,6.836
1572494015.718,32.227,68.848,-145.996,31.738,23.926
1572494015.722,31.250,80.078,-52.246,33.203,33.203
1572494015.726,29.297,-29.297,-252.441,33.203,24.414
1572494015.730,31.738,-71.289,-500.000,33.691,-0.488
1572494015.734,32.715,68.848,-354.492,29.297,-2.441
1572494015.738,27.344,174.805,-27.832,28.809,47.363
1572494015.742,37.598,46.387,-139.648,42.969,41.992
1572494015.746,45.410,23.926,-258.301,41.504,39.551
1572494015.750,37.109,137.695,-23.438,36.133,69.336
1572494015.754,40.527,104.980,51.758,50.781,57.129
1572494015.758,39.062,-68.848,-289.062,45.410,-1.953
1572494015.761,28.809,-55.176,-466.797,34.180,-4.883
1572494015.765,18.555,134.277,-94.727,24.414,44.434
1572494015.769,17.090,104.492,20.508,22.949,34.668
1572494015.773,37.109,-65.918,-342.285,45.410,2.930
1572494015.777,39.062,-34.180,-500.488,43.457,2.930
1572494015.781,27.832,158.691,-88.379,33.203,32.227
1572494015.785,43.945,86.426,2.441,45.410,27.344
1572494015.789,57.129,-15.137,-238.770,53.223,26.855
1572494015.793,41.504,75.684,-177.734,40.527,46.875
1572494015.797,33.691,145.020,84.961,35.645,59.082
1572494015.801,37.598,25.879,-12.695,43.457,39.062
1572494015.804,44.434,-31.250,-193.848,44.922,20.996
1572494015.808,49.805,61.035,-100.098,51.758,19.043
1572494015.812,36.133,86.426,53.223,46.387,35.645
1572494015.816,28.809,8.301,-11.719,36.621,41.992
1572494015.820,41.016,-48.828,-191.406,48.340,29.297
1572494015.824,47.363,-6.348,-258.301,51.758,20.508
1572494015.828,36.133,99.609,-55.176,40.039,41.016
1572494015.832,31.738,-4.395,-143.066,36.133,20.508
1572494015.836,42.480,-80.078,-494.141,37.109,-21.484
1572494015.840,43.945,126.465,-207.031,34.180,7.324
1572494015.843,37.109,83.984,-54.688,28.809,17.090
1572494015.847,38.574,-17.578,-294.922,24.414,-20.020
1572494015.851,43.945,73.730,-173.828,24.414,-4.883
1572494015.855,47.363,99.609,34.668,29.785,21.484
1572494015.859,41.016,58.594,64.453,26.367,24.902
1572494015.863,37.598,1.953,-66.895,20.996,10.742
1572494015.867,42.480,-24.414,-249.512,26.367,-22.461
1572494015.871,40.039,13.184,-283.691,25.879,-27.344
1572494015.875,46.875,84.473,-105.469,35.645,6.348
1572494015.879,57.617,-28.320,-284.180,34.668,-1.953
1572494015.883,49.316,-25.879,-453.125,20.508,-24.414
1572494015.886,43.457,164.551,-25.391,21.484,14.160
1572494015.890,55.176,81.543,20.508,35.645,19.043
1572494015.894,55.664,35.645,-102.051,46.387,23.926
1572494015.898,46.387,79.590,-26.855,38.086,35.645
1572494015.902,54.688,48.340,-56.152,47.852,23.438
1572494015.906,62.012,19.531,-171.875,58.105,14.160
1572494015.910,60.059,30.762,-175.781,41.992,17.578
1572494015.914,64.453,48.340,-148.926,42.480,31.738
1572494015.918,67.383,62.500,-186.035,51.758,24.902
1572494015.922,65.918,41.016,-223.633,55.176,14.160
1572494015.926,59.570,-20.996,-433.105,51.270,-6.836
1572494015.929,41.504,115.234,-287.109,34.180,-15.137
1572494015.933,42.480,188.965,48.340,33.203,26.855
1572494015.937,53.711,58.594,-70.312,45.410,37.109
1572494015.941,40.527,40.527,-162.598,37.109,27.344
1572494015.945,28.809,102.539,-11.719,23.926,22.949
1572494015.949,31.738,57.129,-18.555,25.391,10.254
1572494015.953,32.715,45.410,-72.754,25.391,13.184
1572494015.957,32.227,31.738,-139.160,19.531,12.207
1572494015.961,30.273,20.508,-201.660,21.973,11.719
1572494015.965,21.484,47.852,-196.777,20.508,10.254
1572494015.968,18.555,-40.039,-424.316,15.137,-12.207
1572494015.972,17.090,21.973,-415.039,6.836,-6.348
1572494015.976,14.648,159.668,-39.551,5.371,8.301
1572494015.980,28.809,71.777,-18.555,19.043,0.977
1572494015.984,29.297,23.926,-121.094,14.648,4.395
1572494015.988,21.973,87.402,-44.434,13.672,15.137
1572494015.992,20.996,83.984,18.066,15.625,10.742
1572494015.996,20.996,-0.977,-120.117,16.113,-8.301
1572494016.000,24.414,-0.488,-195.312,23.438,-12.207
1572494016.004,23.438,59.082,-115.723,25.391,-16.602
1572494016.008,22.949,20.996,-151.367,34.668,-3.906
1572494016.011,31.250,-38.086,-343.750,40.527,-10.742
1572494016.015,30.762,23.926,-344.727,37.109,-15.625
1572494016.019,20.996,142.578,-70.312,29.297,19.531
1572494016.023,24.414,108.887,56.641,31.738,34.180
1572494016.027,37.598,-23.926,-200.684,44.922,-16.602
1572494016.031,40.527,-6.348,-310.547,45.410,-32.227
1572494016.035,32.227,85.449,-101.562,40.527,6.348
1572494016.039,34.668,76.172,-29.785,41.992,2.441
1572494016.043,47.852,-71.289,-342.285,49.316,-32.715
1572494016.047,48.828,-78.125,-589.844,47.852,-42.480
1572494016.051,41.016,105.957,-267.578,41.016,-18.555
1572494016.054,42.969,65.918,-182.617,41.992,6.836
1572494016.058,46.875,-30.273,-430.664,39.062,1.953
1572494016.062,37.598,64.453,-327.148,33.203,8.789
1572494016.066,35.156,168.945,33.691,38.574,44.434
1572494016.070,47.852,56.152,-8.789,52.246,48.828
1572494016.074,44.922,-22.949,-231.934,45.410,6.836
1572494016.078,25.879,57.617,-183.105,29.297,-18.555
1572494016.082,27.344,107.422,-33.203,33.691,-4.883
1572494016.086,37.109,45.898,-15.137,41.016,20.020
1572494016.090,35.156,-58.105,-291.504,37.109,8.301
1572494016.093,37.109,63.477,-240.723,39.551,12.207
1572494016.097,45.410,139.648,52.734,52.734,37.598
1572494016.101,39.551,-9.277,-195.312,51.758,8.789
1572494016.105,28.320,31.250,-259.277,37.598,36.621
1572494016.109,33.203,148.438,26.367,41.016,79.102
1572494016.113,45.898,111.328,83.008,51.758,58.594
1572494016.117,31.250,-46.875,-212.402,35.156,8.789
1572494016.121,15.137,-49.805,-396.484,19.043,-4.883
1572494016.125,21.484,64.941,-212.891,27.832,-3.906
1572494016.129,20.508,30.762,-222.168,37.598,-42.969
1572494016.133,22.949,-23.926,-366.699,38.574,-40.039
1572494016.136,27.832,-14.160,-443.848,37.109,-27.832
1572494016.140,34.668,109.863,-180.176,43.457,-23.926
1572494016.144,35.645,91.797,-59.082,42.480,-27.832
1572494016.148,19.531,-62.988,-398.926,24.902,-46.875
1572494016.152,12.207,-49.805,-600.586,20.508,-64.453
1572494016.156,14.160,157.715,-196.289,25.391,-35.645
1572494016.160,20.996,102.539,-66.895,30.273,-25.391
1572494016.164,31.738,-10.742,-344.727,33.691,-49.316
1572494016.168,31.250,64.453,-325.684,27.344,-37.109
1572494016.172,24.414,104.980,-114.746,17.578,-18.555
1572494016.176,25.879,52.734,-102.051,18.555,17.090
1572494016.179,24.414,35.156,-114.746,19.531,32.227
1572494016.183,25.391,-5.859,-235.840,20.996,-19.043
1572494016.187,26.367,4.395,-280.273,31.250,-23.926
1572494016.191,27.344,48.340,-164.062,33.691,18.066
1572494016.195,28.809,1.953,-241.211,31.738,20.020
1572494016.199,18.066,16.113,-316.895,16.113,13.184
1572494016.203,12.207,103.027,-147.949,7.324,26.855
1572494016.207,21.973,10.254,-194.824,26.855,17.090
1572494016.211,24.414,-58.594,-441.406,29.297,15.137
1572494016.215,13.672,106.934,-195.312,19.043,38.086
1572494016.218,12.695,110.840,0.977,20.020,38.086
1572494016.222,17.090,30.762,-129.395,24.902,31.250
1572494016.226,20.508,39.551,-174.316,34.180,20.020
1572494016.230,18.066,84.961,-58.105,33.203,29.297
1572494016.234,11.719,80.078,4.883,26.367,53.711
1572494016.238,17.578,1.465,-149.414,26.855,32.227
1572494016.242,20.020,-22.949,-313.965,25.879,22.949
1572494016.246,18.066,19.531,-290.039,29.785,40.039
1572494016.250,26.855,66.895,-169.434,40.527,39.062
1572494016.254,23.438,-8.789,-312.988,30.762,41.016
1572494016.258,16.113,-4.395,-471.191,13.672,14.648
1572494016.261,27.832,173.828,-86.914,26.367,37.598
1572494016.265,35.156,104.004,16.113,38.086,56.152
1572494016.269,33.691,20.508,-127.441,32.715,38.086
1572494016.273,28.809,58.594,-103.027,18.555,25.879
1572494016.277,26.855,58.594,-69.336,13.184,14.160
1572494016.281,32.715,16.602,-122.559,20.508,22.461
1572494016.285,24.902,8.789,-149.902,19.043,26.367
1572494016.289,23.438,12.695,-214.355,22.461,20.996
1572494016.293,30.762,48.828,-228.027,26.367,15.625
1572494016.297,26.367,37.598,-195.801,20.508,26.855
1572494016.301,20.996,12.695,-239.258,20.020,26.367
1572494016.304,21.973,83.008,-96.191,18.066,24.414
1572494016.308,23.926,91.797,-13.672,17.578,23.438
1572494016.312,31.250,-33.691,-229.004,21.484,12.695
1572494016.316,36.621,-68.848,-468.750,24.902,4.883
1572494016.320,25.391,102.051,-204.102,22.461,20.996
1572494016.324,8.789,94.727,-13.672,17.578,36.621
1572494016.328,18.066,26.367,-123.047,25.391,33.203
1572494016.332,31.738,38.086,-143.555,29.297,31.738
1572494016.336,26.855,38.086,-123.535,24.414,45.410
1572494016.340,24.414,-15.137,-283.203,24.414,27.832
1572494016.343,20.508,14.648,-331.543,20.020,17.578
1572494016.347,13.184,86.914,-163.574,19.043,34.180
1572494016.351,19.531,43.945,-116.699,23.438,24.902
1572494016.355,20.508,0.000,-171.875,27.344,20.996
1572494016.359,19.043,-87.402,-422.363,18.555,14.160
1572494016.363,16.602,-30.273,-500.000,14.160,3.418
1572494016.367,13.184,142.578,-94.727,24.414,30.762
1572494016.371,12.207,29.297,-125.977,17.578,20.020
1572494016.375,9.766,2.930,-182.617,10.742,39.062
1572494016.379,18.555,76.172,28.320,22.461,84.473
1572494016.383,24.902,-12.695,-93.262,29.785,57.617
1572494016.386,27.344,-90.820,-348.633,31.738,20.996
1572494016.390,18.555,-46.875,-454.590,19.531,24.414
1572494016.394,8.789,132.324,-128.418,10.742,70.801
1572494016.398,22.461,133.789,149.902,27.344,84.473
1572494016.402,36.621,-16.602,-119.141,42.480,22.949
1572494016.406,35.156,2.441,-161.133,43.457,26.367
1572494016.410,28.320,26.367,-63.965,37.598,49.805
1572494016.414,21.484,1.953,-127.441,29.297,38.086
1572494016.418,20.508,21.484,-132.324,22.949,35.645
1572494016.422,23.926,17.090,-148.926,26.367,18.555
1572494016.426,26.855,49.805,-51.758,32.715,28.320
1572494016.429,27.832,24.414,-58.105,37.598,50.293
1572494016.433,33.691,-111.328,-391.113,44.434,23.926
1572494016.437,28.809,-64.941,-541.992,34.668,9.766
1572494016.441,10.254,164.062,-110.840,19.531,48.828
1572494016.445,16.113,125.000,60.059,25.391,56.641
1572494016.449,21.973,14.160,-119.629,33.691,27.344
1572494016.453,20.020,38.086,-126.465,36.621,8.301
1572494016.457,18.555,57.617,-65.918,33.691,6.348
1572494016.461,11.230,24.902,-73.730,26.367,22.949
1572494016.465,17.578,-32.227,-187.500,32.227,28.320
1572494016.468,18.066,-2.930,-228.027,32.227,22.949
1572494016.472,14.160,61.523,-83.984,27.832,32.715
1572494016.476,13.184,5.371,-162.598,26.855,37.109
1572494016.480,11.719,-6.836,-288.086,24.902,19.043
1572494016.484,20.020,62.988,-121.582,31.250,31.738
1572494016.488,23.438,57.129,-36.133,38.574,31.250
1572494016.492,29.785,-54.199,-233.398,42.969,11.719
1572494016.496,27.832,-91.797,-541.016,33.691,8.301
1572494016.500,22.461,87.891,-306.641,29.785,35.645
1572494016.504,29.785,88.379,-91.309,37.109,25.879
1572494016.508,33.691,16.113,-228.027,39.551,12.207
1572494016.511,24.902,54.199,-179.199,35.645,44.434
1572494016.515,16.602,64.453,-42.969,27.832,58.105
1572494016.519,33.203,8.301,-57.617,41.992,50.781
1572494016.523,41.992,-35.645,-202.148,48.828,52.734
1572494016.527,24.414,-33.691,-340.820,33.203,36.621
1572494016.531,13.672,18.066,-331.055,22.461,19.531
1572494016.535,20.020,78.125,-133.789,30.762,49.316
1572494016.539,26.367,-16.602,-272.461,36.621,42.969
1572494016.543,25.879,15.137,-334.473,36.133,27.344
1572494016.547,22.949,114.746,-40.039,37.109,45.898
1572494016.551,10.742,0.977,-103.027,23.438,27.832
1572494016.554,7.812,-78.125,-322.754,23.438,4.883
1572494016.558,14.648,18.555,-251.465,27.832,22.949
1572494016.562,15.137,64.941,-76.172,22.949,45.410
1572494016.566,12.207,-17.578,-148.438,27.832,44.434
1572494016.570,7.324,-79.102,-340.332,26.367,36.133
1572494016.574,4.883,-6.836,-316.406,18.066,48.340
1572494016.578,8.789,52.246,-171.875,19.531,47.363
1572494016.582,9.277,-48.828,-289.551,20.996,25.391
1572494016.586,3.906,-107.422,-590.332,8.789,21.484
1572494016.590,7.324,89.355,-315.918,5.371,60.547
1572494016.593,11.719,139.160,15.625,18.066,68.359
1572494016.597,7.812,5.859,-148.438,14.648,58.105
1572494016.601,5.371,9.277,-209.473,10.254,63.965
1572494016.605,3.418,80.566,-12.207,18.555,78.613
1572494016.609,13.672,34.668,15.625,31.738,75.684
1572494016.613,20.508,-16.113,-125.488,33.203,55.176
1572494016.617,20.020,-38.086,-326.660,28.809,19.531
1572494016.621,17.578,7.324,-363.770,27.832,12.695
1572494016.625,17.578,71.289,-202.148,32.227,49.316
1572494016.629,21.973,78.125,-152.832,36.133,49.805
1572494016.633,20.996,116.699,-45.898,27.832,64.453
1572494016.636,23.438,85.938,-51.758,26.855,48.340
1572494016.640,30.273,40.527,-116.211,37.598,27.832
1572494016.644,31.738,-50.293,-355.469,35.156,23.926
1572494016.648,21.484,42.480,-363.770,20.020,29.297
1572494016.652,20.020,176.758,60.547,19.043,78.125
1572494016.656,16.602,57.129,-8.789,16.602,63.477
1572494016.660,9.277,8.301,-143.066,18.555,34.668
1572494016.664,12.695,10.254,-181.641,23.438,31.250
1572494016.668,17.090,30.762,-206.543,23.926,29.297
1572494016.672,16.113,21.973,-229.492,21.973,19.531
1572494016.676,16.113,20.508,-227.539,18.555,22.461
1572494016.679,20.020,109.863,-24.414,24.902,53.223
1572494016.683,25.391,129.883,125.488,34.668,79.590
1572494016.687,31.250,-24.902,-76.172,38.086,62.012
1572494016.691,28.320,-112.305,-445.801,35.156,13.184
1572494016.695,20.020,57.129,-293.457,29.785,31.738
1572494016.699,19.043,97.656,-62.012,30.762,42.969
1572494016.703,25.879,8.789,-212.891,37.109,7.324
1572494016.707,23.926,30.762,-209.473,38.574,21.484
1572494016.711,15.625,36.133,-99.609,32.715,38.574
1572494016.715,21.973,-15.137,-250.488,37.598,16.113
1572494016.718,22.461,38.574,-247.070,37.109,20.996
1572494016.722,13.672,104.004,-52.734,25.879,43.945
1572494016.726,15.625,83.984,28.809,21.484,33.203
1572494016.730,24.902,22.949,-24.902,29.297,24.414
1572494016.734,22.461,-38.086,-208.496,36.621,11.719
1572494016.738,20.508,37.109,-167.969,32.715,20.508
1572494016.742,26.367,94.727,29.297,35.156,38.086
1572494016.746,18.555,6.348,-33.203,24.902,32.227
1572494016.750,12.695,-104.492,-406.250,14.648,13.184
1572494016.754,11.230,12.207,-347.656,10.742,21.484
1572494016.758,10.254,66.895,-111.816,11.719,45.410
1572494016.761,14.648,-37.109,-281.738,22.461,24.902
1572494016.765,17.090,-41.992,-415.527,15.137,30.273
1572494016.769,11.719,74.219,-275.391,6.836,16.113
1572494016.773,15.137,124.023,-46.387,14.648,-0.977
1572494016.777,32.227,2.930,-202.637,21.973,6.836
1572494016.781,39.551,-12.695,-321.777,20.508,15.625
1572494016.785,33.203,119.141,-23.438,11.719,52.246
1572494016.789,41.016,72.754,29.785,23.926,40.527
1572494016.793,44.922,26.855,-73.730,36.621,32.715
1572494016.797,47.852,43.457,-63.477,41.504,38.574
1572494016.801,48.828,50.781,-6.836,46.875,39.551
1572494016.804,41.016,-4.883,-83.008,52.246,43.457
1572494016.808,41.992,-133.789,-455.078,53.711,4.395
1572494016.812,33.691,-62.012,-563.965,38.086,-17.090
1572494016.816,23.438,155.273,-110.840,30.273,29.785
1572494016.820,27.832,99.121,66.895,38.086,66.406
1572494016.824,24.414,-21.484,-112.793,33.691,38.574
1572494016.828,16.113,35.645,-96.191,24.902,34.668
1572494016.832,9.277,83.008,34.180,18.555,54.199
1572494016.836,8.789,15.625,-24.902,20.020,56.641
1572494016.840,7.812,-8.789,-117.188,22.461,62.012
1572494016.843,5.371,55.176,-49.316,20.020,58.594
1572494016.847,6.836,35.156,-26.855,22.461,41.016
1572494016.851,7.324,-63.477,-274.902,23.926,19.043
1572494016.855,6.348,-28.320,-357.910,17.090,19.043
1572494016.859,4.395,66.895,-154.785,9.766,24.902
1572494016.863,7.812,51.270,-96.191,13.672,47.363
1572494016.867,7.812,-12.695,-210.449,14.160,46.875
1572494016.871,0.977,-12.695,-256.348,4.395,28.809
1572494016.875,1.465,68.359,-91.309,7.812,45.410
1572494016.879,4.395,61.523,-7.812,13.672,67.871
1572494016.883,7.324,-6.348,-136.230,16.602,69.824
1572494016.886,15.625,13.184,-159.668,27.832,68.848
1572494016.890,25.879,59.082,-46.387,33.203,63.477
1572494016.894,20.020,13.184,-95.215,20.020,31.738
1572494016.898,22.461,-61.523,-343.750,20.996,10.254
1572494016.902,30.762,-17.090,-421.875,38.086,19.043
1572494016.906,20.508,41.016,-310.547,31.738,16.113
1572494016.910,18.555,42.480,-263.184,29.785,19.531
1572494016.914,37.109,-35.645,-436.523,45.410,20.508
1572494016.918,40.039,-37.598,-590.332,39.062,1.465
1572494016.922,27.832,121.094,-294.434,22.949,16.113
1572494016.926,32.715,128.418,-58.594,28.809,39.551
1572494016.929,45.898,-52.734,-392.090,40.039,7.812
1572494016.933,39.062,32.227,-415.039,32.227,12.207
1572494016.937,34.668,197.266,46.387,33.203,66.406
1572494016.941,52.734,54.199,-5.859,47.852,42.480
1572494016.945,62.988,-96.680,-434.570,48.340,1.953
1572494016.949,55.176,26.855,-404.785,37.598,3.906
1572494016.953,45.410,153.320,2.441,27.832,36.133
1572494016.957,49.316,59.082,-8.301,31.250,50.781
1572494016.961,54.199,5.859,-187.012,45.410,10.254
1572494016.965,44.922,69.824,-81.543,40.527,2.441
1572494016.968,32.227,108.887,97.168,26.855,31.738
1572494016.972,39.062,-27.832,-122.559,28.320,14.160
1572494016.976,57.617,-85.938,-395.020,38.086,-5.371
1572494016.980,53.223,83.496,-138.672,35.156,5.859
1572494016.984,44.922,100.586,25.391,29.297,9.766
1572494016.988,49.805,42.969,-76.172,34.668,-2.441
1572494016.992,51.270,21.973,-189.453,33.691,-2.930
1572494016.996,50.293,61.523,-198.242,28.809,14.160
1572494017.000,50.293,97.656,-87.402,33.691,7.324
1572494017.004,53.223,-7.324,-282.227,40.527,-7.324
1572494017.008,47.363,43.945,-304.688,34.180,16.113
1572494017.011,41.016,149.414,12.695,28.320,22.461
1572494017.015,52.734,62.988,2.441,41.992,17.090
1572494017.019,59.082,37.598,-67.383,50.293,40.527
1572494017.023,53.223,91.797,-24.414,45.410,39.062
1572494017.027,46.387,104.492,27.832,41.016,18.066
1572494017.031,50.293,41.992,-66.895,46.875,20.020
1572494017.035,64.453,-0.977,-234.863,60.059,4.883
1572494017.039,52.734,57.129,-217.285,55.176,0.488
1572494017.043,40.039,73.242,-191.406,50.781,5.371
1572494017.047,49.805,3.906,-321.289,57.617,-14.648
1572494017.051,51.270,33.691,-323.730,50.293,-7.324
1572494017.054,42.969,159.180,-53.711,39.062,21.973
1572494017.058,47.852,161.133,117.188,43.457,42.969
1572494017.062,54.199,1.953,-137.695,49.316,12.207
1572494017.066,51.270,-15.625,-300.781,42.480,11.719
1572494017.070,43.945,129.395,-57.617,36.621,21.973
1572494017.074,37.598,105.957,11.719,38.574,2.441
1572494017.078,33.691,-17.090,-243.652,22.949,-16.602
1572494017.082,38.574,-6.348,-336.426,19.531,-16.602
1572494017.086,51.758,55.664,-200.195,35.645,10.742
1572494017.090,52.246,35.645,-243.652,39.551,8.789
1572494017.093,35.156,-19.531,-404.785,24.414,0.000
1572494017.097,32.227,32.227,-401.367,17.090,2.441
1572494017.101,39.062,181.641,-8.301,28.809,31.250
1572494017.105,42.969,81.543,6.348,36.133,20.508
1572494017.109,47.852,-5.859,-197.754,42.480,-14.648
1572494017.113,49.316,53.223,-167.969,44.434,-13.672
1572494017.117,47.363,98.145,-21.484,41.992,20.020
1572494017.121,49.805,19.531,-102.051,43.945,17.578
1572494017.125,53.711,-5.371,-213.379,45.898,0.000
1572494017.129,53.711,71.777,-65.918,51.270,26.367
1572494017.133,51.758,13.672,-150.391,50.293,21.973
1572494017.136,49.316,-26.367,-364.746,45.898,4.883
1572494017.140,46.387,56.641,-268.555,43.457,18.555
1572494017.144,47.363,81.543,-168.457,41.016,16.113
1572494017.148,55.176,103.027,-114.746,56.641,24.902
1572494017.152,58.105,21.484,-198.242,65.430,9.277
1572494017.156,52.734,-90.820,-569.336,51.758,-42.480
1572494017.160,46.387,91.797,-357.422,38.574,-19.043
1572494017.164,50.293,129.395,-97.168,42.480,7.812
1572494017.168,53.223,57.129,-182.129,46.875,16.602
1572494017.172,47.363,51.758,-233.398,41.016,19.531
1572494017.176,50.293,94.238,-93.262,38.574,28.809
1572494017.179,48.828,38.086,-126.465,36.133,31.250
1572494017.183,40.527,16.113,-285.156,28.809,20.508
1572494017.187,37.109,82.520,-172.363,25.391,19.043
1572494017.191,33.691,85.449,-40.039,26.855,28.809
1572494017.195,35.645,54.688,8.789,28.809,39.551
1572494017.199,41.016,-101.074,-342.773,28.809,18.066
1572494017.203,35.156,-65.918,-504.883,19.531,8.789
1572494017.207,36.621,113.281,-123.047,29.297,35.645
1572494017.211,38.574,35.156,-88.867,47.852,39.551
1572494017.215,31.250,-35.645,-243.652,43.945,19.531
1572494017.218,28.809,37.598,-185.059,38.574,17.578
1572494017.222,25.879,63.965,-61.035,40.527,30.762
1572494017.226,27.832,-57.129,-288.574,45.410,5.371
1572494017.230,33.691,-17.578,-367.676,47.852,21.484
1572494017.234,34.180,109.863,-96.680,45.898,37.598
1572494017.238,22.949,73.730,-71.289,34.668,-8.301
1572494017.242,23.438,-22.949,-231.445,38.574,-20.996
1572494017.246,32.227,-79.590,-539.062,41.016,-31.250
1572494017.250,33.203,125.000,-264.648,39.062,11.719
1572494017.254,43.457,163.086,55.664,48.828,30.762
1572494017.258,31.250,62.500,-114.258,30.273,13.672
1572494017.261,19.531,82.520,-138.672,12.695,25.879
1572494017.265,23.926,117.188,27.344,17.090,44.922
1572494017.269,31.250,66.895,-7.812,30.273,26.367
1572494017.273,37.598,-9.277,-245.117,36.621,-7.324
1572494017.277,35.156,0.977,-385.254,30.762,-12.695
1572494017.281,30.273,97.168,-194.824,21.973,3.906
1572494017.285,33.203,100.098,-52.246,16.602,18.555
1572494017.289,45.898,45.410,-187.500,30.273,10.742
1572494017.293,42.969,89.355,-159.180,29.297,18.555
1572494017.297,30.762,124.512,-44.434,18.555,23.438
1572494017.301,36.621,87.402,-23.926,31.250,33.691
1572494017.304,50.293,-48.340,-373.047,37.109,11.719
1572494017.308,38.086,43.457,-416.992,18.555,8.301
1572494017.312,32.715,163.086,-71.777,19.043,29.785
1572494017.316,35.156,48.828,-184.570,29.297,24.902
1572494017.320,34.180,0.488,-332.031,38.574,26.855
1572494017.324,41.504,58.105,-297.852,44.434,20.996
1572494017.328,31.738,136.230,-118.164,27.344,28.320
1572494017.332,27.832,53.223,-131.836,18.066,26.367
1572494017.336,41.504,-60.547,-521.973,22.949,-10.254
1572494017.340,41.016,111.816,-359.375,25.391,-1.953
1572494017.343,29.785,165.039,-41.504,25.391,13.184
1572494017.347,25.879,86.914,-108.887,20.996,26.367
1572494017.351,27.832,87.891,-123.047,20.020,29.297
1572494017.355,29.785,92.285,-79.590,27.832,6.836
1572494017.359,36.621,71.289,-105.957,41.016,-2.930
1572494017.363,29.785,53.223,-162.109,38.086,10.742
1572494017.367,20.996,38.574,-258.301,31.250,18.066
1572494017.371,16.113,62.988,-274.902,32.715,14.160
1572494017.375,5.859,73.242,-234.863,24.902,14.160
1572494017.379,11.719,-5.859,-443.359,26.367,-19.043
1572494017.383,17.090,54.199,-464.844,23.926,-25.391
1572494017.386,11.230,197.266,-45.410,19.531,32.227
1572494017.390,11.719,105.469,2.441,22.949,20.020
1572494017.394,11.230,22.949,-221.191,23.438,-5.371
1572494017.398,7.812,107.910,-132.324,19.531,20.508
1572494017.402,18.066,136.230,27.832,24.414,21.973
1572494017.406,28.809,42.480,-83.008,30.273,10.742
1572494017.410,30.762,18.066,-174.316,33.691,15.137
1572494017.414,28.320,42.480,-182.617,39.062,23.926
1572494017.418,22.949,62.988,-197.266,28.809,11.719
1572494017.422,29.297,45.898,-206.543,30.762,-2.930
1572494017.426,42.969,-37.598,-477.539,39.062,-20.996
1572494017.429,33.691,92.285,-383.301,31.250,4.395
1572494017.433,19.043,188.965,-24.902,23.926,33.203
1572494017.437,18.066,39.062,-187.988,17.578,2.441
1572494017.441,18.555,13.672,-359.375,19.531,-11.230
1572494017.445,22.949,152.344,-66.895,24.414,21.484
1572494017.449,26.367,89.355,-38.574,28.809,4.883
1572494017.453,16.113,63.477,-142.090,27.344,1.953
1572494017.457,10.742,97.656,-47.363,19.531,34.180
1572494017.461,17.090,32.227,-101.074,20.020,39.551
1572494017.465,29.297,49.805,-143.555,34.180,34.180
1572494017.468,26.367,-19.531,-308.594,34.668,10.254
1572494017.472,4.883,-37.109,-504.883,15.625,5.371
1572494017.476,-0.488,156.738,-115.723,8.301,48.828
1572494017.480,12.695,109.375,62.012,21.484,61.523
1572494017.484,14.648,-17.090,-180.176,29.297,32.227
1572494017.488,15.625,26.367,-234.863,34.180,21.484
1572494017.492,16.602,103.027,-44.434,34.668,31.250
1572494017.496,8.789,54.688,-49.316,31.250,34.668
1572494017.500,10.254,26.367,-126.465,30.273,31.250
1572494017.504,13.672,57.129,-98.633,24.902,14.160
1572494017.508,22.461,3.418,-227.539,33.203,-5.859
1572494017.511,26.855,-19.531,-390.625,36.133,-4.395
1572494017.515,23.926,71.289,-250.000,31.250,27.344
1572494017.519,20.020,138.184,-16.602,21.484,50.781
1572494017.523,23.438,123.047,65.430,23.438,49.316
1572494017.527,33.691,6.836,-107.422,36.133,34.180
1572494017.531,34.180,-22.461,-270.020,37.598,17.090
1572494017.535,25.391,97.168,-62.988,33.691,38.574
1572494017.539,24.902,79.102,-18.555,27.832,25.391
1572494017.543,36.621,-73.730,-368.164,28.320,-16.113
1572494017.547,34.668,-19.043,-474.121,31.250,3.906
1572494017.551,34.668,161.133,-71.289,33.691,44.434
1572494017.554,27.832,52.246,-102.539,30.273,30.762
1572494017.558,24.414,-7.812,-352.051,29.297,8.301
1572494017.562,25.391,89.355,-215.332,26.855,20.508
1572494017.566,10.742,108.398,-35.156,11.719,17.090
1572494017.570,11.230,30.762,-135.254,9.766,-17.090
1572494017.574,11.719,17.090,-225.586,13.672,1.953
1572494017.578,15.137,62.988,-146.484,18.555,27.832
1572494017.582,17.090,94.727,-32.227,18.066,27.344
1572494017.586,8.789,52.246,-35.156,12.207,23.438
1572494017.590,13.672,-87.891,-429.688,14.160,-20.508
1572494017.593,14.648,0.000,-516.602,13.184,-32.227
1572494017.597,14.160,117.676,-221.191,18.066,-11.230
1572494017.601,19.531,38.574,-250.977,23.926,4.395
1572494017.605,18.066,-22.461,-491.699,21.484,-9.277
1572494017.609,16.602,115.723,-324.707,15.625,-7.812
1572494017.613,17.578,200.684,59.082,19.531,27.344
1572494017.617,27.832,30.273,-138.672,32.227,-1.465
1572494017.621,33.203,-15.625,-378.906,35.645,-14.160
1572494017.625,26.367,149.414,-129.883,27.832,11.719
1572494017.629,29.297,139.648,14.160,33.203,11.719
1572494017.633,29.297,75.195,-96.680,26.855,5.859
1572494017.636,21.973,89.844,-109.375,19.043,13.672
1572494017.640,20.020,97.168,-57.129,23.926,3.906
1572494017.644,25.879,59.082,-103.027,28.809,-13.184
1572494017.648,27.832,39.062,-203.613,29.785,-2.930
1572494017.652,24.902,22.949,-309.570,25.391,4.395
1572494017.656,24.414,67.383,-266.113,22.949,-3.418
1572494017.660,22.461,113.770,-75.684,21.973,6.348
1572494017.664,29.785,-22.461,-326.660,28.809,-16.113
1572494017.668,28.320,45.898,-373.047,29.785,-8.301
1572494017.672,14.648,164.062,-37.598,19.531,19.531
1572494017.676,14.160,82.520,-63.477,21.973,15.137
1572494017.679,17.090,56.641,-122.070,31.250,24.902
1572494017.683,27.344,87.891,-52.246,36.621,30.762
1572494017.687,30.273,101.562,20.020,36.133,38.574
1572494017.691,20.508,36.621,-89.355,26.367,24.902
1572494017.695,26.367,-0.977,-232.910,29.785,27.344
1572494017.699,32.227,42.969,-217.773,39.551,41.016
1572494017.703,27.832,94.238,-111.328,37.598,14.648
1572494017.707,20.020,43.945,-85.449,30.273,32.227
1572494017.711,20.508,-45.898,-359.863,24.902,27.344
1572494017.715,34.180,80.078,-263.184,36.621,8.789
1572494017.718,42.969,144.531,50.781,46.875,50.293
1572494017.722,36.621,44.922,-41.504,39.551,51.758
1572494017.726,24.414,29.297,-129.883,25.391,33.691
1572494017.730,31.250,83.496,-32.715,33.203,29.785
1572494017.734,41.016,88.867,15.137,46.387,33.203
1572494017.738,42.969,41.016,-80.078,41.504,26.855
1572494017.742,42.480,4.395,-231.445,40.527,14.160
1572494017.746,45.898,18.066,-247.070,41.504,29.785
1572494017.750,51.270,61.035,-172.363,50.293,22.461
1572494017.754,45.410,-29.297,-364.746,45.410,-1.465
1572494017.758,34.180,-38.086,-524.414,25.391,-23.438
1572494017.761,32.715,138.184,-178.223,27.344,-15.137
1572494017.765,41.504,101.562,-62.012,36.133,0.000
1572494017.769,32.715,30.273,-207.031,31.250,9.766
1572494017.773,16.113,81.055,-159.668,20.508,16.602
1572494017.777,11.719,105.957,-2.930,17.578,24.902
1572494017.781,20.020,21.973,-78.125,26.367,20.996
1572494017.785,23.926,-3.906,-177.734,25.391,9.277
1572494017.789,20.508,20.996,-195.312,21.973,20.996
1572494017.793,19.531,40.527,-236.816,29.297,17.090
1572494017.797,20.508,34.180,-201.172,30.273,21.973
1572494017.801,23.438,-54.688,-453.613,21.973,0.488
1572494017.804,25.879,75.684,-390.625,21.484,9.766
1572494017.808,25.391,165.039,-27.344,27.344,47.363
1572494017.812,25.879,56.641,-81.055,28.320,29.785
1572494017.816,33.203,44.434,-151.367,33.691,20.020
1572494017.820,28.320,109.375,18.066,24.414,47.852
1572494017.824,22.949,27.832,-104.980,20.020,19.531
1572494017.828,21.484,12.207,-260.742,22.949,0.977
1572494017.832,28.320,74.707,-156.250,25.391,11.719
1572494017.836,41.016,50.293,-175.293,33.691,10.742
1572494017.840,32.227,48.340,-191.895,23.438,21.973
1572494017.843,30.762,19.043,-291.992,16.113,-7.812
1572494017.847,34.180,52.246,-299.805,20.996,-16.602
1572494017.851,35.645,134.766,-39.551,23.926,22.949
1572494017.855,40.527,72.754,-44.922,34.180,16.113
1572494017.859,37.598,23.926,-211.426,30.762,2.930
1572494017.863,33.203,74.219,-207.031,22.461,3.418
1572494017.867,34.668,105.469,-116.211,27.344,2.930
1572494017.871,31.250,65.918,-89.844,28.809,29.785
1572494017.875,30.762,-58.594,-416.504,30.762,8.301
1572494017.879,30.273,-15.625,-538.574,24.902,-32.715
1572494017.883,20.508,79.590,-306.641,19.043,-4.395
1572494017.886,23.438,27.832,-328.125,21.973,8.301
1572494017.890,36.133,-9.277,-517.090,27.832,-6.836
1572494017.894,30.273,149.902,-261.719,20.508,29.297
1572494017.898,29.785,189.453,33.691,21.484,34.668
1572494017.902,39.062,57.617,-133.789,39.551,7.324
1572494017.906,35.156,48.340,-190.430,44.434,15.137
1572494017.910,26.367,118.652,-16.113,39.551,32.715
1572494017.914,22.461,102.051,31.738,36.133,33.691
1572494017.918,26.855,36.621,-125.000,37.598,24.414
1572494017.922,27.344,54.199,-162.109,38.574,21.484
1572494017.926,24.902,96.680,-7.812,41.992,28.809
1572494017.929,34.180,29.297,-152.344,46.875,5.371
1572494017.933,29.297,-20.508,-395.996,31.250,4.395
1572494017.937,21.484,23.926,-439.941,26.367,0.000
1572494017.941,28.809,148.926,-171.387,38.086,23.926
1572494017.945,41.504,125.977,-5.371,45.410,38.086
1572494017.949,43.457,-6.836,-307.617,45.410,-2.441
1572494017.953,34.180,71.777,-322.754,35.156,2.930
1572494017.957,35.645,166.992,-25.879,34.180,29.785
1572494017.961,36.621,78.125,-92.773,40.527,9.766
1572494017.965,35.645,50.781,-217.285,39.551,26.855
1572494017.968,27.344,132.324,-101.562,29.785,49.805
1572494017.972,19.531,133.789,28.809,19.531,45.898
1572494017.976,31.250,30.273,-127.930,28.320,45.898
1572494017.980,37.109,-4.395,-326.660,39.062,32.227
1572494017.984,28.809,57.129,-319.824,24.902,11.230
1572494017.988,17.578,104.492,-257.812,12.207,16.113
1572494017.992,16.602,60.547,-260.742,16.602,44.434
1572494017.996,25.879,-11.230,-505.371,22.949,14.648
1572494018.000,24.414,137.695,-320.801,19.043,3.906
1572494018.004,24.902,196.289,48.828,27.344,29.785
1572494018.008,38.574,13.672,-168.945,42.480,13.184
1572494018.011,39.551,0.000,-337.891,35.645,0.000
1572494018.015,32.715,138.184,-103.516,32.715,21.484
1572494018.019,35.645,116.211,-31.250,36.621,17.578
1572494018.023,37.598,61.035,-143.555,33.203,11.230
1572494018.027,37.109,69.336,-198.242,35.156,29.785
1572494018.031,33.691,102.539,-127.930,30.273,34.668
1572494018.035,31.250,85.449,-133.301,30.273,24.902
1572494018.039,43.457,-23.926,-395.020,42.480,5.859
1572494018.043,46.387,34.668,-413.086,36.621,11.719
1572494018.047,33.203,194.824,18.555,18.066,49.805
1572494018.051,35.645,93.262,23.438,22.461,44.922
1572494018.054,45.898,-49.316,-368.652,34.668,12.207
1572494018.058,41.504,72.266,-275.879,28.320,30.273
1572494018.062,39.062,184.082,122.070,24.902,55.176
1572494018.066,35.645,65.918,29.297,23.438,27.832
1572494018.070,26.367,-10.742,-175.293,25.391,6.348
1572494018.074,36.621,19.531,-194.336,38.574,9.277
1572494018.078,29.297,99.609,-40.039,27.344,30.762
1572494018.082,13.184,41.016,-62.012,5.371,23.926
1572494018.086,20.020,-32.227,-314.941,-0.488,1.953
1572494018.090,19.043,107.422,-128.418,2.930,16.602
1572494018.093,23.926,157.715,132.812,14.160,31.250
1572494018.097,35.645,19.531,-86.914,21.973,11.719
1572494018.101,41.016,19.043,-240.723,24.414,11.719
1572494018.105,53.223,127.441,-59.082,33.203,25.391
1572494018.109,55.176,67.383,-91.309,35.156,-3.906
1572494018.113,43.945,78.125,-117.676,29.785,-11.719
1572494018.117,34.668,77.637,-139.648,30.273,18.066
1572494018.121,30.762,83.496,-149.414,29.297,37.109
1572494018.125,37.109,98.633,-81.055,36.133,45.410
1572494018.129,51.270,83.984,-140.625,49.316,18.555
1572494018.133,47.852,133.301,-79.102,43.457,28.809
1572494018.136,41.504,154.297,65.430,36.621,47.363
1572494018.140,44.434,114.746,114.746,42.480,66.406
1572494018.144,53.711,-41.992,-269.531,47.363,27.344
1572494018.148,52.734,31.250,-369.141,42.969,11.230
1572494018.152,38.086,179.199,9.766,36.621,36.621
1572494018.156,34.180,86.914,-59.082,35.645,14.160
1572494018.160,41.992,82.031,-79.102,35.645,43.945
1572494018.164,43.945,85.449,-116.699,35.156,38.086
1572494018.168,38.574,75.195,-206.543,34.668,11.719
1572494018.172,36.621,44.434,-284.180,39.551,10.742
1572494018.176,28.320,63.477,-333.984,29.785,18.066
1572494018.179,16.602,182.617,-123.535,12.207,25.879
1572494018.183,23.926,209.473,73.730,13.184,38.086
1572494018.187,34.180,66.406,-106.445,25.391,19.043
1572494018.191,25.391,14.648,-386.230,22.949,-24.414
1572494018.195,10.254,187.988,-94.727,11.230,11.719
1572494018.199,13.184,158.691,26.367,16.113,13.184
1572494018.203,19.043,110.840,-72.266,20.996,10.742
1572494018.207,16.113,115.234,-61.035,19.531,19.043
1572494018.211,20.020,58.594,-184.082,26.855,-17.578
1572494018.215,25.879,60.059,-251.465,31.738,-16.113
1572494018.218,33.203,0.000,-448.730,35.645,-24.414
1572494018.222,26.367,62.500,-447.266,28.809,-14.648
1572494018.226,26.855,193.848,-76.660,27.832,19.531
1572494018.230,45.410,105.469,-63.965,41.504,2.930
1572494018.234,45.898,69.336,-184.570,34.180,-14.160
1572494018.238,38.574,128.418,-98.633,23.926,13.184
1572494018.242,38.574,129.395,7.812,28.809,17.090
1572494018.246,45.410,68.848,-32.227,35.645,24.414
1572494018.250,58.594,54.688,-65.430,41.016,45.898
1572494018.254,58.594,85.938,-29.297,41.992,34.180
1572494018.258,45.898,57.129,-95.215,33.691,32.715
1572494018.261,39.551,-5.371,-269.043,28.809,28.320
1572494018.265,41.504,-29.785,-494.141,27.832,-1.953
1572494018.269,44.922,126.465,-299.316,29.785,3.418
1572494018.273,43.945,159.180,-5.371,29.785,25.879
1572494018.277,39.062,39.551,-188.477,27.344,12.695
1572494018.281,34.668,57.617,-232.422,29.785,10.742
1572494018.285,35.156,119.629,-21.973,25.879,35.156
1572494018.289,37.109,92.773,-7.324,28.809,30.273
1572494018.293,26.855,63.477,-102.539,23.926,26.367
1572494018.297,19.043,60.059,-160.645,20.020,11.719
1572494018.301,16.113,76.172,-113.770,20.020,-2.441
1572494018.304,10.742,36.133,-172.852,18.066,27.832
1572494018.308,10.254,49.805,-225.586,15.625,42.480
1572494018.312,7.812,118.652,-88.867,8.789,43.945
1572494018.316,11.719,114.746,2.930,18.066,48.340
1572494018.320,18.555,75.684,-11.230,26.855,53.711
1572494018.324,15.625,30.273,-146.484,23.438,57.617
1572494018.328,13.184,69.824,-121.582,22.949,58.594
1572494018.332,22.461,61.523,-108.398,32.715,44.922
1572494018.336,21.973,-1.465,-249.023,38.086,24.902
1572494018.340,17.090,3.906,-352.051,29.785,7.324
1572494018.343,16.602,103.027,-224.609,21.484,14.160
1572494018.347,18.066,140.137,-7.812,27.344,37.109
1572494018.351,30.273,12.695,-175.293,39.551,25.391
1572494018.355,31.738,-47.363,-486.816,35.156,-16.602
1572494018.359,25.879,56.152,-403.809,24.414,-13.184
1572494018.363,26.855,95.215,-253.906,25.879,-2.930
1572494018.367,29.297,25.879,-349.609,30.273,-6.348
1572494018.371,32.227,12.207,-486.816,25.391,2.930
1572494018.375,36.133,168.945,-189.453,28.320,36.133
1572494018.379,29.297,199.219,130.859,22.461,60.547
1572494018.383,28.809,6.836,-169.922,18.555,8.301
1572494018.386,39.551,-41.504,-451.660,27.832,-11.719
1572494018.390,36.133,86.914,-264.648,29.297,11.230
1572494018.394,33.691,101.562,-119.629,29.785,11.719
1572494018.398,28.320,43.945,-187.500,29.785,12.207
1572494018.402,18.555,20.020,-321.289,29.297,0.977
1572494018.406,15.625,105.469,-169.922,14.648,14.648
1572494018.410,23.926,106.934,-26.367,16.602,31.738
1572494018.414,34.180,30.273,-181.641,31.250,24.902
1572494018.418,27.832,72.754,-171.387,24.902,28.809
1572494018.422,15.625,121.094,9.766,20.020,33.691
1572494018.426,27.344,49.316,-56.152,27.832,19.043
1572494018.429,44.922,3.906,-228.516,43.945,0.977
1572494018.433,36.621,78.613,-169.434,38.086,10.254
1572494018.437,26.855,108.887,-78.125,29.297,33.203
1572494018.441,35.645,42.969,-196.289,39.062,13.672
1572494018.445,40.039,-19.531,-449.219,51.270,-1.465
1572494018.449,31.250,82.520,-440.918,47.852,12.695
1572494018.453,28.320,205.566,-114.258,38.086,25.391
1572494018.457,32.715,105.957,-148.926,39.551,18.066
1572494018.461,31.738,71.289,-243.164,34.180,35.156
1572494018.465,24.902,172.852,-18.555,28.320,66.895
1572494018.468,28.320,144.531,45.898,34.180,44.922
1572494018.472,32.715,9.277,-189.453,37.598,18.066
1572494018.476,38.574,-21.484,-437.988,44.434,19.531
1572494018.480,36.621,159.668,-159.180,37.109,53.223
1572494018.484,29.785,182.617,46.875,27.832,40.039
1572494018.488,30.273,51.270,-208.984,34.668,11.230
1572494018.492,27.344,10.742,-428.223,29.297,1.465
1572494018.496,18.555,124.512,-272.949,23.926,9.277
1572494018.500,22.949,161.621,-77.637,23.926,20.508
1572494018.504,26.367,64.941,-256.348,23.438,1.465
1572494018.508,28.809,94.727,-296.875,28.320,4.883
1572494018.511,30.762,177.246,-28.320,32.227,17.578
1572494018.515,25.879,118.164,-18.555,31.250,15.625
1572494018.519,31.250,70.312,-181.641,25.879,11.230
1572494018.523,36.133,124.512,-158.203,29.785,9.766
1572494018.527,41.504,147.949,-43.457,44.922,-3.418
1572494018.531,41.016,76.660,-124.512,49.805,-20.996
1572494018.535,40.039,-26.367,-441.895,43.945,-18.066
1572494018.539,45.410,46.875,-497.559,37.598,-5.859
1572494018.543,43.457,155.762,-255.859,36.621,0.977
1572494018.547,41.504,109.863,-209.961,40.527,9.766
1572494018.551,47.852,39.062,-399.902,45.898,9.277
1572494018.554,38.086,149.902,-277.832,37.598,6.348
1572494018.558,28.809,198.730,-12.695,35.645,27.344
1572494018.562,32.715,54.688,-204.590,42.969,29.297
1572494018.566,40.039,46.875,-322.754,43.457,14.160
1572494018.570,39.551,167.480,-58.105,41.992,27.832
1572494018.574,33.691,111.328,-7.812,35.645,9.766
1572494018.578,27.344,65.918,-142.090,22.461,1.953
1572494018.582,26.367,91.309,-79.102,27.344,28.320
1572494018.586,28.809,41.016,-145.996,35.645,18.066
1572494018.590,20.020,82.031,-145.508,24.902,22.949
1572494018.593,22.461,15.625,-262.207,21.484,15.137
1572494018.597,23.438,-3.906,-459.961,19.043,-8.301
1572494018.601,17.090,189.941,-31.250,15.625,51.270
1572494018.605,22.461,116.211,55.176,22.949,45.898
1572494018.609,23.926,37.598,-173.828,30.762,14.648
1572494018.613,21.973,100.098,-125.977,30.762,23.926
1572494018.617,16.113,116.211,-33.691,24.414,36.621
1572494018.621,13.184,72.266,-86.914,28.809,35.156
1572494018.625,14.160,78.613,-75.684,32.227,39.551
1572494018.629,15.625,117.188,45.898,29.785,56.152
1572494018.633,23.438,35.156,-75.195,41.016,35.156
1572494018.636,29.297,-36.621,-305.176,47.363,15.137
1572494018.640,24.902,23.926,-289.062,37.109,21.484
1572494018.644,19.043,109.375,-54.199,28.809,40.039
1572494018.648,24.902,77.637,1.953,36.133,44.434
1572494018.652,28.809,-48.828,-232.910,40.527,17.578
1572494018.656,26.367,-86.426,-491.699,33.691,-15.625
1572494018.660,22.949,109.375,-219.727,31.250,23.926
1572494018.664,29.785,120.117,14.648,36.133,36.133
1572494018.668,40.527,37.598,-127.441,41.016,11.230
1572494018.672,34.180,42.480,-177.246,31.738,34.668
1572494018.676,24.902,60.547,-159.668,24.414,28.320
1572494018.679,29.297,54.199,-166.016,34.668,36.621
1572494018.683,25.879,34.668,-272.461,35.156,37.109
1572494018.687,18.066,83.496,-207.520,21.484,18.555
1572494018.691,25.391,107.910,-101.074,22.949,7.324
1572494018.695,29.297,109.863,-17.578,32.715,20.020
1572494018.699,23.926,-47.363,-359.863,27.832,-8.301
1572494018.703,8.301,-5.859,-512.207,12.695,-7.812
1572494018.707,9.766,167.969,-96.680,7.812,33.203
1572494018.711,22.949,74.707,-126.953,20.996,1.465
1572494018.715,13.672,28.809,-265.137,20.508,5.371
1572494018.718,-2.441,91.797,-174.805,8.789,18.555
1572494018.722,0.488,87.402,-72.754,15.137,13.184
1572494018.726,15.137,-21.973,-226.562,25.879,14.160
1572494018.730,20.996,-69.336,-522.949,25.879,10.254
1572494018.734,19.043,87.402,-348.633,18.555,10.254
1572494018.738,17.090,170.410,1.953,18.555,33.691
1572494018.742,18.555,66.895,-67.871,22.949,39.062
1572494018.746,10.742,2.930,-259.766,10.742,-11.719
1572494018.750,15.625,65.918,-168.457,17.578,-15.137
1572494018.754,27.832,78.125,-41.016,35.156,20.996
1572494018.758,20.508,30.762,-133.789,27.832,24.902
1572494018.761,20.508,45.410,-171.387,20.996,24.414
1572494018.765,29.785,78.125,-104.980,26.855,11.719
1572494018.769,28.809,86.914,-61.523,30.273,21.484
1572494018.773,26.855,28.809,-188.965,35.645,21.484
1572494018.777,24.902,19.043,-354.492,32.227,1.465
1572494018.781,20.996,125.488,-151.367,21.973,27.344
1572494018.785,23.438,84.961,-101.562,25.879,30.762
1572494018.789,22.461,33.203,-257.812,27.832,20.020
1572494018.793,23.438,118.164,-136.719,22.461,35.645
1572494018.797,28.320,136.230,-2.441,27.832,37.109
1572494018.801,31.250,67.383,-53.223,31.738,26.855
1572494018.804,24.902,14.160,-200.195,24.414,12.207
1572494018.808,19.043,59.082,-154.785,24.902,15.137
1572494018.812,20.996,78.125,-74.707,25.391,9.766
1572494018.816,21.973,39.551,-90.820,26.855,18.555
1572494018.820,16.602,-75.195,-428.223,20.020,13.184
1572494018.824,16.602,23.926,-492.676,11.719,-6.836
1572494018.828,22.461,200.195,-36.621,25.391,33.203
1572494018.832,25.391,59.570,-94.727,36.621,21.484
1572494018.836,20.020,-41.504,-415.527,33.203,-32.715
1572494018.840,14.160,98.633,-224.121,20.508,-8.789
1572494018.843,21.484,80.566,-124.512,23.926,9.277
1572494018.847,33.203,4.395,-284.180,44.434,-9.766
1572494018.851,32.227,32.715,-246.582,41.016,-2.441
1572494018.855,23.926,110.352,-41.016,24.414,24.414
1572494018.859,25.879,107.910,37.598,28.320,51.758
1572494018.863,33.203,-27.344,-234.863,35.645,29.297
1572494018.867,34.668,-59.570,-497.559,31.738,-28.320
1572494018.871,28.809,89.355,-323.730,31.250,-13.184
1572494018.875,25.879,162.109,0.000,35.156,43.457
1572494018.879,32.227,2.930,-213.867,32.227,15.625
1572494018.883,31.738,1.465,-370.605,28.809,-4.883
1572494018.886,20.020,167.480,21.973,26.855,39.062
1572494018.890,23.438,85.938,25.879,37.109,18.555
1572494018.894,38.574,12.207,-197.754,41.992,3.418
1572494018.898,32.715,39.551,-260.742,32.715,8.789
1572494018.902,16.602,96.680,-105.957,24.902,22.461
1572494018.906,17.578,75.195,-62.988,15.137,21.484
1572494018.910,30.273,26.367,-198.730,20.996,-19.043
1572494018.914,29.297,36.621,-266.602,23.926,-21.484
1572494018.918,18.066,80.566,-212.402,14.648,-11.230
1572494018.922,19.531,71.777,-139.160,20.020,7.812
1572494018.926,31.250,27.832,-186.035,28.809,19.531
1572494018.929,36.621,105.469,-41.504,29.785,22.461
1572494018.933,26.855,114.258,83.984,22.461,27.344
1572494018.937,21.484,-10.742,-104.980,24.414,21.484
1572494018.941,25.879,-60.059,-385.254,37.598,-13.184
1572494018.945,25.391,108.398,-166.504,36.133,-5.859
1572494018.949,20.020,138.184,65.918,39.062,34.668
1572494018.953,16.602,64.453,-46.875,45.898,25.879
1572494018.957,19.043,44.434,-189.453,41.016,8.301
1572494018.961,23.926,75.684,-192.383,38.086,18.066
1572494018.965,30.762,71.289,-205.078,36.133,17.578
1572494018.968,31.738,35.645,-336.426,30.273,5.859
1572494018.972,27.832,119.141,-217.773,24.902,28.320
1572494018.976,23.438,202.148,79.102,23.438,52.734
1572494018.980,23.926,131.348,93.750,27.832,37.109
1572494018.984,38.086,-6.348,-244.141,34.180,3.418
1572494018.988,38.574,55.176,-290.527,29.297,9.277
1572494018.992,22.949,136.230,-53.711,17.090,4.883
1572494018.996,22.461,67.383,-71.777,20.508,13.672
1572494019.000,30.762,60.059,-81.055,31.250,38.086
1572494019.004,25.879,102.051,5.859,20.508,38.086
1572494019.008,21.973,45.410,-80.078,15.137,27.832
1572494019.011,27.344,-17.578,-303.223,19.531,9.277
1572494019.015,28.809,38.086,-285.645,22.949,1.953
1572494019.019,25.391,129.883,-47.852,22.461,23.926
1572494019.023,20.508,137.207,108.887,18.555,53.223
1572494019.027,23.438,4.395,-86.914,19.043,28.320
1572494019.031,30.762,-59.082,-444.336,18.066,-16.113
1572494019.035,18.066,122.070,-218.750,15.137,9.277
1572494019.039,15.137,149.414,34.668,22.461,24.414
1572494019.043,25.391,63.477,-91.309,33.203,9.766
1572494019.047,23.438,74.707,-112.305,28.809,19.043
1572494019.051,20.508,111.328,3.418,22.461,22.461
1572494019.054,22.949,37.109,-145.508,30.762,11.230
1572494019.058,25.879,10.742,-340.820,30.762,-1.465
1572494019.062,33.691,83.008,-232.422,32.227,-7.812
1572494019.066,34.180,80.078,-93.750,35.156,3.906
1572494019.070,31.738,15.137,-175.781,38.086,19.531
1572494019.074,28.809,16.113,-297.852,36.133,19.043
1572494019.078,29.785,78.125,-192.871,36.133,20.508
1572494019.082,26.855,135.742,54.688,34.180,58.594
1572494019.086,20.020,70.801,84.961,28.809,68.359
1572494019.090,28.320,-84.473,-346.680,33.691,-0.488
1572494019.093,33.203,20.996,-363.281,38.574,-3.906
1572494019.097,39.062,123.047,-27.832,44.922,19.531
1572494019.101,46.387,10.254,-140.625,45.410,23.438
1572494019.105,41.016,-45.898,-427.734,30.762,5.371
1572494019.109,25.391,87.891,-260.742,17.578,14.160
1572494019.113,30.273,145.996,39.551,19.043,35.645
1572494019.117,41.504,0.000,-130.371,28.809,8.789
1572494019.121,38.574,-53.711,-386.230,28.809,-9.766
1572494019.125,38.086,73.242,-250.000,26.855,4.395
1572494019.129,36.133,114.258,-24.902,32.715,21.973
1572494019.133,40.527,33.691,-104.004,32.227,31.738
1572494019.136,42.480,19.531,-188.965,32.715,32.715
1572494019.140,36.621,105.469,4.395,26.367,43.457
1572494019.144,36.621,83.008,57.129,21.973,46.875
1572494019.148,34.668,-22.461,-204.590,28.320,24.902
1572494019.152,33.203,-13.672,-395.508,29.297,7.324
1572494019.156,35.156,136.230,-118.652,34.180,30.762
1572494019.160,39.062,126.465,62.988,37.598,57.617
1572494019.164,37.598,41.016,-87.402,36.133,44.434
1572494019.168,37.109,69.336,-124.023,34.668,30.273
1572494019.172,43.457,126.953,36.621,38.086,48.828
1572494019.176,49.805,94.727,66.406,48.340,60.547
1572494019.179,49.805,20.508,-127.441,49.805,38.086
1572494019.183,51.270,48.828,-206.543,49.316,19.043
1572494019.187,50.293,124.023,-38.086,47.852,28.320
1572494019.191,39.062,66.406,-32.227,37.598,13.672
1572494019.195,33.691,-104.492,-502.441,28.320,-32.227
1572494019.199,31.738,8.789,-548.340,22.461,-34.668
1572494019.203,30.273,207.520,-46.387,24.414,4.883
1572494019.207,34.180,87.891,-67.871,32.715,2.930
1572494019.211,29.785,-13.184,-407.715,30.273,-15.625
1572494019.215,23.926,140.625,-220.215,19.043,18.066
1572494019.218,26.367,183.105,65.430,21.973,31.250
1572494019.222,30.273,69.824,-117.188,30.273,-1.465
1572494019.226,25.391,60.059,-210.938,25.391,-13.184
1572494019.230,25.391,116.211,-59.082,26.367,3.906
1572494019.234,32.227,110.352,6.836,32.227,17.090
1572494019.238,32.227,55.176,-115.723,28.809,16.602
1572494019.242,25.879,12.695,-344.727,24.414,-17.578
1572494019.246,15.137,80.566,-305.664,22.949,-13.184
1572494019.250,26.855,114.746,-192.383,36.133,2.441
1572494019.254,47.363,4.395,-419.434,47.852,-11.230
1572494019.258,43.945,27.344,-541.016,37.598,-36.133
1572494019.261,24.902,193.359,-211.914,25.879,-33.203
1572494019.265,20.020,195.801,-10.742,28.809,-4.395
1572494019.269,33.203,28.320,-290.527,36.133,-5.371
1572494019.273,37.598,37.109,-466.309,30.273,-3.418
1572494019.277,33.203,214.355,-82.520,30.762,15.625
1572494019.281,33.691,127.441,-69.336,37.598,4.883
1572494019.285,35.645,89.355,-168.457,34.180,6.836
1572494019.289,44.922,125.000,-104.980,37.109,30.762
1572494019.293,49.316,101.074,-169.434,39.062,23.438
1572494019.297,38.086,69.336,-237.793,36.621,20.508
1572494019.301,26.855,49.316,-350.586,25.391,20.508
1572494019.304,23.438,146.973,-196.289,24.414,15.137
1572494019.308,30.762,193.359,74.219,34.180,39.551
1572494019.312,28.320,55.176,-83.008,34.668,26.855
1572494019.316,21.484,31.738,-214.355,35.645,11.719
1572494019.320,21.973,166.016,65.430,34.668,59.082
1572494019.324,16.602,126.465,130.859,34.668,60.059
1572494019.328,11.719,62.988,-30.762,34.668,33.691
1572494019.332,4.883,72.754,-41.504,21.973,42.969
1572494019.336,5.371,9.766,-170.410,23.926,13.672
1572494019.340,10.254,19.043,-248.047,30.273,8.789
1572494019.343,10.742,62.012,-181.641,23.438,37.109
1572494019.347,13.672,76.172,-145.508,23.438,32.227
1572494019.351,13.184,87.402,-80.078,20.996,41.016
1572494019.355,6.836,44.434,-124.512,13.184,51.270
1572494019.359,1.953,31.738,-198.242,9.277,54.199
1572494019.363,6.348,78.125,-137.695,15.137,54.199
1572494019.367,16.602,93.750,-33.203,17.578,26.367
1572494019.371,19.043,42.480,-69.336,20.508,13.672
1572494019.375,17.578,-25.391,-318.359,19.043,-2.441
1572494019.379,20.020,48.340,-309.570,14.648,-22.949
1572494019.383,22.949,82.520,-163.086,26.367,-13.672
1572494019.386,22.949,10.254,-325.684,26.855,-24.902
1572494019.390,20.996,43.457,-410.156,16.113,-36.133
1572494019.394,20.996,172.852,-128.906,11.230,0.977
1572494019.398,22.949,168.945,84.961,11.230,20.020
1572494019.402,26.855,61.523,-74.707,18.066,2.930
1572494019.406,35.156,18.066,-212.402,22.949,3.418
1572494019.410,33.203,81.055,-162.109,17.090,4.395
1572494019.414,24.902,152.344,-8.301,14.160,9.277
1572494019.418,31.250,26.855,-199.219,22.461,-4.395
1572494019.422,28.320,4.395,-385.254,16.113,-2.441
1572494019.426,17.090,143.066,-83.496,9.277,32.227
1572494019.429,24.902,81.543,-82.031,24.902,21.973
1572494019.433,40.527,-10.254,-383.789,34.180,-9.277
1572494019.437,36.133,60.547,-364.746,22.461,-5.371
1572494019.441,32.715,161.133,-69.336,23.926,11.719
1572494019.445,45.898,111.816,-25.879,40.527,10.742
1572494019.449,40.527,75.195,-112.793,43.457,18.066
1572494019.453,27.832,107.422,-107.910,32.715,19.043
1572494019.457,23.438,132.812,-20.020,24.902,13.184
1572494019.461,30.273,68.359,-69.336,27.832,-3.418
1572494019.465,37.598,-11.230,-356.445,28.809,-11.719
1572494019.468,31.738,95.703,-302.734,25.879,1.953
1572494019.472,35.645,172.852,7.324,31.738,19.043
1572494019.476,35.645,62.012,-166.992,36.133,12.207
1572494019.480,26.855,59.570,-267.578,27.344,13.184
1572494019.484,29.785,153.809,-64.453,26.855,21.484
1572494019.488,26.855,167.969,60.547,23.438,24.414
1572494019.492,23.926,58.105,-91.309,20.996,13.672
1572494019.496,25.391,1.953,-375.000,22.949,7.324
1572494019.500,17.578,146.973,-161.621,13.184,26.855
1572494019.504,21.484,163.574,77.637,22.461,31.250
1572494019.508,29.785,65.918,-101.074,31.250,3.418
1572494019.511,21.973,83.984,-164.551,17.578,-3.418
1572494019.515,15.137,131.836,-52.734,10.742,1.953
1572494019.519,24.902,90.332,-61.523,22.949,-5.371
1572494019.523,36.133,27.832,-233.398,33.203,-19.531
1572494019.527,39.551,48.340,-329.102,36.133,-12.207
1572494019.531,39.062,114.746,-264.648,28.809,2.441
1572494019.535,34.180,179.688,-32.227,16.602,34.668
1572494019.539,41.016,6.348,-291.992,21.484,-7.812
1572494019.543,40.039,-28.320,-610.840,23.438,-52.246
1572494019.547,28.320,190.430,-190.430,20.996,-10.254
1572494019.551,31.738,144.531,-15.625,25.391,2.930
1572494019.554,38.086,47.363,-235.840,31.250,-26.367
1572494019.558,42.480,123.535,-169.434,38.086,-10.742
1572494019.562,49.316,150.391,4.395,50.781,5.371
1572494019.566,52.734,64.941,-98.145,49.805,-7.324
1572494019.570,45.410,15.625,-269.531,38.086,-4.395
1572494019.574,36.621,63.965,-265.137,26.855,13.672
1572494019.578,39.062,125.488,-122.070,29.785,30.762
1572494019.582,48.828,78.613,-135.742,46.387,18.066
1572494019.586,47.852,41.504,-195.312,45.410,0.977
1572494019.590,43.457,97.168,-68.848,37.598,4.883
1572494019.593,39.551,103.516,23.926,31.250,19.531
1572494019.597,38.574,1.953,-175.293,27.832,6.348
1572494019.601,36.133,-14.648,-322.266,29.785,-10.742
1572494019.605,32.715,100.586,-96.191,28.320,11.719
1572494019.609,25.391,81.543,-5.371,23.438,20.996
1572494019.613,16.602,0.488,-181.641,20.020,-5.859
1572494019.617,22.461,-0.977,-319.336,23.926,-3.418
1572494019.621,21.484,56.152,-232.910,29.785,21.484
1572494019.625,19.531,47.363,-229.492,28.320,7.324
1572494019.629,24.414,28.320,-345.215,30.273,-0.488
1572494019.633,23.438,68.848,-314.941,31.250,23.438
1572494019.636,15.137,106.445,-206.543,26.367,28.809
1572494019.640,16.113,102.539,-135.742,29.785,26.367
1572494019.644,28.809,2.441,-352.051,36.133,18.555
1572494019.648,26.367,61.523,-359.375,28.320,23.926
1572494019.652,22.461,188.477,-29.785,30.762,11.719
1572494019.656,27.344,122.559,24.414,38.086,16.113
1572494019.660,30.273,16.113,-194.824,33.691,50.781
1572494019.664,33.691,22.461,-353.027,34.180,18.555
1572494019.668,35.156,102.539,-189.941,34.668,13.184
1572494019.672,40.527,51.758,-211.426,45.898,18.555
1572494019.676,34.668,40.527,-273.438,45.410,0.000
1572494019.679,23.438,136.719,-63.965,29.785,18.555
1572494019.683,28.320,137.695,78.125,39.062,28.809
1572494019.687,37.109,32.715,-81.055,39.551,26.855
1572494019.691,35.645,6.348,-255.371,28.809,33.203
1572494019.695,24.902,103.027,-121.094,23.438,23.926
1572494019.699,21.484,136.719,55.664,22.949,27.832
1572494019.703,24.902,11.230,-125.000,30.273,23.438
1572494019.707,24.902,-75.684,-521.484,21.973,-34.668
1572494019.711,22.949,79.102,-373.047,19.043,-20.020
1572494019.715,31.738,116.699,-186.035,34.180,11.719
1572494019.718,35.645,49.805,-302.734,37.109,11.719
1572494019.722,28.809,80.078,-307.617,29.785,-7.324
1572494019.726,19.531,168.457,-63.477,16.113,-8.301
1572494019.730,23.438,139.648,10.254,20.020,7.324
1572494019.734,31.250,81.055,-88.379,29.785,14.160
1572494019.738,31.250,85.938,-94.727,29.297,9.766
1572494019.742,32.227,108.398,-0.977,27.344,8.789
1572494019.746,35.156,42.969,-94.238,27.832,2.441
1572494019.750,33.691,18.555,-225.586,31.738,0.488
1572494019.754,39.062,91.309,-130.859,33.203,4.395
1572494019.758,44.434,69.824,-146.973,38.574,8.301
1572494019.761,41.016,26.367,-249.023,42.969,17.090
1572494019.765,39.551,-43.945,-497.070,41.504,11.719
1572494019.769,30.762,68.848,-424.316,30.273,3.418
1572494019.773,27.832,211.426,34.668,28.809,35.156
1572494019.777,38.086,95.215,0.488,43.457,48.340
1572494019.781,39.062,41.504,-147.461,44.434,20.996
1572494019.785,31.250,124.512,3.418,32.715,24.902
1572494019.789,30.762,111.816,61.523,35.645,23.438
1572494019.793,32.715,29.297,-126.465,41.504,4.395
1572494019.797,33.691,18.066,-253.906,40.039,-21.973
1572494019.801,28.809,89.844,-71.289,28.809,-2.930
1572494019.804,21.973,45.410,-104.004,21.484,22.461
1572494019.808,25.879,14.160,-304.688,26.855,9.277
1572494019.812,34.668,62.988,-275.391,33.691,9.277
1572494019.816,33.203,96.680,-179.688,32.227,22.461
1572494019.820,28.809,91.797,-159.668,26.855,34.668
1572494019.824,23.438,14.648,-364.258,26.855,6.348
1572494019.828,25.879,61.035,-368.164,32.227,5.859
1572494019.832,32.227,139.648,-158.203,33.203,23.926
1572494019.836,29.297,97.168,-170.898,33.203,12.695
1572494019.840,33.203,33.203,-368.164,31.250,-8.789
1572494019.843,35.645,81.055,-349.121,32.227,-7.812
1572494019.847,35.645,128.906,-196.777,45.898,-14.160
1572494019.851,42.480,80.566,-237.305,55.176,-28.320
1572494019.855,45.410,5.371,-460.449,46.875,-24.902
1572494019.859,36.133,88.867,-403.320,36.133,-7.812
1572494019.863,22.949,178.223,-113.281,35.645,16.602
1572494019.867,24.414,100.098,-137.207,34.180,23.438
1572494019.871,30.762,64.941,-193.359,35.645,23.438
1572494019.875,30.762,107.910,-109.375,35.156,26.367
1572494019.879,30.273,117.188,-37.109,40.527,31.250
1572494019.883,37.109,35.645,-161.621,43.457,26.855
1572494019.886,37.109,1.953,-403.320,30.273,-1.953
1572494019.890,23.438,168.945,-152.344,18.555,4.883
1572494019.894,26.855,196.777,120.605,26.367,30.273
1572494019.898,37.598,86.914,-69.824,34.668,11.719
1572494019.902,36.133,54.199,-269.043,39.062,-21.484
1572494019.906,27.344,91.797,-242.676,30.762,-27.832
1572494019.910,31.250,115.234,-125.977,29.297,1.465
1572494019.914,29.297,50.293,-265.625,22.461,-1.465
1572494019.918,25.391,57.617,-380.371,15.625,-33.691
1572494019.922,28.320,129.395,-210.449,32.227,-26.855
1572494019.926,27.832,121.582,-120.605,35.156,-8.301
1572494019.929,28.320,27.344,-342.285,28.320,-24.902
1572494019.933,25.879,71.289,-396.973,25.391,-44.922
1572494019.937,24.902,203.125,-19.531,21.484,-15.137
1572494019.941,34.668,117.676,35.645,32.715,2.930
1572494019.945,46.875,17.090,-219.727,45.410,-29.785
1572494019.949,43.457,76.660,-229.492,42.480,-24.414
1572494019.953,38.086,107.910,-104.004,42.480,8.789
1572494019.957,41.016,44.922,-169.434,53.711,5.371
1572494019.961,52.734,31.250,-217.773,64.941,1.465
1572494019.965,55.176,61.523,-142.090,64.453,4.883
1572494019.968,50.781,50.293,-148.438,61.035,-12.695
1572494019.972,49.805,-0.488,-245.117,59.082,-10.742
1572494019.976,53.711,-6.348,-322.266,63.477,-2.930
1572494019.980,56.152,90.332,-138.184,68.359,19.043
1572494019.984,50.781,87.891,-37.109,62.500,18.555
1572494019.988,50.781,22.949,-173.828,55.664,22.949
1572494019.992,47.363,20.020,-239.258,47.363,41.992
1572494019.996,39.551,66.895,-130.859,43.457,21.484
1572494020.000,40.527,69.336,-61.523,44.922,37.109
1572494020.004,32.715,35.645,-165.039,41.504,43.457
1572494020.008,27.832,57.617,-192.383,27.832,30.273
1572494020.011,32.227,82.031,-114.746,23.926,14.160
1572494020.015,35.156,67.871,-102.539,34.668,4.395
1572494020.019,41.504,-15.625,-291.992,36.133,12.207
1572494020.023,45.410,0.977,-394.043,35.156,18.555
1572494020.027,29.785,161.621,-39.062,20.020,22.949
1572494020.031,22.461,127.930,77.148,16.113,30.762
1572494020.035,36.133,-0.488,-235.352,31.738,19.043
1572494020.039,38.574,32.715,-298.340,28.320,5.859
1572494020.043,32.715,134.766,-26.855,31.738,25.879
1572494020.047,38.086,59.570,-56.152,34.668,20.996
1572494020.051,43.945,-3.906,-304.688,30.273,6.348
1572494020.054,43.945,132.812,-99.609,30.273,36.133
1572494020.058,49.805,173.828,181.641,35.156,25.391
1572494020.062,55.664,46.387,1.953,43.945,12.207
1572494020.066,49.316,25.391,-106.934,33.691,20.996
1572494020.070,37.598,130.371,100.586,23.438,34.668
1572494020.074,57.129,128.906,191.895,48.340,35.645
1572494020.078,70.312,13.672,-67.871,55.176,12.207
1572494020.082,46.875,12.207,-237.793,26.855,1.465
1572494020.086,35.156,103.516,-86.914,23.438,22.461
1572494020.090,35.156,89.355,-72.266,34.180,27.832
1572494020.093,34.668,-1.465,-311.035,34.668,-10.742
1572494020.097,33.691,18.555,-451.660,31.738,-18.555
1572494020.101,29.785,203.125,-28.809,31.250,29.297
1572494020.105,30.273,180.664,213.867,33.203,52.734
1572494020.109,31.738,62.012,-27.344,29.785,23.926
1572494020.113,23.438,92.285,-86.426,19.531,9.277
1572494020.117,16.602,148.438,125.488,19.531,32.715
1572494020.121,25.879,64.941,74.707,26.855,23.926
1572494020.125,30.273,27.344,-91.309,31.738,12.207
1572494020.129,29.785,97.168,-7.812,36.133,19.531
1572494020.133,34.180,49.316,-73.242,35.156,-6.348
1572494020.136,41.016,-9.277,-279.297,38.086,-34.180
1572494020.140,40.039,-14.648,-459.961,31.250,-29.297
1572494020.144,36.621,99.609,-360.840,19.531,-15.137
1572494020.148,35.156,206.055,2.930,24.414,-7.812
1572494020.152,36.133,119.141,-4.883,33.691,3.906
1572494020.156,39.062,73.730,-105.957,40.039,10.742
1572494020.160,43.457,141.602,26.855,39.551,0.488
1572494020.164,47.363,149.902,133.301,44.922,5.859
1572494020.168,49.805,35.156,-55.664,50.781,11.719
1572494020.172,51.758,20.508,-251.465,44.922,-7.324
1572494020.176,50.293,152.344,-1.465,41.992,11.230
1572494020.179,49.316,102.051,4.883,40.527,26.855
1572494020.183,39.551,74.219,-168.457,27.832,12.695
1572494020.187,36.133,130.371,-57.129,24.902,23.926
1572494020.191,37.598,146.484,100.098,29.297,36.621
1572494020.195,33.691,93.262,82.520,28.320,24.902
1572494020.199,25.391,19.531,-127.930,21.484,2.930
1572494020.203,14.648,60.059,-172.852,12.695,-0.977
1572494020.207,16.602,118.652,-11.230,12.695,16.113
1572494020.211,20.020,76.172,12.695,17.090,15.137
1572494020.215,20.020,-68.848,-347.168,14.648,-3.418
1572494020.218,14.160,8.301,-398.438,4.395,14.160
1572494020.222,8.301,155.273,12.207,7.812,41.016
1572494020.226,10.742,16.602,-142.090,20.996,14.648
1572494020.230,9.766,-8.789,-378.418,19.043,3.418
1572494020.234,9.766,124.512,-175.781,9.766,16.602
1572494020.238,11.230,166.992,42.480,15.137,23.438
1572494020.242,14.160,53.223,-81.543,23.438,8.789
1572494020.246,23.926,-51.270,-437.988,22.949,-19.043
1572494020.250,25.391,82.520,-351.562,21.484,-32.227
1572494020.254,22.949,145.020,-45.410,21.484,0.977
1572494020.258,31.250,44.922,-170.898,32.715,20.996
1572494020.261,34.668,61.523,-243.652,36.621,7.812
1572494020.265,14.648,147.461,-40.039,17.090,37.598
1572494020.269,13.184,136.230,72.754,15.137,63.965
1572494020.273,27.832,-24.902,-251.465,27.344,24.414
1572494020.277,26.855,-30.762,-522.461,29.785,15.625
1572494020.281,25.879,146.973,-203.125,26.855,20.508
1572494020.285,35.645,121.582,-67.871,31.738,-11.230
1572494020.289,31.738,81.543,-155.273,26.367,4.395
1572494020.293,25.391,95.703,-123.535,13.184,16.113
1572494020.297,29.785,113.281,-28.320,16.113,6.348
1572494020.301,25.879,80.566,20.508,23.926,22.949
1572494020.304,27.832,-44.434,-272.949,29.785,-9.277
1572494020.308,21.973,32.715,-289.062,20.996,-12.207
1572494020.312,10.742,100.586,-68.359,6.836,24.902
1572494020.316,14.648,12.207,-184.082,7.324,22.949
1572494020.320,19.043,-75.684,-507.324,12.695,-1.465
1572494020.324,14.648,33.691,-432.617,15.137,12.207
1572494020.328,19.043,163.086,-29.297,22.949,32.227
1572494020.332,24.902,33.691,-128.418,26.855,7.324
1572494020.336,29.785,-37.109,-392.090,28.809,-27.832
1572494020.340,30.762,98.633,-237.793,32.227,-12.695
1572494020.343,27.344,158.203,12.207,32.227,23.438
1572494020.347,29.297,30.273,-170.898,29.785,15.137
1572494020.351,24.414,-8.789,-337.891,24.902,1.953
1572494020.355,20.020,91.797,-158.203,22.461,13.184
1572494020.359,25.391,104.492,-24.902,25.391,25.879
1572494020.363,35.645,-15.137,-248.047,33.691,5.371
1572494020.367,38.574,-59.570,-530.762,32.227,0.977
1572494020.371,30.762,108.398,-283.691,24.902,51.758
1572494020.375,25.879,176.758,35.156,28.809,66.895
1572494020.379,29.297,20.508,-201.172,30.762,18.555
1572494020.383,24.902,-4.883,-439.941,22.949,-2.930
1572494020.386,12.695,181.152,-70.801,13.672,27.344
1572494020.390,12.695,134.766,46.875,20.996,28.809
1572494020.394,15.625,45.410,-149.414,19.043,14.160
1572494020.398,17.578,81.055,-174.316,9.277,0.488
1572494020.402,18.555,126.465,26.367,16.602,28.320
1572494020.406,23.438,69.824,-9.277,20.020,30.273
1572494020.410,27.832,40.527,-128.418,22.949,10.254
1572494020.414,28.320,48.828,-176.270,28.320,13.672
1572494020.418,28.809,94.727,-155.273,27.344,17.578
1572494020.422,19.531,91.797,-62.988,20.996,31.738
1572494020.426,20.020,-18.066,-361.816,18.555,-2.930
1572494020.429,23.438,114.258,-264.160,21.484,-0.488
1572494020.433,19.531,187.012,104.004,24.902,38.086
1572494020.437,16.113,77.148,0.488,28.320,31.250
1572494020.441,22.949,72.754,-56.641,29.297,33.203
1572494020.445,31.250,111.816,59.082,29.297,33.203
1572494020.449,34.180,77.637,29.297,38.086,5.859
1572494020.453,31.250,68.359,-52.246,35.645,13.672
1572494020.457,32.227,64.941,-80.566,31.738,12.207
1572494020.461,34.180,40.527,-147.461,38.086,18.066
1572494020.465,28.320,89.355,-101.562,38.086,40.527
1572494020.468,35.156,14.648,-262.207,39.551,3.418
1572494020.472,31.250,-2.441,-460.449,26.855,-15.625
1572494020.476,20.996,184.570,-84.961,20.020,32.227
1572494020.480,27.344,145.508,87.891,25.879,55.664
1572494020.484,23.438,47.363,-73.242,26.367,41.504
1572494020.488,21.973,81.055,-41.504,23.926,55.176
1572494020.492,21.973,80.078,8.789,19.531,33.691
1572494020.496,20.020,24.414,-101.074,22.461,4.883
1572494020.500,24.902,28.320,-166.016,26.855,13.672
1572494020.504,30.273,65.430,-118.164,30.762,11.230
1572494020.508,37.109,33.203,-189.941,39.062,4.395
1572494020.511,32.227,-8.301,-368.652,29.785,-12.207
1572494020.515,22.461,44.922,-341.309,14.648,-15.137
1572494020.519,22.949,119.629,-159.668,12.695,-2.930
1572494020.523,27.832,123.047,-44.922,20.020,9.277
1572494020.527,38.574,29.785,-141.113,34.180,18.066
1572494020.531,34.180,-49.805,-472.656,27.832,-13.184
1572494020.535,24.902,103.027,-305.664,14.160,-5.371
1572494020.539,29.785,121.094,-120.605,23.438,14.648
1572494020.543,30.762,41.016,-241.699,35.645,9.277
1572494020.547,28.320,55.664,-217.285,29.297,18.066
1572494020.551,28.320,79.590,-97.168,25.391,27.344
1572494020.554,35.645,42.480,-120.605,37.598,22.949
1572494020.558,30.762,-12.207,-333.496,35.645,7.324
1572494020.562,23.438,47.852,-293.457,30.762,7.812
1572494020.566,33.691,125.000,-35.645,34.668,36.621
1572494020.570,33.691,101.074,71.777,31.250,52.246
1572494020.574,32.227,-49.805,-276.367,21.484,19.531
1572494020.578,41.016,-37.109,-500.977,18.555,-6.348
1572494020.582,39.551,141.602,-112.793,24.414,20.020
1572494020.586,35.645,91.309,-3.418,29.297,31.738
1572494020.590,27.832,11.719,-176.270,23.438,20.020
1572494020.593,27.832,48.828,-141.602,16.113,22.949
1572494020.597,37.109,59.570,-41.992,27.832,43.945
1572494020.601,32.715,-9.766,-239.746,26.367,25.391
1572494020.605,26.367,17.578,-325.684,16.602,-0.488
1572494020.609,27.344,129.395,-67.871,22.461,35.645
1572494020.613,31.250,126.953,49.805,22.461,44.434
1572494020.617,24.414,32.227,-105.469,19.531,25.391
1572494020.621,14.160,21.973,-185.547,15.625,29.785
1572494020.625,21.973,73.242,-93.262,20.020,18.066
1572494020.629,32.227,74.219,-106.934,35.156,-15.625
1572494020.633,30.762,-9.766,-269.043,37.109,-14.648
1572494020.636,33.203,-59.570,-543.945,36.621,-22.949
1572494020.640,30.273,126.953,-262.695,39.062,20.508
1572494020.644,28.320,142.578,6.348,43.457,36.621
1572494020.648,39.062,-36.133,-308.594,50.781,4.883
1572494020.652,33.691,-50.781,-535.156,46.387,5.859
1572494020.656,17.090,120.605,-220.703,37.109,25.879
1572494020.660,9.277,129.883,8.301,33.691,27.832
1572494020.664,12.695,-35.156,-307.129,35.156,-1.953
1572494020.668,26.367,-29.785,-491.211,37.109,-17.090
1572494020.672,28.320,122.070,-184.570,34.180,-15.625
1572494020.676,28.809,77.637,-126.465,36.621,-20.020
1572494020.679,34.668,35.156,-194.824,40.039,-17.090
1572494020.683,36.133,71.777,-104.492,41.504,3.418
1572494020.687,35.156,82.520,-18.555,34.180,16.113
1572494020.691,31.250,40.527,-55.176,25.391,21.484
1572494020.695,34.668,-28.809,-235.840,33.203,-2.441
1572494020.699,41.016,2.930,-324.707,38.086,-17.090
1572494020.703,42.480,104.492,-110.352,31.250,14.160
1572494020.707,41.504,53.223,-62.988,24.902,31.738
1572494020.711,34.668,-13.184,-253.906,18.066,0.000
1572494020.715,34.668,88.867,-117.676,11.230,4.883
1572494020.718,40.039,104.492,33.691,20.996,23.438
1572494020.722,43.457,41.504,-75.684,34.180,19.043
1572494020.726,38.086,45.898,-130.859,27.832,19.043
1572494020.730,32.227,86.426,-32.227,23.926,19.043
1572494020.734,35.156,88.867,39.551,32.715,28.320
1572494020.738,41.504,17.090,-134.277,38.086,11.230
1572494020.742,48.340,-0.977,-353.027,38.574,-10.254
1572494020.746,42.969,66.895,-294.922,30.273,-6.836
1572494020.750,36.621,72.266,-257.324,29.297,-13.672
1572494020.754,40.039,-11.719,-458.496,33.691,-26.855
1572494020.758,36.621,-1.465,-583.984,25.391,-35.645
1572494020.761,28.320,156.738,-200.684,21.973,-11.719
1572494020.765,25.391,113.770,-43.945,23.926,4.395
1572494020.769,25.879,-41.992,-389.160,29.785,-15.625
1572494020.773,17.578,18.555,-387.695,21.484,1.465
1572494020.777,13.672,152.344,2.930,16.113,24.902
1572494020.781,19.531,61.523,3.906,25.879,10.742
1572494020.785,17.090,-2.930,-201.660,29.297,-1.953
1572494020.789,14.648,47.852,-211.426,29.297,11.719
1572494020.793,18.555,55.664,-201.172,26.367,0.488
1572494020.797,16.113,32.227,-224.609,21.484,-7.324
1572494020.801,22.461,-51.758,-482.422,17.578,-19.043
1572494020.804,20.508,54.688,-401.855,10.742,-4.395
1572494020.808,13.184,179.199,16.113,14.648,18.066
1572494020.812,17.578,25.391,-131.836,29.297,-6.836
1572494020.816,14.648,-29.297,-339.355,26.855,-29.297
1572494020.820,11.230,86.914,-135.254,18.066,3.906
1572494020.824,18.555,77.148,-34.668,27.832,27.832
1572494020.828,22.461,58.594,-95.703,34.180,5.371
1572494020.832,26.855,79.590,-35.645,34.180,23.438
1572494020.836,37.109,35.645,-99.121,37.598,23.438
1572494020.840,36.133,43.945,-171.387,32.227,8.301
1572494020.843,40.039,88.867,-126.953,33.691,12.695
1572494020.847,49.316,100.586,-82.520,41.016,16.113
1572494020.851,51.758,108.398,-4.883,41.504,10.254
1572494020.855,57.129,108.887,96.680,46.387,39.062
1572494020.859,64.941,-38.574,-231.445,47.852,14.160
1572494020.863,53.223,-17.090,-394.043,41.992,-2.930
1572494020.867,38.086,138.184,-9.277,38.086,28.809
1572494020.871,37.598,63.965,-12.207,42.969,22.949
1572494020.875,35.645,32.715,-89.844,40.039,31.250
1572494020.879,32.715,49.316,-97.656,37.598,25.391
1572494020.883,26.367,28.320,-189.941,42.969,15.625
1572494020.886,30.273,-2.930,-310.059,41.016,7.324
1572494020.890,33.691,23.926,-332.031,35.645,0.488
1572494020.894,33.203,127.930,-102.539,28.809,26.855
1572494020.898,35.645,134.766,69.824,31.250,43.945
1572494020.902,36.621,45.410,-97.656,39.551,19.043
1572494020.906,41.504,42.480,-197.266,42.969,13.672
1572494020.910,44.434,95.703,-78.613,44.922,18.066
1572494020.914,44.922,99.121,-11.719,43.457,20.508
1572494020.918,45.898,6.348,-178.711,45.898,20.020
1572494020.922,39.062,-32.227,-451.172,40.039,-2.441
1572494020.926,27.344,122.559,-208.008,34.180,20.508
1572494020.929,25.879,108.887,-84.961,38.574,30.273
1572494020.933,29.785,-10.254,-368.652,38.574,13.672
1572494020.937,29.785,22.461,-464.355,39.062,20.508
1572494020.941,24.902,165.039,-110.352,36.133,43.457
1572494020.945,28.809,133.789,41.992,41.992,47.852
1572494020.949,33.203,46.875,-177.246,48.340,24.414
1572494020.953,29.785,72.266,-213.379,42.480,16.602
1572494020.957,30.273,130.371,0.000,42.480,43.945
1572494020.961,40.039,60.059,-69.824,54.688,18.066
1572494020.965,41.992,32.715,-136.719,61.035,15.625
1572494020.968,44.434,54.688,-116.211,56.152,33.203
1572494020.972,44.922,62.012,-88.867,55.176,23.438
1572494020.976,47.852,11.230,-170.410,62.012,13.672
1572494020.980,43.945,-57.129,-521.484,45.898,-19.531
1572494020.984,22.461,105.469,-336.914,17.090,6.836
1572494020.988,19.043,193.848,59.082,9.766,49.316
1572494020.992,35.156,58.105,-122.070,27.832,20.508
1572494020.996,41.016,48.828,-235.840,36.621,15.625
1572494021.000,38.574,134.277,-30.273,27.832,42.480
1572494021.004,41.016,103.027,15.137,29.785,39.551
1572494021.008,37.598,56.152,-94.727,26.855,35.156
1572494021.011,37.598,71.289,-92.773,23.926,46.875
1572494021.015,48.340,87.402,-2.930,36.621,42.969
1572494021.019,57.617,60.059,-2.930,47.852,36.621
1572494021.023,50.781,15.625,-144.043,44.922,27.344
1572494021.027,47.363,14.160,-284.180,40.039,6.836
1572494021.031,53.223,94.238,-138.672,45.410,11.230
1572494021.035,57.129,113.281,12.695,54.688,21.973
1572494021.039,55.176,57.129,-127.441,53.711,10.742
1572494021.043,48.828,89.844,-104.492,42.969,17.090
1572494021.047,56.641,75.195,-33.203,43.457,22.461
1572494021.051,62.012,28.809,-105.469,47.363,19.043
1572494021.054,58.594,28.809,-176.758,45.898,18.555
1572494021.058,58.105,88.867,-96.680,47.363,38.086
1572494021.062,60.547,125.977,73.730,48.828,49.805
1572494021.066,64.941,27.832,-76.172,46.875,8.301
1572494021.070,57.129,-21.484,-298.828,41.016,-0.488
1572494021.074,49.805,60.547,-244.141,37.109,40.527
1572494021.078,56.641,98.145,-155.273,44.922,37.598
1572494021.082,55.176,29.785,-301.270,51.758,2.930
1572494021.086,39.551,26.367,-413.086,34.668,0.000
1572494021.090,32.715,168.945,-104.492,26.855,46.875
1572494021.093,35.156,168.457,131.836,32.227,55.664
1572494021.097,40.527,6.836,-152.832,38.574,-8.301
1572494021.101,35.156,-6.348,-371.094,33.203,-3.906
1572494021.105,28.809,129.883,-156.738,21.973,37.109
1572494021.109,30.762,138.672,7.324,27.344,25.391
1572494021.113,31.250,20.996,-183.105,35.156,-9.277
1572494021.117,30.762,-7.812,-358.887,41.992,-12.207
1572494021.121,24.414,73.730,-228.027,31.738,4.395
1572494021.125,17.578,80.566,-155.273,20.996,7.324
1572494021.129,17.090,-9.277,-341.309,16.602,2.441
1572494021.133,31.250,-5.859,-480.469,13.184,-24.414
1572494021.136,38.086,152.832,-148.438,18.555,-14.160
1572494021.140,35.645,144.043,56.641,24.902,-2.930
1572494021.144,36.133,-27.832,-294.434,26.855,-36.621
1572494021.148,34.180,-9.277,-484.863,22.949,-41.504
1572494021.152,39.062,181.641,-52.734,25.879,7.812
1572494021.156,46.875,112.305,35.156,31.250,8.301
1572494021.160,41.504,22.461,-227.051,29.785,-1.465
1572494021.164,41.016,71.289,-264.160,32.227,12.695
1572494021.168,39.551,125.977,-107.910,33.203,24.414
1572494021.172,43.945,85.449,-91.309,33.203,17.090
1572494021.176,49.316,41.504,-170.410,33.691,0.488
1572494021.179,46.875,71.289,-171.875,35.156,-16.602
1572494021.183,36.133,122.559,-20.996,29.297,8.789
1572494021.187,33.691,74.219,23.926,26.855,37.109
1572494021.191,42.480,-84.961,-425.781,29.297,-3.906
1572494021.195,36.621,51.270,-350.586,19.043,-0.977
1572494021.199,41.016,153.320,38.574,27.832,19.043
1572494021.203,46.875,71.777,-46.875,38.086,11.719
1572494021.207,28.320,60.059,-62.012,26.367,19.531
1572494021.211,23.438,33.203,-98.145,24.902,19.043
1572494021.215,25.391,65.918,-96.191,23.926,28.809
1572494021.218,23.438,13.672,-240.723,27.832,8.789
1572494021.222,23.438,20.996,-364.746,33.203,-19.043
1572494021.226,23.438,158.691,-30.762,28.809,15.625
1572494021.230,33.203,115.723,64.941,44.434,34.668
1572494021.234,27.344,54.688,-84.473,39.062,30.273
1572494021.238,7.812,81.055,-59.570,18.066,44.922
1572494021.242,11.230,72.266,-0.488,21.973,19.043
1572494021.246,32.227,20.020,-83.008,33.691,-6.348
1572494021.250,38.086,-8.301,-219.238,42.969,4.883
1572494021.254,28.320,41.016,-177.734,36.621,8.301
1572494021.258,25.391,47.363,-107.422,34.668,27.832
1572494021.261,29.297,6.348,-195.801,39.551,33.691
1572494021.265,34.668,-98.145,-543.457,43.457,-20.508
1572494021.269,29.297,10.742,-491.211,32.227,-31.250
1572494021.273,28.809,133.789,-56.152,31.250,19.043
1572494021.277,35.156,-11.230,-213.867,40.039,17.090
1572494021.281,26.855,-26.855,-357.422,27.832,6.836
1572494021.285,20.508,85.449,-155.762,20.508,9.766
1572494021.289,32.227,121.094,72.754,34.668,36.133
1572494021.293,36.621,-7.812,-109.863,38.574,24.414
1572494021.297,20.020,-32.715,-277.832,25.391,-7.324
1572494021.301,12.695,65.430,-48.340,19.531,12.695
1572494021.304,21.484,18.555,-60.059,28.809,22.949
1572494021.308,27.832,-85.449,-371.582,33.203,-0.488
1572494021.312,20.996,-40.527,-425.293,22.949,-2.930
1572494021.316,10.742,118.164,-52.246,19.043,34.180
1572494021.320,9.277,86.426,112.305,20.020,37.598
1572494021.324,29.297,-98.145,-280.273,36.133,-19.531
1572494021.328,39.062,-91.309,-524.902,35.156,-44.434
1572494021.332,22.949,85.938,-162.109,12.695,10.742
1572494021.336,23.926,58.594,-40.039,15.625,20.996
1572494021.340,29.297,-0.488,-186.523,22.949,-0.977
1572494021.343,33.203,47.363,-154.297,28.809,6.836
1572494021.347,31.738,93.262,80.078,29.785,53.223
1572494021.351,31.738,-14.648,-68.359,26.855,55.176
1572494021.355,30.273,-35.156,-254.883,26.855,22.461
1572494021.359,29.297,67.871,-78.613,27.832,23.926
1572494021.363,33.203,83.008,40.527,30.762,24.902
1572494021.367,38.574,-2.930,-82.031,36.621,23.926
1572494021.371,39.062,-50.781,-319.336,33.691,6.348
1572494021.375,23.438,71.777,-168.945,20.996,15.625
1572494021.379,14.648,105.957,59.570,20.508,41.992
1572494021.383,20.020,-23.926,-127.930,27.344,20.508
1572494021.386,24.902,-80.566,-393.066,30.762,-5.371
1572494021.390,23.926,46.875,-274.414,36.621,15.625
1572494021.394,20.996,94.727,-72.266,38.086,31.738
1572494021.398,14.160,9.277,-214.355,33.203,14.648
1572494021.402,9.277,32.227,-281.250,27.832,19.043
1572494021.406,10.254,111.328,-39.062,22.461,40.039
1572494021.410,17.578,95.215,75.195,29.785,40.039
1572494021.414,23.438,-42.480,-222.168,36.133,17.090
1572494021.418,21.973,-39.551,-424.316,35.156,-1.465
1572494021.422,21.973,131.348,-69.824,32.227,20.508
1572494021.426,20.508,84.961,21.484,29.297,25.391
1572494021.429,21.484,21.973,-103.027,33.203,13.672
1572494021.433,24.414,71.777,-29.785,34.668,35.156
1572494021.437,28.809,79.590,61.523,35.156,41.992
1572494021.441,33.691,10.742,-49.316,40.039,18.555
1572494021.445,35.645,-17.578,-190.430,39.062,20.508
1572494021.449,40.039,20.508,-205.078,40.527,30.273
1572494021.453,36.621,48.340,-145.996,40.039,33.691
1572494021.457,29.785,9.277,-216.797,41.016,19.043
1572494021.461,36.133,27.344,-233.887,43.945,4.883
1572494021.465,45.898,101.074,-65.918,44.434,13.672
1572494021.468,42.969,111.328,55.176,49.316,29.785
1572494021.472,44.922,-16.113,-87.402,58.594,14.648
1572494021.476,42.969,-111.328,-472.656,43.945,-26.855
1572494021.480,26.855,59.570,-289.551,18.066,-6.348
1572494021.484,30.273,81.055,-66.895,28.809,-15.625
1572494021.488,31.250,10.742,-152.832,37.109,-11.230
1572494021.492,20.996,4.395,-183.594,27.344,21.973
1572494021.496,17.578,20.508,-165.039,20.020,27.344
1572494021.500,22.949,33.203,-161.133,17.578,16.602
1572494021.504,30.762,-35.156,-342.773,20.020,3.418
1572494021.508,34.180,-9.277,-428.711,20.508,-1.465
1572494021.511,31.250,149.902,-74.707,17.090,20.996
1572494021.515,25.391,129.395,104.004,16.113,44.434
1572494021.519,29.785,43.457,-73.730,16.113,30.762
1572494021.523,36.621,77.148,-72.266,20.508,34.180
1572494021.527,37.109,115.723,101.074,22.461,51.270
1572494021.531,37.109,50.781,11.719,29.785,28.320
1572494021.535,25.879,28.320,-61.035,28.320,33.691
1572494021.539,25.879,17.090,-110.352,27.832,40.527
1572494021.543,35.156,23.438,-177.734,38.574,30.273
1572494021.547,40.527,30.762,-113.770,45.410,33.691
1572494021.551,41.504,-51.758,-344.238,44.434,14.648
1572494021.554,32.715,45.410,-276.367,33.691,20.020
1572494021.558,26.855,97.168,-57.617,36.621,31.250
1572494021.562,27.344,36.621,-146.484,42.969,28.320
1572494021.566,33.203,55.176,-106.445,42.969,42.969
1572494021.570,37.109,102.539,59.570,40.039,66.406
1572494021.574,36.133,57.129,42.969,43.457,41.504
1572494021.578,27.344,-3.418,-121.582,43.457,19.531
1572494021.582,28.809,-4.395,-172.852,42.969,17.578
1572494021.586,30.273,-11.719,-218.262,38.574,20.996
1572494021.590,15.137,30.273,-187.012,22.461,35.645
1572494021.593,18.066,-26.855,-293.457,21.484,23.438
1572494021.597,26.855,-44.434,-479.980,24.414,-4.883
1572494021.601,19.531,89.844,-228.516,21.484,13.184
1572494021.605,18.555,81.055,-62.988,22.949,42.969
1572494021.609,21.973,49.805,-86.426,17.578,35.156
1572494021.613,27.344,21.484,-201.660,18.555,8.789
1572494021.617,29.297,47.852,-180.664,22.461,10.254
1572494021.621,20.020,61.035,-96.680,12.207,18.555
1572494021.625,20.996,12.695,-170.410,11.719,-0.977
1572494021.629,39.551,20.996,-161.133,23.926,-6.348
1572494021.633,41.016,19.531,-174.805,30.273,16.113
1572494021.636,30.762,10.254,-179.688,33.691,53.223
1572494021.640,30.762,-83.008,-422.852,29.785,25.391
1572494021.644,35.645,13.672,-380.371,28.809,13.184
1572494021.648,42.969,133.789,44.922,41.504,58.594
1572494021.652,45.898,9.766,-47.363,49.316,42.480
1572494021.656,37.109,-4.883,-165.527,47.363,22.461
1572494021.660,29.297,57.617,-26.367,45.410,35.645
1572494021.664,43.457,30.762,-55.176,59.082,9.277
1572494021.668,41.504,7.812,-158.691,48.828,12.695
1572494021.672,29.297,-6.836,-255.859,30.762,15.137
1572494021.676,29.785,53.223,-127.930,36.621,17.578
1572494021.679,37.598,25.879,-120.605,45.898,38.574
1572494021.683,39.062,-5.859,-287.109,39.551,14.160
1572494021.687,23.438,84.473,-155.273,25.391,15.625
1572494021.691,15.137,119.629,4.883,18.555,49.805
1572494021.695,19.531,90.332,47.363,18.555,43.945
1572494021.699,26.367,-58.105,-280.762,28.320,8.301
1572494021.703,23.926,-50.293,-497.559,26.855,0.000
1572494021.707,23.438,113.281,-160.156,23.926,14.160
1572494021.711,32.227,82.520,-54.199,30.762,18.066
1572494021.715,28.320,33.691,-149.414,24.414,23.926
1572494021.718,21.484,62.500,-157.227,13.672,11.719
1572494021.722,18.555,91.309,-57.617,12.207,26.855
1572494021.726,23.926,7.324,-187.988,24.414,29.785
1572494021.730,29.297,-24.902,-382.812,35.156,6.836
1572494021.734,21.484,72.266,-233.398,24.414,28.320
1572494021.738,10.742,135.742,15.137,14.160,62.988
1572494021.742,16.113,49.316,-0.977,20.020,63.477
1572494021.746,29.297,-107.910,-469.727,27.832,5.859
1572494021.750,32.715,-0.977,-512.695,34.180,-31.250
1572494021.754,27.344,149.902,-74.707,35.156,8.789
1572494021.758,33.691,68.848,-70.801,37.598,43.945
1572494021.761,36.621,38.574,-182.129,35.156,29.785
1572494021.765,34.668,99.609,-42.969,35.156,20.996
1572494021.769,42.480,92.773,60.547,49.316,35.156
1572494021.773,48.340,-18.066,-149.902,52.734,54.688
1572494021.777,39.551,-29.297,-356.445,34.668,36.133
1572494021.781,26.367,105.957,-105.469,15.625,29.297
1572494021.785,35.156,79.102,-58.594,26.367,34.668
1572494021.789,43.457,30.762,-208.008,41.016,11.719
1572494021.793,46.875,49.316,-215.820,44.922,-14.648
1572494021.797,45.898,107.910,-19.531,43.457,26.367
1572494021.801,41.504,63.965,8.301,32.227,42.480
1572494021.804,44.434,6.348,-158.691,29.297,18.066
1572494021.808,41.504,48.340,-159.668,29.297,5.859
1572494021.812,35.645,47.852,-139.648,23.438,-1.953
1572494021.816,34.180,18.555,-146.973,24.414,11.230
1572494021.820,34.668,-25.879,-284.180,24.414,8.789
1572494021.824,33.203,24.414,-327.637,20.996,17.090
1572494021.828,24.414,124.512,-44.922,12.207,48.828
1572494021.832,25.879,58.105,-25.879,15.625,51.270
1572494021.836,36.133,5.371,-223.633,32.227,21.484
1572494021.840,22.461,64.453,-201.172,20.508,14.160
1572494021.843,7.812,98.145,-67.383,8.301,43.945
1572494021.847,9.277,43.945,-133.301,12.207,38.086
1572494021.851,18.066,23.438,-235.352,20.020,33.203
1572494021.855,28.320,99.121,-63.477,28.809,41.992
1572494021.859,21.484,73.730,-29.297,20.996,17.090
1572494021.863,15.625,-20.996,-235.840,19.531,0.488
1572494021.867,29.785,-76.172,-525.879,26.855,-5.371
1572494021.871,36.133,53.223,-366.699,28.809,0.488
1572494021.875,31.738,122.070,-34.180,23.926,22.949
1572494021.879,41.504,-47.363,-281.250,30.273,-5.371
1572494021.883,50.293,-70.801,-508.301,42.480,-15.137
1572494021.886,41.016,124.023,-76.172,41.992,47.363
1572494021.890,36.133,84.961,68.359,42.480,45.898
1572494021.894,32.715,-28.320,-202.148,34.668,13.184
1572494021.898,31.250,15.137,-237.305,30.762,39.062
1572494021.902,25.879,83.496,-42.969,35.645,37.598
1572494021.906,20.508,32.227,-68.848,31.738,12.695
1572494021.910,27.344,17.578,-92.773,30.273,34.180
1572494021.914,26.855,5.859,-147.461,27.344,36.621
1572494021.918,19.531,19.043,-206.055,19.043,19.531
1572494021.922,19.043,20.996,-157.227,21.484,15.137
1572494021.926,21.973,-48.828,-362.305,21.973,19.043
1572494021.929,20.020,52.734,-260.254,19.043,37.109
1572494021.933,27.344,110.840,54.688,29.785,53.223
1572494021.937,35.156,8.789,-82.520,38.086,34.180
1572494021.941,26.367,8.789,-167.969,27.344,26.367
1572494021.945,20.996,74.219,-6.836,24.902,49.316
1572494021.949,25.879,62.500,62.012,33.203,64.453
1572494021.953,21.484,-5.859,-89.844,29.785,35.645
1572494021.957,26.367,-23.438,-204.102,34.668,18.066
1572494021.961,30.762,-5.371,-192.383,38.574,28.320
1572494021.965,21.484,16.602,-185.547,30.762,30.273
1572494021.968,24.902,-13.672,-274.414,25.879,35.156
1572494021.972,28.809,-4.883,-360.352,28.809,20.996
1572494021.976,26.367,115.723,-99.609,36.621,25.879
1572494021.980,32.227,104.980,52.246,41.016,50.781
1572494021.984,29.785,12.207,-182.129,37.109,26.367
1572494021.988,20.996,50.781,-212.402,24.902,28.320
1572494021.992,29.785,84.961,-26.367,31.738,27.344
1572494021.996,41.504,5.371,-140.625,43.945,-25.391
1572494022.000,34.668,-0.977,-278.809,34.180,-15.137
1572494022.004,26.367,70.312,-191.895,20.996,-0.488
1572494022.008,29.785,61.523,-143.066,24.902,6.348
1572494022.011,35.645,15.625,-274.414,31.738,23.438
1572494022.015,40.039,44.922,-255.859,34.668,23.926
1572494022.019,42.480,109.375,-65.430,31.250,31.250
1572494022.023,46.387,111.816,49.316,33.691,67.383
1572494022.027,49.316,13.184,-107.910,39.551,47.363
1572494022.031,54.199,-70.801,-494.141,35.645,-14.160
1572494022.035,44.922,63.965,-377.441,30.273,-6.836
1572494022.039,42.480,158.203,9.277,33.203,29.297
1572494022.043,62.988,28.809,-118.652,48.828,29.297
1572494022.047,60.059,-6.348,-291.016,45.410,15.625
1572494022.051,48.340,96.680,-73.730,39.551,22.461
1572494022.054,53.223,56.641,-62.500,44.434,34.180
1572494022.058,63.477,-38.574,-358.887,48.828,8.301
1572494022.062,62.012,11.230,-416.504,47.852,-6.836
1572494022.066,50.781,131.836,-126.465,42.969,22.949
1572494022.070,57.617,91.309,-62.012,57.617,25.879
1572494022.074,58.105,68.848,-70.801,53.223,30.762
1572494022.078,45.898,79.590,-9.766,34.668,44.922
1572494022.082,49.316,110.840,161.621,34.668,84.473
1572494022.086,60.059,48.340,120.605,43.945,69.336
1572494022.090,51.270,-8.789,-38.574,41.992,38.086
1572494022.093,42.969,48.340,30.762,33.691,62.500
1572494022.097,48.828,60.059,127.930,32.715,76.660
1572494022.101,54.199,-36.621,-56.152,36.621,60.059
1572494022.105,50.781,-102.051,-425.781,35.156,36.133
1572494022.109,38.086,38.574,-274.414,24.902,52.246
1572494022.113,36.621,121.094,83.984,24.902,65.430
1572494022.117,41.016,27.344,-13.184,30.273,40.527
1572494022.121,35.156,-2.441,-113.281,20.996,29.785
1572494022.125,32.715,22.949,-100.586,16.113,31.738
1572494022.129,38.086,40.039,-68.359,20.508,18.555
1572494022.133,45.410,19.043,-101.074,31.250,10.254
1572494022.136,43.457,37.109,-113.770,34.668,29.785
1572494022.140,37.109,94.238,36.133,26.855,49.316
1572494022.144,40.527,92.773,144.043,32.715,69.336
1572494022.148,49.316,-61.035,-166.016,43.457,38.574
1572494022.152,47.852,-62.012,-388.184,34.668,3.418
1572494022.156,38.574,115.723,-55.176,23.926,35.645
1572494022.160,36.621,92.773,71.777,25.879,45.410
1572494022.164,45.410,21.484,-123.535,37.109,21.484
1572494022.168,47.363,50.781,-147.949,39.551,20.508
1572494022.172,40.527,85.449,-11.230,34.668,18.555
1572494022.176,35.645,58.594,19.043,32.227,33.203
1572494022.179,38.086,-15.137,-132.324,36.133,24.414
1572494022.183,40.527,16.113,-156.250,38.574,15.137
1572494022.187,39.062,53.223,-43.945,36.621,13.672
1572494022.191,47.852,-3.906,-122.559,41.992,-4.395
1572494022.195,51.270,-42.480,-282.227,45.410,-12.207
1572494022.199,42.480,18.555,-286.133,37.109,-1.465
1572494022.203,34.668,111.328,-48.828,27.832,31.250
1572494022.207,32.715,34.668,-53.223,32.715,24.902
1572494022.211,33.691,-49.316,-339.355,32.227,5.371
1572494022.215,30.762,67.383,-224.121,16.602,22.949
1572494022.218,22.461,101.074,36.621,15.137,32.715
1572494022.222,28.809,-38.086,-180.176,26.367,-9.766
1572494022.226,25.879,-47.852,-347.656,17.578,-20.996
1572494022.230,15.625,76.660,-56.152,10.742,30.762
1572494022.234,22.461,31.250,-29.297,19.043,24.902
1572494022.238,21.484,-91.797,-331.055,16.602,-2.930
1572494022.242,20.020,-109.375,-587.402,17.578,-19.043
1572494022.246,12.207,75.195,-313.477,17.090,19.531
1572494022.250,16.602,125.488,40.039,24.414,40.039
1572494022.254,32.227,-55.176,-261.719,34.668,-8.301
1572494022.258,32.227,-36.133,-434.082,32.227,5.859
1572494022.261,28.809,132.324,-62.012,34.180,45.410
1572494022.265,36.133,68.848,-2.441,41.992,23.438
1572494022.269,40.527,0.977,-154.297,45.410,0.977
1572494022.273,36.621,41.992,-120.605,40.527,11.230
1572494022.277,29.297,64.453,-35.156,31.250,7.324
1572494022.281,28.320,28.320,-47.852,33.203,10.742
1572494022.285,32.227,-2.441,-88.379,41.016,24.414
1572494022.289,29.297,-17.090,-187.988,38.574,17.578
1572494022.293,26.855,-6.348,-291.016,34.668,7.324
1572494022.297,26.367,16.602,-242.676,33.203,19.531
1572494022.301,23.926,-73.242,-507.812,24.902,-5.859
1572494022.304,18.555,16.602,-521.484,18.555,-16.113
1572494022.308,21.484,172.363,-44.922,19.531,40.039
1572494022.312,30.273,66.406,-68.848,24.414,40.527
1572494022.316,24.414,36.621,-152.832,20.508,32.715
1572494022.320,19.043,104.980,15.625,15.137,50.293
1572494022.324,22.461,78.613,51.758,17.090,41.504
1572494022.328,24.414,43.457,-30.273,14.648,47.363
1572494022.332,24.902,38.086,-60.547,9.277,41.504
1572494022.336,26.855,10.742,-142.578,16.113,18.555
1572494022.340,22.461,37.109,-160.645,16.113,26.367
1572494022.343,23.926,40.527,-194.336,18.066,0.488
1572494022.347,28.809,37.598,-223.633,27.832,-21.484
1572494022.351,23.438,34.180,-202.637,25.879,-14.648
1572494022.355,17.090,55.664,-121.582,20.996,-7.324
1572494022.359,19.531,-30.762,-305.176,18.066,-17.090
1572494022.363,20.996,-26.855,-447.266,13.184,-14.160
1572494022.367,24.902,117.676,-48.340,19.531,27.344
1572494022.371,38.574,33.203,-24.414,34.180,15.137
1572494022.375,33.203,-2.930,-122.559,29.297,20.996
1572494022.379,29.785,50.781,-32.715,23.438,37.109
1572494022.383,41.016,-10.742,-107.910,36.621,21.484
1572494022.386,44.434,-89.355,-373.047,38.574,-25.879
1572494022.390,37.598,-10.742,-321.289,27.344,-10.254
1572494022.394,35.645,74.707,-87.402,22.949,28.320
1572494022.398,38.086,64.941,-7.812,34.180,19.531
1572494022.402,37.598,-22.461,-131.836,34.668,14.160
1572494022.406,35.156,-77.148,-390.625,20.996,-2.930
1572494022.410,23.438,63.965,-200.684,19.043,21.973
1572494022.414,21.484,95.215,20.996,23.438,31.738
1572494022.418,29.297,-56.641,-222.656,29.785,-6.348
1572494022.422,21.484,-91.797,-485.352,23.926,-11.719
1572494022.426,7.324,51.758,-229.980,10.742,14.160
1572494022.429,15.137,34.180,-116.699,25.879,20.020
1572494022.433,24.414,-80.078,-415.527,30.273,-15.625
1572494022.437,20.020,-30.273,-452.637,18.555,-17.578
1572494022.441,10.254,135.254,-51.270,6.836,33.203
1572494022.445,16.113,73.242,31.738,14.648,40.039
1572494022.449,30.762,-13.672,-225.098,37.109,11.719
1572494022.453,32.227,44.434,-156.738,36.621,18.555
1572494022.457,32.715,97.168,80.078,33.691,40.039
1572494022.461,39.551,24.902,19.531,39.062,24.414
1572494022.465,40.039,-55.176,-269.531,36.133,-4.395
1572494022.468,43.457,44.922,-181.152,35.156,11.230
1572494022.472,55.176,93.750,85.938,48.828,28.320
1572494022.476,55.176,-3.906,-62.500,59.082,27.344
1572494022.480,46.387,-4.883,-188.477,52.246,19.531
1572494022.484,39.551,77.148,-25.879,41.504,27.832
1572494022.488,36.621,94.727,126.465,44.434,57.617
1572494022.492,41.016,-7.812,14.648,51.758,36.621
1572494022.496,46.387,-99.609,-368.164,50.293,-6.348
1572494022.500,40.527,39.551,-265.625,39.062,1.953
1572494022.504,39.062,108.398,52.246,41.992,24.902
1572494022.508,45.410,25.879,-73.730,47.852,11.719
1572494022.511,40.527,25.391,-171.387,41.992,-1.953
1572494022.515,35.156,92.285,20.508,37.109,36.133
1572494022.519,33.203,40.527,-20.508,32.715,40.039
1572494022.523,28.809,-28.809,-256.836,26.367,7.324
1572494022.527,33.203,5.371,-306.152,28.320,7.324
1572494022.531,33.203,83.008,-102.539,31.250,33.691
1572494022.535,19.531,90.820,68.848,19.531,40.527
1572494022.539,17.090,-67.383,-273.926,14.648,-7.812
1572494022.543,18.555,-67.383,-491.699,13.672,-22.949
1572494022.547,19.043,107.422,-110.840,14.160,21.484
1572494022.551,19.043,63.965,6.836,17.090,34.180
1572494022.554,17.090,-5.859,-147.461,14.160,14.648
1572494022.558,20.508,28.320,-120.605,19.531,14.648
1572494022.562,27.832,53.711,-2.930,33.691,22.949
1572494022.566,32.227,22.461,-4.395,42.480,33.203
1572494022.570,25.879,-30.762,-133.301,34.668,36.621
1572494022.574,23.438,-33.203,-246.582,27.832,20.996
1572494022.578,23.926,1.465,-226.074,33.691,25.391
1572494022.582,34.668,-16.113,-223.145,44.922,24.902
1572494022.586,36.133,-81.543,-453.613,41.992,6.348
1572494022.590,26.367,40.527,-330.566,33.691,24.902
1572494022.593,29.785,120.117,24.902,40.039,45.410
1572494022.597,36.133,9.766,-67.871,47.363,36.133
1572494022.601,35.645,11.230,-96.680,43.945,43.945
1572494022.605,35.645,56.152,22.949,43.945,44.434
1572494022.609,37.598,30.273,18.066,43.457,32.715
1572494022.613,38.086,-15.625,-112.305,41.992,23.926
1572494022.617,33.203,-21.973,-227.051,43.945,28.809
1572494022.621,38.086,1.953,-241.211,45.410,23.438
1572494022.625,39.551,47.852,-169.922,43.457,10.254
1572494022.629,39.062,-0.977,-229.980,36.133,26.855
1572494022.633,39.551,-51.758,-445.801,30.762,26.367
1572494022.636,28.320,90.332,-210.449,24.902,17.578
1572494022.640,25.391,89.844,-19.531,20.508,10.742
1572494022.644,28.809,-21.484,-254.395,17.578,-3.418
1572494022.648,29.785,12.207,-297.852,9.766,4.395
1572494022.652,23.926,98.145,9.277,11.230,46.387
1572494022.656,20.508,23.926,-39.062,18.555,39.062
1572494022.660,24.902,-25.391,-169.434,20.508,12.207
1572494022.664,23.438,-17.578,-197.754,21.484,13.672
1572494022.668,20.508,14.648,-174.805,16.113,15.137
1572494022.672,26.855,13.184,-120.605,23.438,10.254
1572494022.676,25.879,-8.789,-171.387,30.273,15.137
1572494022.679,25.879,44.922,-41.504,30.762,36.133
1572494022.683,33.203,46.875,41.016,37.598,29.297
1572494022.687,29.785,-41.992,-103.027,30.273,17.578
1572494022.691,32.227,-107.910,-441.406,23.926,-9.766
1572494022.695,38.086,51.758,-266.113,34.180,3.906
1572494022.699,37.109,105.469,38.574,40.527,30.762
1572494022.703,39.062,16.602,-113.770,44.922,1.953
1572494022.707,39.551,8.789,-176.270,42.969,-13.672
1572494022.711,35.645,0.000,-211.914,37.109,-6.836
1572494022.715,34.180,56.641,-145.508,34.180,23.926
1572494022.718,29.297,-16.113,-266.113,38.574,3.418
1572494022.722,19.531,-49.316,-475.586,36.133,-9.766
1572494022.726,12.207,119.629,-124.512,34.180,30.762
1572494022.730,14.160,78.125,-13.672,40.039,17.578
1572494022.734,14.648,21.484,-135.254,36.621,9.766
1572494022.738,12.695,54.688,-96.680,39.551,25.391
1572494022.742,13.184,68.359,11.719,36.621,35.645
1572494022.746,18.066,-19.043,-152.832,33.691,18.555
1572494022.750,22.949,-21.973,-287.598,35.156,4.395
1572494022.754,19.531,46.387,-151.367,23.438,6.836
1572494022.758,13.184,5.371,-204.590,19.531,-0.977
1572494022.761,26.367,-22.949,-298.340,26.855,20.996
1572494022.765,37.598,-12.695,-345.703,29.785,12.207
1572494022.769,30.762,82.520,-135.742,24.902,37.109
1572494022.773,28.320,94.238,57.617,18.555,52.734
1572494022.777,32.715,-38.086,-161.133,20.020,7.324
1572494022.781,38.574,-57.129,-326.172,22.461,5.371
1572494022.785,42.969,61.523,-139.160,26.855,28.809
1572494022.789,41.504,82.031,19.043,35.156,36.621
1572494022.793,41.016,-27.832,-172.363,34.668,19.043
1572494022.797,41.992,-41.016,-361.328,33.691,12.207
1572494022.801,47.852,74.707,-172.852,44.434,33.203
1572494022.804,57.617,65.430,-123.047,54.199,35.645
1572494022.808,55.176,-30.273,-345.215,49.316,9.277
1572494022.812,52.734,-45.898,-563.965,46.387,-21.973
1572494022.816,55.664,125.488,-208.496,48.340,12.207
1572494022.820,57.129,119.141,41.504,50.293,32.715
1572494022.824,44.434,48.828,-77.148,43.945,26.367
1572494022.828,35.645,67.383,-39.551,40.039,50.781
1572494022.832,34.180,64.941,55.176,40.527,49.805
1572494022.836,29.785,14.648,-35.156,40.039,19.531
1572494022.840,25.879,-8.301,-160.645,35.645,4.883
1572494022.843,18.555,41.992,-105.469,28.320,17.578
1572494022.847,14.648,46.875,-27.832,26.855,22.461
1572494022.851,16.602,-26.367,-183.105,30.762,24.414
1572494022.855,11.719,-9.277,-218.750,20.508,44.922
1572494022.859,8.789,22.949,-158.203,10.742,44.434
1572494022.863,14.160,37.109,-116.699,12.695,23.926
1572494022.867,17.578,-10.742,-125.488,15.137,22.949
1572494022.871,17.578,-96.680,-417.480,16.602,18.066
1572494022.875,13.672,10.742,-340.332,5.859,5.371
1572494022.879,9.766,82.520,-46.387,0.977,20.996
1572494022.883,19.043,21.484,-92.773,12.207,31.738
1572494022.886,28.809,18.555,-127.930,17.090,36.133
1572494022.890,25.879,80.566,65.430,11.230,72.754
1572494022.894,28.320,29.297,74.219,14.648,61.035
1572494022.898,37.598,-76.172,-235.840,28.320,5.371
1572494022.902,39.551,-35.645,-351.562,34.180,12.695
1572494022.906,33.203,66.895,-128.418,31.738,36.133
1572494022.910,35.645,98.633,77.637,37.109,53.223
1572494022.914,49.316,-42.969,-169.922,43.945,44.922
1572494022.918,40.039,-87.402,-439.941,36.621,10.742
1572494022.922,24.902,74.219,-110.840,28.320,31.250
1572494022.926,26.855,57.129,33.203,31.738,49.805
1572494022.929,28.320,-4.395,-102.539,36.133,28.320
1572494022.933,24.902,20.508,-123.047,31.250,16.602
1572494022.937,24.902,58.105,-0.488,28.809,36.621
1572494022.941,29.297,20.996,14.648,38.086,54.688
1572494022.945,29.297,-54.688,-179.199,38.086,38.574
1572494022.949,31.250,-37.598,-301.758,31.738,14.160
1572494022.953,26.855,41.992,-175.293,26.367,23.926
1572494022.957,25.879,21.484,-123.047,29.785,34.668
1572494022.961,29.297,-7.812,-174.805,35.156,37.598
1572494022.965,24.902,44.922,-87.402,35.645,33.691
1572494022.968,16.602,53.711,11.230,32.715,40.039
1572494022.972,10.742,-58.105,-177.246,26.367,27.832
1572494022.976,3.906,-132.812,-546.875,16.602,-12.695
1572494022.980,-1.465,29.785,-352.539,6.348,0.488
1572494022.984,3.906,97.656,-18.555,7.324,33.691
1572494022.988,8.789,-8.301,-139.648,9.766,38.574
1572494022.992,12.695,-56.641,-348.145,12.695,18.555
1572494022.996,14.648,14.648,-316.406,17.090,6.836
1572494023.000,12.695,94.727,-88.379,12.695,31.250
1572494023.004,21.973,-6.836,-219.727,17.578,19.043
1572494023.008,29.785,-23.926,-361.816,26.855,8.301
1572494023.011,25.391,93.750,-91.309,27.832,19.531
1572494023.015,23.438,68.359,-1.465,32.227,30.273
1572494023.019,28.320,-8.789,-185.547,32.715,22.461
1572494023.023,24.902,4.395,-231.445,26.855,0.488
1572494023.027,12.695,22.461,-88.379,25.391,21.484
1572494023.031,13.672,-32.715,-159.180,29.785,22.461
1572494023.035,19.531,-46.875,-283.203,33.691,12.695
1572494023.039,15.137,-36.133,-350.586,29.785,-1.465
1572494023.043,7.812,1.465,-279.785,23.438,-0.488
1572494023.047,9.766,-17.090,-266.602,26.855,1.953
1572494023.051,8.301,-65.918,-449.219,27.344,-5.859
1572494023.054,-2.441,48.828,-269.531,18.555,29.785
1572494023.058,6.348,97.168,52.246,22.949,43.945
1572494023.062,13.672,-19.531,-52.246,17.578,37.598
1572494023.066,8.789,-37.109,-127.441,7.324,38.086
1572494023.070,18.555,24.902,-28.320,22.461,27.344
1572494023.074,21.973,29.297,33.691,33.691,27.344
1572494023.078,13.184,-23.438,-86.426,28.320,22.461
1572494023.082,16.113,-20.020,-153.320,19.531,17.090
1572494023.086,26.855,-5.371,-149.902,23.438,18.066
1572494023.090,30.762,-10.254,-184.570,30.762,31.738
1572494023.093,35.645,-25.879,-304.688,28.809,22.949
1572494023.097,43.457,31.250,-269.531,29.785,21.973
1572494023.101,43.457,90.332,-24.902,28.809,43.945
1572494023.105,33.203,70.801,92.773,24.414,64.453
1572494023.109,34.668,-68.359,-226.562,28.320,29.785
1572494023.113,40.039,-53.223,-399.902,25.879,23.438
1572494023.117,44.434,123.047,5.371,27.344,63.965
1572494023.121,53.223,65.430,36.621,37.598,38.086
1572494023.125,51.758,21.484,-92.773,37.109,19.043
1572494023.129,52.246,69.336,-12.207,40.039,23.926
1572494023.133,53.223,32.715,-70.801,41.016,14.160
1572494023.136,50.781,-0.977,-150.391,40.039,24.902
1572494023.140,57.617,-67.871,-364.258,46.387,9.277
1572494023.144,52.246,12.695,-355.957,38.574,-8.789
1572494023.148,34.668,139.160,60.547,23.926,31.738
1572494023.152,41.992,17.090,-22.949,36.133,24.414
1572494023.156,43.945,-32.715,-204.102,38.086,6.836
1572494023.160,35.645,53.711,-49.316,23.438,17.090
1572494023.164,33.691,42.969,37.109,23.438,16.113
1572494023.168,28.809,-6.836,-41.504,22.461,25.879
1572494023.172,29.297,-0.977,-67.383,25.879,32.227
1572494023.176,27.832,26.367,2.930,26.855,22.461
1572494023.179,20.508,-24.902,-82.031,23.926,23.438
1572494023.183,18.555,-56.152,-256.348,30.762,21.484
1572494023.187,19.043,27.344,-145.508,30.762,33.691
1572494023.191,7.812,65.918,41.504,18.066,45.410
1572494023.195,-1.953,46.875,110.840,6.836,47.363
1572494023.199,6.348,-88.379,-195.312,14.160,21.484
1572494023.203,6.836,-86.914,-421.875,15.625,-6.348
1572494023.207,6.348,73.730,-107.910,13.184,-1.953
1572494023.211,13.184,47.852,22.461,20.020,18.066
1572494023.215,15.625,-4.395,-64.453,19.043,23.926
1572494023.218,15.625,18.555,-74.707,13.672,4.883
1572494023.222,15.137,26.367,-3.906,10.742,2.441
1572494023.226,21.973,-68.848,-207.031,19.043,-17.090
1572494023.230,22.949,-49.316,-291.016,22.949,-6.836
1572494023.234,22.461,43.457,-56.641,21.484,20.996
1572494023.238,27.344,46.875,39.551,26.855,13.184
1572494023.242,28.320,-21.484,-39.551,28.320,7.324
1572494023.246,25.391,-103.516,-345.703,20.996,-2.930
1572494023.250,23.926,24.414,-254.883,14.648,-1.465
1572494023.254,29.785,45.898,-85.449,19.531,-5.859
1572494023.258,34.180,-53.223,-278.320,21.484,-20.508
1572494023.261,36.133,2.930,-238.770,20.020,-19.043
1572494023.265,37.598,78.613,6.836,25.879,17.578
1572494023.269,26.855,26.367,37.598,20.996,12.207
1572494023.273,23.926,-87.402,-290.527,23.438,-42.969
1572494023.277,22.461,-61.523,-443.359,20.996,-42.969
1572494023.281,11.719,53.711,-184.570,9.766,-7.812
1572494023.285,9.277,65.918,-26.855,11.230,0.488
1572494023.289,17.578,6.348,-155.273,15.137,-2.441
1572494023.293,25.879,3.906,-215.820,18.555,-14.648
1572494023.297,18.066,44.922,-88.379,20.508,-18.066
1572494023.301,19.043,23.926,-62.012,26.367,-8.301
1572494023.304,27.832,4.883,-141.602,33.691,7.324
1572494023.308,31.250,16.602,-174.316,33.691,10.254
1572494023.312,23.438,30.273,-157.227,25.391,7.812
1572494023.316,24.414,48.828,-67.871,27.344,9.277
1572494023.320,39.551,-88.867,-411.133,44.922,-24.902
1572494023.324,27.344,-32.715,-546.387,32.715,-35.156
1572494023.328,20.020,143.066,-88.379,19.531,13.184
1572494023.332,29.297,68.848,28.320,30.273,42.480
1572494023.336,32.227,-141.602,-482.910,37.598,-18.066
1572494023.340,22.461,-64.941,-652.344,21.973,-38.574
1572494023.343,16.602,142.578,-146.484,15.137,-1.953
1572494023.347,26.855,52.734,-91.797,28.809,1.465
1572494023.351,32.715,10.742,-220.703,27.832,-7.324
1572494023.355,28.809,76.660,-83.008,20.508,-12.695
1572494023.359,26.855,68.848,24.414,20.020,9.277
1572494023.363,20.508,12.695,-55.664,14.160,28.809
1572494023.367,16.113,-40.039,-259.277,8.789,3.418
1572494023.371,18.555,-4.395,-271.973,8.301,4.883
1572494023.375,22.461,20.996,-209.961,7.812,13.672
1572494023.379,28.809,-61.035,-423.828,10.742,-21.973
1572494023.383,19.043,-14.160,-437.500,1.465,-6.836
1572494023.386,8.789,122.559,-71.289,-7.324,23.926
1572494023.390,12.695,81.543,61.035,-2.930,25.391
1572494023.394,7.324,-23.438,-179.199,-1.465,-10.254
1572494023.398,5.859,3.418,-228.027,3.418,-20.020
1572494023.402,11.230,61.035,-11.719,1.465,4.395
1572494023.406,9.766,26.855,-4.883,1.465,5.859
1572494023.410,5.371,-27.832,-160.156,5.371,-10.742
1572494023.414,2.930,-25.391,-261.719,4.883,-25.391
1572494023.418,0.977,24.414,-172.852,2.441,-3.418
1572494023.422,9.277,-9.277,-179.688,11.719,-3.906
1572494023.426,16.113,-64.941,-419.922,21.484,-27.344
1572494023.429,11.230,41.504,-313.477,13.672,-20.996
1572494023.433,11.719,108.887,17.578,12.695,1.953
1572494023.437,20.020,9.766,-55.176,17.090,2.930
1572494023.441,23.438,-18.066,-156.250,22.949,-7.324
1572494023.445,27.344,60.059,-13.184,29.785,7.324
1572494023.449,25.391,41.016,9.277,27.344,-2.441
1572494023.453,20.020,13.184,-87.891,20.996,-3.906
1572494023.457,22.949,39.551,-44.434,21.484,30.762
1572494023.461,29.785,-16.113,-137.695,30.273,12.207
1572494023.465,33.691,-12.695,-190.918,38.086,17.090
1572494023.468,29.785,-53.711,-308.105,28.320,5.859
1572494023.472,15.625,-57.617,-465.332,11.719,-14.160
1572494023.476,6.836,87.891,-169.434,-0.977,-5.371
1572494023.480,5.371,46.387,-84.961,4.883,-4.883
1572494023.484,5.859,3.418,-181.152,17.578,11.719
1572494023.488,15.137,36.621,-116.699,18.555,7.324
1572494023.492,13.672,50.293,-17.090,16.113,18.066
1572494023.496,16.113,29.297,20.508,20.508,41.504
1572494023.500,31.738,-24.902,-140.625,30.762,23.926
1572494023.504,22.949,14.648,-117.676,22.949,31.250
1572494023.508,13.184,-6.836,-134.766,15.625,29.785
1572494023.511,19.531,-70.312,-344.727,20.020,-6.348
1572494023.515,23.438,-26.367,-342.773,16.602,0.488
1572494023.519,28.320,47.363,-160.156,21.484,20.996
1572494023.523,31.250,76.172,43.457,36.133,40.527
1572494023.527,30.762,-18.555,-62.012,38.574,20.020
1572494023.531,31.738,-105.957,-418.945,38.086,-20.508
1572494023.535,32.715,0.000,-342.773,37.109,-7.812
1572494023.539,35.156,56.641,-125.488,39.062,8.301
1572494023.543,31.738,24.414,-142.578,30.273,13.672
1572494023.547,31.738,15.625,-149.902,28.320,14.160
1572494023.551,36.621,43.457,-30.762,33.203,26.367
1572494023.554,37.598,6.836,-100.098,30.762,21.484
1572494023.558,43.457,-48.340,-366.211,32.715,-10.254
1572494023.562,43.457,9.766,-313.965,30.762,-2.441
1572494023.566,38.086,66.406,-89.844,25.879,-0.488
1572494023.570,37.109,46.875,3.906,29.785,7.324
1572494023.574,37.598,-76.172,-276.367,25.391,-13.184
1572494023.578,32.227,-50.781,-403.809,20.508,-14.160
1572494023.582,28.320,93.262,7.324,25.391,40.039
1572494023.586,26.855,29.785,67.383,23.926,44.434
1572494023.590,21.484,-12.207,-39.062,21.973,34.180
1572494023.593,28.320,-20.508,-123.535,30.762,17.578
1572494023.597,41.992,-18.066,-164.062,42.480,5.371
1572494023.601,41.016,-17.090,-162.109,38.086,12.695
1572494023.605,37.109,-112.793,-479.492,27.344,-6.348
1572494023.609,34.668,-27.344,-475.098,23.926,-8.789
1572494023.613,35.156,118.164,-22.461,30.273,31.250
1572494023.617,39.062,37.598,7.324,40.527,48.340
1572494023.621,41.992,-14.648,-102.051,41.992,37.598
1572494023.625,40.527,34.180,-25.879,40.039,29.297
1572494023.629,42.480,48.828,58.105,39.551,46.875
1572494023.633,50.293,-18.555,-75.684,46.875,33.691
1572494023.636,41.016,-21.973,-151.855,44.434,25.391
1572494023.640,23.926,59.082,36.621,33.203,60.059
1572494023.644,31.738,38.086,67.871,48.340,52.246
1572494023.648,43.457,-55.664,-200.684,53.711,12.207
1572494023.652,34.180,-48.828,-377.441,36.621,-5.859
1572494023.656,20.508,65.918,-176.270,26.367,8.789
1572494023.660,24.414,88.867,16.113,32.227,27.344
1572494023.664,26.855,-42.480,-250.977,39.062,2.441
1572494023.668,13.672,-29.785,-368.164,20.996,-2.930
1572494023.672,8.789,74.707,-91.797,15.137,7.324
1572494023.676,14.160,30.273,-33.691,20.996,13.184
1572494023.679,19.043,-10.254,-148.438,19.043,18.066
1572494023.683,18.066,23.926,-146.973,18.555,22.949
1572494023.687,16.113,40.527,-51.758,14.648,27.832
1572494023.691,10.742,16.113,-4.883,15.137,33.203
1572494023.695,9.277,-110.352,-346.680,14.160,7.324
1572494023.699,8.789,-60.059,-509.766,3.418,-20.508
1572494023.703,15.625,97.168,-129.883,0.977,-7.812
1572494023.707,26.855,14.648,-147.949,15.137,-2.441
1572494023.711,36.133,-13.184,-264.160,28.320,24.414
1572494023.715,40.039,60.547,-117.188,24.414,32.715
1572494023.718,28.320,69.336,2.441,20.508,18.555
1572494023.722,28.809,-30.273,-115.723,21.973,13.184
1572494023.726,43.457,-107.910,-469.727,25.391,-22.949
1572494023.730,41.016,44.922,-291.504,29.785,-1.465
1572494023.734,40.039,90.820,10.254,36.133,23.926
1572494023.738,45.898,-0.977,-124.512,43.457,6.836
1572494023.742,41.504,-39.551,-275.391,39.062,-2.930
1572494023.746,38.086,4.883,-229.980,37.109,11.719
1572494023.750,35.156,29.785,-103.516,39.062,15.137
1572494023.754,31.250,-33.691,-182.617,36.133,-5.859
1572494023.758,30.273,-28.320,-200.195,33.203,-0.977
1572494023.761,30.762,-25.879,-161.621,26.855,-5.371
1572494023.765,24.902,-9.277,-126.465,21.973,14.160
1572494023.769,24.902,-80.566,-324.707,28.320,1.953
1572494023.773,25.391,-82.520,-492.676,26.367,-19.531
1572494023.777,22.461,74.707,-130.371,20.020,13.672
1572494023.781,24.414,33.203,-78.613,18.555,7.812
1572494023.785,13.184,-7.812,-141.602,10.742,17.090
1572494023.789,8.789,-27.832,-196.777,9.277,16.602
1572494023.793,12.695,-31.250,-269.043,12.695,-0.977
1572494023.797,10.254,-19.043,-239.258,11.719,11.719
1572494023.801,9.766,-77.637,-440.918,7.324,0.977
1572494023.804,13.184,-4.883,-427.246,11.230,-22.461
1572494023.808,14.648,108.887,-97.656,16.602,-20.508
1572494023.812,13.184,32.715,-126.953,14.648,-5.371
1572494023.816,12.207,-22.461,-264.648,10.254,-9.277
1572494023.820,14.160,59.082,-196.777,9.766,-1.953
1572494023.824,15.625,87.402,-75.195,15.137,19.043
1572494023.828,15.625,30.762,-139.648,20.020,-3.418
1572494023.832,17.578,32.227,-169.434,23.926,-13.184
1572494023.836,30.273,34.668,-159.668,28.809,6.836
1572494023.840,41.504,33.691,-160.645,34.180,20.508
1572494023.843,39.062,15.137,-202.637,35.645,-2.930
1572494023.847,29.297,33.691,-198.242,32.715,-7.324
1572494023.851,25.879,65.918,-91.309,24.414,-9.277
1572494023.855,28.809,54.688,-28.809,18.555,-6.836
1572494023.859,45.410,-59.082,-272.461,33.203,-10.742
1572494023.863,41.992,-66.406,-479.492,28.320,-28.809
1572494023.867,23.926,104.492,-104.980,18.555,9.277
1572494023.871,23.926,87.402,62.500,26.855,37.598
1572494023.875,23.926,9.766,-87.402,28.809,8.789
1572494023.879,22.949,7.324,-171.875,26.855,0.000
1572494023.883,31.738,14.648,-197.266,30.762,1.953
1572494023.886,29.785,0.000,-211.914,25.879,7.324
1572494023.890,19.043,-31.250,-363.770,15.137,-23.438
1572494023.894,21.484,57.129,-250.977,19.531,-14.648
1572494023.898,16.602,110.352,13.184,19.531,9.766
1572494023.902,10.254,10.742,-41.504,17.090,2.441
1572494023.906,12.695,-112.793,-447.754,12.695,-25.879
1572494023.910,17.090,19.531,-392.090,7.324,-20.020
1572494023.914,21.973,139.160,39.062,15.625,25.879
1572494023.918,26.855,28.809,-70.801,28.320,3.906
1572494023.922,25.879,0.977,-223.145,29.785,-13.672
1572494023.926,28.320,61.035,-61.523,29.785,20.020
1572494023.929,31.738,20.508,-73.242,35.156,18.066
1572494023.933,31.250,-72.754,-342.773,36.133,-0.977
1572494023.937,35.156,-29.785,-388.184,35.645,15.625
1572494023.941,31.738,113.770,-51.758,36.621,45.410
1572494023.945,35.156,75.684,68.848,43.945,34.180
1572494023.949,41.016,3.418,-93.750,42.480,5.859
1572494023.953,37.109,44.922,-85.449,36.133,16.113
1572494023.957,32.227,73.242,36.621,35.645,22.461
1572494023.961,31.250,17.090,-48.828,35.156,-13.672
1572494023.965,33.203,4.395,-150.391,33.691,-7.324
1572494023.968,27.832,41.504,-96.680,26.855,12.207
1572494023.972,26.855,38.086,-25.391,28.320,12.695
1572494023.976,33.203,-18.555,-100.098,40.039,23.926
1572494023.980,34.180,-126.465,-503.906,37.109,-21.973
1572494023.984,21.484,-23.926,-500.488,19.043,-41.016
1572494023.988,13.184,106.934,-82.031,14.648,16.602
1572494023.992,16.113,11.230,-137.695,18.066,27.344
1572494023.996,13.184,0.488,-232.910,12.695,15.137
1572494024.000,13.672,80.078,-61.035,13.672,33.203
1572494024.004,16.602,53.223,-2.441,16.113,22.461
1572494024.008,15.625,-7.812,-119.629,10.254,17.090
1572494024.011,20.508,-0.977,-127.441,16.602,31.738
1572494024.015,31.738,49.316,-0.977,26.367,42.969
1572494024.019,31.250,22.949,-22.949,20.508,29.785
1572494024.023,17.578,-28.320,-208.008,12.207,12.207
1572494024.027,12.695,6.836,-271.484,15.137,27.344
1572494024.031,15.137,61.035,-166.504,20.996,17.578
1572494024.035,13.672,94.238,8.301,24.902,26.855
1572494024.039,23.438,-20.996,-193.359,36.133,27.832
1572494024.043,32.227,-62.988,-438.965,36.621,9.277
1572494024.047,28.320,62.500,-240.234,34.180,18.066
1572494024.051,27.832,64.941,-99.121,36.621,31.250
1572494024.054,34.180,27.344,-129.883,35.645,33.203
1572494024.058,39.062,35.645,-135.254,38.574,32.715
1572494024.062,36.621,69.824,5.859,31.250,59.570
1572494024.066,29.297,33.203,-7.812,23.926,57.617
1572494024.070,28.809,-39.062,-228.027,24.414,21.484
1572494024.074,29.785,-38.086,-350.098,24.414,6.348
1572494024.078,26.855,30.273,-221.191,24.902,26.855
1572494024.082,35.156,39.062,-75.684,32.715,49.805
1572494024.086,36.621,-81.055,-396.973,28.320,21.973
1572494024.090,21.973,7.324,-395.508,13.184,23.926
1572494024.093,21.484,117.188,6.348,21.484,60.059
1572494024.097,34.668,18.555,-38.086,37.598,66.895
1572494024.101,38.574,-58.594,-262.207,39.551,41.016
1572494024.105,22.461,10.742,-219.727,27.832,29.785
1572494024.109,16.113,56.641,-49.316,26.855,37.598
1572494024.113,19.531,-19.531,-165.527,33.691,9.766
1572494024.117,20.996,-52.734,-352.051,34.180,-12.695
1572494024.121,25.879,-15.625,-364.746,34.668,-22.949
1572494024.125,25.391,33.203,-241.699,34.180,-5.371
1572494024.129,19.531,38.574,-211.914,25.879,-4.395
1572494024.133,18.555,37.109,-225.098,24.902,-5.371
1572494024.136,21.973,62.012,-111.816,30.762,1.953
1572494024.140,31.738,68.848,14.160,43.945,16.113
1572494024.144,40.527,-31.738,-194.336,55.664,26.855
1572494024.148,27.832,-31.250,-374.023,35.156,11.230
1572494024.152,14.648,111.816,-62.988,19.531,23.926
1572494024.156,20.508,72.266,6.836,19.043,32.715
1572494024.160,28.809,-0.977,-154.785,25.391,19.043
1572494024.164,27.832,15.137,-230.957,31.250,17.090
1572494024.168,21.973,55.176,-164.062,18.555,44.922
1572494024.172,21.973,20.020,-203.125,12.695,31.738
1572494024.176,20.020,21.973,-234.863,7.324,25.879
1572494024.179,17.090,83.984,-97.168,1.465,40.527
1572494024.183,23.438,100.586,4.395,10.742,35.645
1572494024.187,29.297,26.855,-62.500,11.230,27.832
1572494024.191,30.273,-102.051,-479.004,1.953,-16.602
1572494024.195,27.344,36.621,-363.770,-4.395,10.254
1572494024.199,29.297,136.230,39.551,6.348,47.852
1572494024.203,25.879,34.668,-118.652,6.836,11.230
1572494024.207,19.531,29.785,-120.605,-2.441,33.203
1572494024.211,28.320,3.418,-151.855,9.277,21.484
1572494024.215,25.391,3.906,-225.098,13.184,15.625
1572494024.218,22.461,-26.855,-309.082,13.184,23.926
1572494024.222,22.949,0.488,-308.594,14.160,25.879
1572494024.226,21.973,110.352,21.484,11.230,59.570
1572494024.230,31.250,63.477,98.633,18.555,66.406
1572494024.234,31.738,9.766,-72.754,22.461,52.246
1572494024.238,30.762,38.574,-94.727,27.832,45.410
1572494024.242,38.086,56.152,11.230,38.574,37.598
1572494024.246,41.016,22.461,23.438,45.410,32.715
1572494024.250,55.664,-72.754,-271.484,54.688,9.277
1572494024.254,50.293,-20.996,-331.543,47.363,4.883
1572494024.258,40.039,55.664,-121.582,40.527,27.832
1572494024.261,45.898,21.973,-180.176,46.387,24.414
1572494024.265,42.969,-9.277,-354.980,46.387,21.973
1572494024.269,37.109,55.664,-258.789,35.156,32.715
1572494024.273,42.480,116.211,19.043,38.574,48.340
1572494024.277,40.039,39.551,-6.836,42.480,50.293
1572494024.281,26.855,-9.766,-97.168,29.297,26.367
1572494024.285,24.414,46.875,11.719,21.484,39.551
1572494024.289,30.273,46.875,118.652,26.855,62.500
1572494024.293,39.062,-16.113,-20.508,37.598,36.133
1572494024.297,27.344,2.930,-52.734,23.926,36.621
1572494024.301,13.184,34.180,69.824,12.207,46.875
1572494024.304,18.066,-29.785,-66.895,18.066,24.414
1572494024.308,19.043,-46.875,-261.719,12.695,13.672
1572494024.312,21.484,17.578,-178.711,13.184,13.672
1572494024.316,11.719,47.852,-25.391,7.812,10.254
1572494024.320,-0.488,41.992,44.922,-1.465,10.742
1572494024.324,9.766,-83.496,-237.305,8.789,-20.996
1572494024.328,20.508,-126.953,-533.203,17.578,-36.133
1572494024.332,11.230,47.852,-231.934,9.277,1.465
1572494024.336,-0.488,63.477,-46.875,-1.465,-2.441
1572494024.340,2.441,-6.836,-170.410,0.977,-30.273
1572494024.343,9.277,25.879,-170.410,5.859,-7.812
1572494024.347,16.113,53.223,-63.477,7.324,4.883
1572494024.351,18.066,7.812,-119.141,17.090,-3.906
1572494024.355,31.250,-83.496,-481.934,26.855,-34.668
1572494024.359,37.598,7.812,-442.383,26.367,-32.227
1572494024.363,37.109,141.113,-17.578,30.762,5.859
1572494024.367,42.969,43.457,-53.223,45.410,-3.906
1572494024.371,32.715,-1.953,-227.051,42.480,-15.137
1572494024.375,19.043,97.168,-62.012,24.902,18.066
1572494024.379,24.902,101.562,69.824,29.785,32.715
1572494024.383,39.062,5.859,-97.656,39.551,12.207
1572494024.386,31.250,-24.902,-282.227,32.715,-2.930
1572494024.390,20.996,64.941,-123.535,26.855,18.066
1572494024.394,26.367,80.078,53.711,31.250,44.922
1572494024.398,31.250,-14.160,-126.953,27.344,39.062
1572494024.402,24.902,-0.488,-228.516,22.461,35.645
1572494024.406,14.160,83.008,-23.438,19.043,54.199
1572494024.410,15.625,68.359,34.180,14.648,27.832
1572494024.414,23.438,-47.363,-244.629,20.020,-10.742
1572494024.418,17.578,-55.176,-451.172,16.113,-7.812
1572494024.422,18.555,91.309,-153.320,14.648,14.648
1572494024.426,28.809,77.148,-24.414,23.926,9.766
1572494024.429,15.625,31.250,-137.695,13.672,12.207
1572494024.433,13.184,44.922,-100.098,6.836,34.180
1572494024.437,18.555,54.199,2.441,13.184,32.227
