timestamps,TP9,AF7,AF8,TP10,Right AUX
1571285976.346,9.766,-343.262,-187.988,16.602,-57.617
1571285976.350,62.988,-44.922,85.449,33.691,75.684
1571285976.354,63.477,363.281,396.973,40.527,159.180
1571285976.358,0.977,149.902,192.383,11.230,39.551
1571285976.362,-16.113,-174.316,-53.223,-7.324,-40.039
1571285976.366,50.293,-229.492,-62.500,15.625,10.742
1571285976.370,80.566,32.715,168.945,42.969,105.469
1571285976.374,32.227,-175.781,-6.348,29.297,59.082
1571285976.378,7.812,-624.023,-355.469,7.324,-51.270
1571285976.382,42.969,-250.488,-66.406,10.254,-36.621
1571285976.386,89.355,117.676,214.355,36.621,65.430
1571285976.389,48.340,235.352,297.363,38.086,99.609
1571285976.393,-14.648,120.605,169.922,12.207,1.465
1571285976.397,14.160,2.441,65.918,12.207,-34.180
1571285976.401,80.566,167.480,217.773,43.457,75.684
1571285976.405,64.453,189.453,234.375,44.922,109.375
1571285976.409,2.930,-102.051,-5.859,23.438,7.812
1571285976.413,3.418,-358.887,-200.195,18.066,-46.875
1571285976.417,63.965,-500.488,-279.785,40.039,10.254
1571285976.421,66.406,-465.332,-212.402,43.457,91.797
1571285976.425,-0.488,-113.770,32.715,15.625,69.824
1571285976.428,-16.113,15.625,63.965,6.348,-20.508
1571285976.432,36.133,-64.453,5.859,20.508,2.930
1571285976.436,75.684,347.168,358.887,47.852,148.438
1571285976.440,25.879,554.199,479.980,30.273,106.445
1571285976.444,-17.578,164.551,144.531,9.277,-34.668
1571285976.448,27.344,-85.938,-9.277,26.367,-22.949
1571285976.452,81.055,229.004,276.855,51.758,115.723
1571285976.456,42.969,530.273,480.957,51.270,134.277
1571285976.460,-13.672,19.043,71.777,23.438,1.953
1571285976.464,7.812,-780.762,-572.266,18.066,-81.055
1571285976.468,67.383,-710.449,-481.445,41.992,-12.695
1571285976.471,46.875,169.922,262.207,35.645,122.559
1571285976.475,-13.672,252.930,252.930,15.137,56.152
1571285976.479,-5.859,-256.836,-158.691,11.230,-62.500
1571285976.483,56.641,-66.406,26.855,29.297,18.555
1571285976.487,73.730,441.406,416.016,45.898,125.000
1571285976.491,12.695,266.113,251.465,24.414,53.711
1571285976.495,-6.836,-196.289,-103.516,5.859,-41.992
1571285976.499,41.504,-124.512,-20.508,10.254,1.953
1571285976.503,76.660,387.695,395.020,36.621,130.859
1571285976.507,35.645,126.953,177.734,34.180,73.730
1571285976.511,-12.695,-665.527,-415.527,4.883,-45.410
1571285976.514,18.555,-466.309,-232.422,11.719,-26.367
1571285976.518,77.637,83.496,196.289,44.922,86.426
1571285976.522,46.875,199.219,274.902,33.203,117.188
1571285976.526,-10.742,-45.410,54.688,3.418,-14.648
1571285976.530,6.348,-120.117,-2.930,8.301,-45.898
1571285976.534,66.895,206.055,272.949,28.809,72.266
1571285976.538,62.012,389.648,417.969,38.086,128.906
1571285976.542,0.977,137.695,201.172,28.320,26.855
1571285976.546,-8.301,-122.070,-1.953,14.160,-54.688
1571285976.550,49.805,6.348,125.488,29.297,20.508
1571285976.553,84.473,157.227,267.578,57.129,112.305
1571285976.557,35.156,-77.637,83.008,46.387,53.223
1571285976.561,-5.371,-247.559,-65.430,19.531,-35.645
1571285976.565,29.297,-96.191,48.828,22.461,-0.488
1571285976.569,72.266,-172.363,30.762,39.551,105.957
1571285976.573,36.621,-274.414,-43.457,28.809,70.801
1571285976.577,-14.648,-333.984,-133.789,8.301,-53.711
1571285976.581,-0.488,-539.062,-295.898,4.395,-68.359
1571285976.585,51.758,-212.891,-15.625,28.320,62.012
1571285976.589,41.992,247.070,315.918,26.367,114.258
1571285976.593,-3.418,122.559,166.504,15.137,3.906
1571285976.596,0.488,-286.621,-141.602,13.672,-62.012
1571285976.600,55.176,-337.891,-125.488,24.414,27.832
1571285976.604,68.848,-120.117,58.594,38.574,96.191
1571285976.608,10.742,-154.785,-0.977,25.879,-0.488
1571285976.612,-8.789,-527.344,-305.664,10.254,-84.961
1571285976.616,36.621,-826.660,-514.160,8.789,-53.223
1571285976.620,58.105,-131.836,57.617,24.902,88.379
1571285976.624,4.395,317.383,347.656,6.836,82.031
1571285976.628,-24.902,-115.723,-33.691,-20.996,-46.387
1571285976.632,23.438,-398.926,-219.727,-11.230,-37.598
1571285976.636,72.754,55.664,163.086,14.648,104.980
1571285976.639,37.109,347.656,355.957,16.113,89.355
1571285976.643,-23.926,-48.340,27.344,-0.977,-27.344
1571285976.647,-2.441,-349.609,-174.805,0.488,-18.066
1571285976.651,61.035,-198.242,-22.949,22.949,76.172
1571285976.655,48.340,97.168,184.082,21.973,86.426
1571285976.659,-9.277,-428.711,-251.465,-3.906,-13.672
1571285976.663,-14.160,-902.832,-599.121,-13.672,-78.125
1571285976.667,27.832,-272.461,-101.074,12.207,13.184
1571285976.671,29.297,252.930,287.109,17.090,130.859
1571285976.675,-28.809,116.211,138.672,-7.812,62.500
1571285976.678,-47.852,-209.473,-129.883,-15.625,-50.293
1571285976.682,7.812,-204.590,-104.980,-5.371,-5.859
1571285976.686,41.992,-86.914,11.230,17.090,120.605
1571285976.690,-10.254,-301.270,-167.480,-0.488,81.055
1571285976.694,-49.805,-715.332,-501.465,-25.391,-31.738
1571285976.698,-2.930,-711.426,-473.633,-11.230,-11.719
1571285976.702,62.988,-301.270,-133.789,25.879,94.238
1571285976.706,36.133,-361.328,-171.875,22.461,96.680
1571285976.710,-24.902,-230.957,-93.750,-9.277,31.250
1571285976.714,-5.859,-36.133,3.418,-11.230,-0.488
1571285976.718,56.641,-43.457,0.488,23.438,61.523
1571285976.721,43.457,222.656,218.262,31.738,141.602
1571285976.725,-22.461,178.711,138.184,-12.207,41.016
1571285976.729,-23.438,-222.656,-177.246,-23.438,-65.918
1571285976.733,37.598,-264.648,-150.879,8.789,13.184
1571285976.737,54.688,90.820,153.809,29.297,123.535
1571285976.741,8.789,-113.281,-28.809,8.789,47.363
1571285976.745,-13.184,-690.918,-477.051,-9.766,-65.430
1571285976.749,20.508,-979.980,-692.383,6.348,-41.992
1571285976.753,56.641,-593.750,-337.402,29.785,86.426
1571285976.757,21.973,49.316,137.207,19.531,80.566
1571285976.761,-14.160,-121.582,-57.129,2.441,-27.344
1571285976.764,11.230,-416.504,-258.789,9.766,-41.504
1571285976.768,57.617,92.773,171.875,31.250,114.746
1571285976.772,41.016,479.004,436.523,40.039,146.973
1571285976.776,-7.324,-12.207,23.438,24.902,-0.977
1571285976.780,9.277,-397.949,-236.328,18.555,-34.180
1571285976.784,80.078,-83.496,51.758,50.781,74.707
1571285976.788,76.172,163.086,261.230,61.523,153.809
1571285976.792,10.742,-386.230,-184.570,33.203,26.367
1571285976.796,0.977,-958.008,-674.316,14.648,-92.285
1571285976.800,52.734,-670.898,-401.367,26.855,-3.906
1571285976.803,70.801,-30.762,134.277,38.086,142.090
1571285976.807,-1.953,-36.621,74.707,5.859,80.566
1571285976.811,-30.273,-377.441,-192.871,-4.883,-23.926
1571285976.815,11.719,-229.004,-48.828,-5.371,26.367
1571285976.819,55.176,122.559,239.258,9.766,131.348
1571285976.823,7.812,34.180,172.363,2.441,109.375
1571285976.827,-71.289,-457.520,-207.031,-42.480,-20.020
1571285976.831,-50.293,-639.648,-330.078,-59.082,-47.363
1571285976.835,-4.395,-467.773,-117.676,-31.738,95.215
1571285976.839,-49.805,-682.617,-321.289,-45.410,104.492
1571285976.843,-124.023,-950.684,-567.383,-106.934,-3.418
1571285976.846,-133.789,-816.406,-386.719,-128.906,-40.039
1571285976.850,-77.637,-602.051,-218.262,-103.027,29.297
1571285976.854,-67.383,-383.789,-37.109,-92.773,123.047
1571285976.858,-125.977,-498.047,-134.766,-132.324,68.848
1571285976.862,-143.066,-735.840,-309.570,-149.902,5.859
1571285976.866,-98.145,-751.953,-279.297,-122.070,28.320
1571285976.870,-82.031,-548.340,-81.543,-106.445,111.816
1571285976.874,-142.578,-377.441,24.414,-136.719,94.238
1571285976.878,-171.875,-650.391,-200.195,-147.949,-15.625
1571285976.882,-118.164,-947.266,-477.539,-117.188,-18.555
1571285976.886,-65.430,-958.984,-512.695,-93.262,65.918
1571285976.889,-104.980,-721.680,-225.586,-109.863,72.754
1571285976.893,-152.832,-632.812,-167.480,-119.141,7.324
1571285976.897,-120.117,-885.742,-410.645,-109.863,-40.039
1571285976.901,-52.246,-659.668,-212.891,-84.473,62.988
1571285976.905,-65.430,-106.934,191.895,-73.242,155.762
1571285976.909,-115.723,-107.910,112.793,-69.336,60.547
1571285976.913,-82.031,-537.598,-244.629,-60.059,-29.785
1571285976.917,-0.488,-626.465,-285.156,-50.293,23.438
1571285976.921,9.766,-125.000,102.539,-22.949,111.816
1571285976.925,-40.039,4.883,147.461,-22.949,53.223
1571285976.928,-49.805,-466.797,-241.211,-33.691,-33.691
1571285976.932,7.812,-590.332,-308.594,-10.742,13.672
1571285976.936,54.688,14.648,160.156,28.809,125.000
1571285976.940,4.883,336.426,338.867,21.973,98.145
1571285976.944,-26.855,-388.672,-250.488,-1.953,-29.297
1571285976.948,22.949,-697.754,-454.590,7.324,-41.504
1571285976.952,82.031,74.707,140.137,39.551,76.172
1571285976.956,57.129,392.578,344.727,38.574,116.699
1571285976.960,4.883,63.965,55.176,14.160,16.602
1571285976.964,34.668,-89.844,-65.918,27.832,-38.574
1571285976.968,99.609,252.930,218.262,61.523,68.848
1571285976.971,90.820,341.797,287.109,73.242,116.211
1571285976.975,39.551,-79.102,-42.969,71.777,26.855
1571285976.979,49.316,-422.852,-296.875,70.801,-47.363
1571285976.983,110.352,-202.148,-102.539,95.703,17.090
1571285976.987,115.723,161.133,180.176,111.328,129.395
1571285976.991,49.316,-260.254,-163.086,80.566,40.039
1571285976.995,28.320,-305.664,-210.449,57.617,-37.109
1571285976.999,92.285,71.289,55.176,71.777,6.836
1571285977.003,125.488,335.449,264.160,91.797,107.422
1571285977.007,67.871,382.812,287.109,77.148,82.031
1571285977.011,37.109,188.965,105.957,56.641,-37.598
1571285977.014,79.590,135.742,78.613,52.246,-18.555
1571285977.018,129.395,351.562,277.832,83.496,98.633
1571285977.022,95.703,379.395,302.734,77.637,120.117
1571285977.026,37.109,-34.668,-35.645,48.828,-6.836
1571285977.030,52.734,-308.105,-235.352,50.781,-58.105
1571285977.034,119.141,-400.391,-260.742,85.938,41.992
1571285977.038,119.629,-175.781,-73.730,99.121,95.703
1571285977.042,58.594,308.594,247.070,68.848,63.477
1571285977.046,60.059,140.137,69.824,60.547,-20.020
1571285977.050,124.023,-40.039,-45.898,77.148,-13.184
1571285977.053,142.578,457.031,369.629,89.355,113.281
1571285977.057,70.801,605.469,441.406,70.312,66.895
1571285977.061,35.645,87.891,21.484,52.734,-58.594
1571285977.065,82.031,-44.434,-32.227,72.754,-10.254
1571285977.069,129.395,205.566,196.289,100.098,103.516
1571285977.073,92.773,189.941,172.852,85.938,69.336
1571285977.077,38.574,-81.055,-51.270,62.988,-20.508
1571285977.081,62.500,-300.293,-222.168,65.430,-56.152
1571285977.085,111.816,-56.152,-7.812,83.008,34.180
1571285977.089,85.938,394.531,334.961,78.613,104.004
1571285977.093,27.832,11.719,-5.859,54.199,-17.578
1571285977.096,43.945,-713.867,-538.086,40.527,-99.121
1571285977.100,103.516,-198.242,-98.633,60.547,23.438
1571285977.104,93.750,440.430,364.746,82.520,121.094
1571285977.108,35.645,233.887,164.551,70.312,34.668
1571285977.112,27.832,-99.609,-100.098,50.781,-58.105
1571285977.116,76.172,-125.977,-94.238,58.594,-10.742
1571285977.120,105.957,151.855,152.832,78.125,98.633
1571285977.124,50.293,139.160,133.301,65.430,58.594
1571285977.128,20.508,-74.219,-48.828,45.898,-34.668
1571285977.132,80.566,174.805,142.090,62.500,-1.953
1571285977.136,121.582,484.375,387.695,83.008,89.355
1571285977.139,61.523,261.230,214.844,65.430,54.688
1571285977.143,2.930,-110.352,-55.664,34.180,-30.273
1571285977.147,29.297,16.113,54.199,28.320,-31.738
1571285977.151,90.820,257.812,255.371,57.617,60.059
1571285977.155,68.848,263.184,272.949,54.688,91.797
1571285977.159,4.883,228.027,230.469,29.297,10.742
1571285977.163,10.254,-43.457,16.602,23.926,-40.527
1571285977.167,72.754,-220.703,-78.613,44.922,33.203
1571285977.171,84.961,-197.266,-20.996,62.988,105.957
1571285977.175,9.277,-35.156,79.590,28.320,48.828
1571285977.178,-13.672,13.672,66.895,12.695,-37.598
1571285977.182,45.898,-106.934,-17.090,36.133,-9.277
1571285977.186,79.590,157.715,216.797,49.805,98.633
1571285977.190,21.484,295.898,290.039,33.203,47.363
1571285977.194,-17.578,-83.984,-33.691,7.812,-78.125
1571285977.198,27.832,-374.512,-222.168,7.324,-58.105
1571285977.202,67.871,-128.418,-3.418,28.809,52.734
1571285977.206,25.391,202.637,226.074,25.879,76.660
1571285977.210,-23.926,-125.488,-46.387,12.695,-8.789
1571285977.214,2.930,-828.125,-583.008,8.301,-62.500
1571285977.218,59.082,-664.062,-400.391,22.949,47.363
1571285977.221,39.062,189.453,256.348,28.809,136.230
1571285977.225,-20.020,152.344,145.508,5.371,28.320
1571285977.229,-19.531,-341.309,-243.164,-10.254,-62.012
1571285977.233,43.457,-115.234,-30.273,12.207,35.156
1571285977.237,64.941,367.188,339.844,41.016,116.211
1571285977.241,0.977,138.184,128.418,15.137,19.043
1571285977.245,-23.926,-367.676,-263.672,-14.160,-85.938
1571285977.249,32.227,-263.184,-154.297,3.418,-33.203
1571285977.253,63.477,116.699,147.461,25.879,72.754
1571285977.257,9.277,-140.137,-63.477,11.719,39.062
1571285977.261,-27.832,-762.207,-534.668,-10.254,-63.477
1571285977.264,4.883,-623.047,-418.457,-13.672,-59.082
1571285977.268,48.340,119.141,146.484,8.789,79.590
1571285977.272,21.973,153.320,144.043,9.766,92.773
1571285977.276,-31.738,-323.242,-238.281,-18.066,-15.625
1571285977.280,-21.484,-229.004,-166.016,-23.926,-39.551
1571285977.284,39.062,143.066,119.629,0.488,52.246
1571285977.288,28.809,287.109,229.492,10.742,100.098
1571285977.292,-34.180,44.922,21.973,-12.207,8.301
1571285977.296,-48.828,-145.508,-137.695,-27.344,-53.223
1571285977.300,7.324,5.859,-2.930,-9.766,23.926
1571285977.303,34.180,94.727,83.008,11.230,101.074
1571285977.307,-25.879,-149.414,-110.352,-13.672,23.438
1571285977.311,-55.664,-380.371,-294.922,-36.621,-65.430
1571285977.315,-16.113,-257.324,-197.266,-26.855,-34.668
1571285977.319,18.066,-312.500,-218.262,-8.301,38.574
1571285977.323,-26.367,-394.531,-270.020,-27.344,25.879
1571285977.327,-68.359,-94.238,-79.590,-61.523,-22.949
1571285977.331,-29.297,-161.621,-162.109,-51.758,-36.621
1571285977.335,22.949,-71.777,-64.453,-20.996,50.293
1571285977.339,-15.137,284.180,209.961,-23.438,100.586
1571285977.343,-69.336,209.961,103.027,-46.387,11.719
1571285977.346,-49.316,-190.918,-219.238,-49.805,-57.617
1571285977.350,11.230,-225.586,-205.566,-25.391,32.227
1571285977.354,6.836,0.977,-16.602,-15.625,92.285
1571285977.358,-52.246,-115.234,-127.441,-35.156,-1.465
1571285977.362,-46.387,-442.383,-386.719,-40.039,-73.730
1571285977.366,11.230,-729.492,-572.754,-25.879,-41.016
1571285977.370,29.785,-46.387,-16.113,-15.137,100.098
1571285977.374,-28.809,526.367,359.375,-25.391,86.426
1571285977.378,-70.801,84.961,-25.879,-44.922,-40.527
1571285977.382,-29.785,-102.051,-138.672,-34.668,-34.668
1571285977.386,2.441,430.664,304.688,-11.230,107.910
1571285977.389,-41.016,651.855,458.496,-20.508,113.281
1571285977.393,-77.148,203.125,96.191,-35.156,-11.719
1571285977.397,-47.363,-215.820,-196.777,-36.621,-43.457
1571285977.401,3.906,-71.777,-37.598,-14.160,62.500
1571285977.405,-14.648,225.098,180.664,-18.066,88.379
1571285977.409,-62.988,-344.238,-284.668,-47.852,-49.316
1571285977.413,-55.664,-718.262,-548.828,-46.387,-92.285
1571285977.417,-1.465,144.043,128.418,-19.043,73.242
1571285977.421,4.883,669.434,497.559,-8.789,160.156
1571285977.425,-54.199,185.547,87.891,-30.273,25.391
1571285977.428,-73.242,-258.301,-243.652,-48.828,-70.801
1571285977.432,-18.555,14.648,-9.277,-41.992,7.812
1571285977.436,11.230,335.449,238.770,-20.996,105.957
1571285977.440,-53.223,224.121,127.441,-39.551,48.828
1571285977.444,-85.938,-195.312,-202.637,-68.359,-54.688
1571285977.448,-32.227,-401.855,-329.102,-59.570,-57.129
1571285977.452,16.113,-174.805,-124.023,-39.062,41.504
1571285977.456,-27.832,-180.176,-135.742,-51.270,34.668
1571285977.460,-88.867,-118.164,-117.188,-71.777,-36.621
1571285977.464,-63.477,28.809,-31.250,-68.848,-41.504
1571285977.468,-1.465,50.293,4.883,-44.434,41.992
1571285977.471,-17.578,124.512,80.078,-35.156,78.125
1571285977.475,-71.777,214.355,122.559,-59.570,1.953
1571285977.479,-70.312,-115.723,-147.461,-80.078,-70.312
1571285977.483,-14.648,-224.121,-190.918,-61.035,-6.836
1571285977.487,-8.301,213.379,163.574,-41.504,84.961
1571285977.491,-74.219,32.227,-7.812,-51.270,6.348
1571285977.495,-100.586,-354.492,-303.711,-67.871,-66.895
1571285977.499,-45.898,-559.082,-424.316,-60.059,-22.949
1571285977.503,-8.301,-287.109,-175.293,-35.156,93.750
1571285977.507,-59.082,313.477,241.211,-53.711,80.566
1571285977.511,-95.703,74.707,-1.465,-76.660,-48.828
1571285977.514,-63.477,-118.164,-121.094,-68.848,-20.508
1571285977.518,-18.066,315.430,236.816,-44.434,99.121
1571285977.522,-40.527,588.867,418.945,-41.504,93.262
1571285977.526,-86.426,125.977,39.062,-60.059,-37.109
1571285977.530,-76.172,-300.293,-262.207,-59.570,-88.379
1571285977.534,-20.020,54.688,58.105,-41.504,28.320
1571285977.538,-23.438,281.250,238.281,-34.668,80.078
1571285977.542,-79.590,-192.871,-134.277,-48.340,-6.836
1571285977.546,-78.613,-786.133,-568.359,-64.941,-97.168
1571285977.550,-20.508,-398.926,-246.094,-50.781,-20.996
1571285977.553,-2.441,405.762,350.098,-36.133,111.816
1571285977.557,-64.453,263.672,190.918,-54.688,36.621
1571285977.561,-94.238,-244.629,-208.496,-68.848,-74.219
1571285977.565,-40.527,-144.531,-108.887,-58.594,-44.922
1571285977.569,1.953,295.898,239.258,-46.875,73.242
1571285977.573,-42.969,307.129,233.398,-55.664,73.242
1571285977.577,-95.703,-65.430,-72.754,-79.102,-38.574
1571285977.581,-71.777,-115.723,-109.375,-79.590,-46.875
1571285977.585,-11.230,109.863,96.191,-42.480,85.449
1571285977.589,-38.574,-94.727,-45.898,-47.852,103.027
1571285977.593,-92.285,-570.312,-422.363,-74.707,-39.062
1571285977.596,-77.148,-510.254,-379.395,-68.848,-79.590
1571285977.600,-13.672,-19.531,4.883,-36.133,34.668
1571285977.604,-13.672,321.289,253.906,-26.367,111.328
1571285977.608,-78.613,250.488,160.645,-49.316,27.832
1571285977.612,-81.055,97.168,29.785,-59.082,-41.992
1571285977.616,-18.555,105.469,64.941,-42.480,17.090
1571285977.620,5.859,256.348,205.566,-16.113,89.844
1571285977.624,-51.270,312.012,231.934,-27.344,48.340
1571285977.628,-77.148,123.047,62.012,-54.199,-36.621
1571285977.632,-22.461,-294.922,-237.793,-42.480,-50.293
1571285977.636,13.184,-299.805,-178.711,-17.578,55.176
1571285977.639,-48.828,157.227,167.969,-37.109,79.102
1571285977.643,-96.191,145.508,104.492,-57.129,-25.391
1571285977.647,-56.152,-239.746,-184.082,-47.852,-52.734
1571285977.651,2.441,-295.410,-162.109,-29.297,62.500
1571285977.655,-11.230,246.582,266.602,-22.949,124.023
1571285977.659,-66.895,336.426,277.344,-34.668,32.715
1571285977.663,-62.012,-115.234,-84.961,-49.316,-58.105
1571285977.667,-4.883,-37.109,23.438,-28.809,28.320
1571285977.671,0.000,450.684,406.738,-8.789,131.348
1571285977.675,-45.410,358.398,294.434,-33.203,51.270
1571285977.678,-51.270,-202.148,-137.207,-51.270,-25.391
1571285977.682,0.000,-447.754,-287.109,-32.227,13.184
1571285977.686,21.973,58.105,113.770,-13.672,113.770
1571285977.690,-41.504,324.219,259.766,-38.574,75.684
1571285977.694,-72.266,-444.824,-352.539,-64.453,-42.480
1571285977.698,-25.391,-762.695,-554.199,-56.152,-45.898
1571285977.702,14.648,125.000,140.625,-25.879,100.098
1571285977.706,-19.531,300.293,225.098,-23.926,96.191
1571285977.710,-65.918,-231.934,-213.379,-43.457,-38.574
1571285977.714,-36.133,-242.188,-204.102,-42.969,-41.992
1571285977.718,27.832,207.520,161.621,-6.836,77.148
1571285977.721,5.859,482.422,373.047,1.953,148.926
1571285977.725,-56.641,70.801,39.062,-32.227,50.293
1571285977.729,-53.711,-425.781,-330.078,-37.598,-48.828
1571285977.733,11.230,-55.664,-9.277,-3.418,46.875
1571285977.737,33.203,259.766,221.680,19.531,122.070
1571285977.741,-32.715,-309.082,-229.980,-11.230,23.438
1571285977.745,-55.176,-435.059,-317.871,-34.180,-45.898
1571285977.749,5.859,-68.848,-38.086,-19.043,3.906
1571285977.753,37.109,226.074,200.684,6.348,104.980
1571285977.757,-21.973,171.387,141.602,-2.441,45.898
1571285977.761,-58.105,-53.223,-54.199,-27.344,-52.246
1571285977.764,-5.859,-225.098,-172.852,-18.066,-30.273
1571285977.768,48.340,-65.918,-20.020,14.648,62.012
1571285977.772,9.766,31.738,46.875,11.230,71.777
1571285977.776,-48.828,-289.062,-227.539,-16.602,-33.691
1571285977.780,-25.879,-604.004,-460.449,-20.508,-84.961
1571285977.784,36.621,-297.363,-180.664,4.883,46.875
1571285977.788,26.367,308.105,268.066,1.953,127.930
1571285977.792,-30.273,337.402,227.539,-21.973,29.297
1571285977.796,-39.551,-64.453,-95.215,-32.227,-55.664
1571285977.800,12.695,-136.230,-102.051,-26.855,19.531
1571285977.803,19.531,271.484,231.934,-4.883,108.398
1571285977.807,-42.480,360.840,268.066,-12.695,49.805
1571285977.811,-55.664,-70.312,-80.566,-30.273,-49.316
1571285977.815,0.000,-640.137,-468.750,-25.391,-46.875
1571285977.819,31.738,-365.723,-196.777,-8.789,86.426
1571285977.823,-15.137,-41.016,16.113,-5.859,62.500
1571285977.827,-44.434,-414.062,-308.594,-24.414,-44.922
1571285977.831,-8.301,-406.250,-291.504,-27.832,-33.691
1571285977.835,41.504,209.961,187.500,-1.953,67.871
1571285977.839,19.531,611.328,461.426,4.883,95.215
1571285977.843,-26.855,64.941,1.953,-23.438,-33.203
1571285977.846,-12.695,-680.176,-527.832,-22.461,-92.285
1571285977.850,50.781,-119.629,-41.504,22.461,46.387
1571285977.854,48.828,633.301,502.441,30.273,145.508
1571285977.858,-16.602,290.527,191.406,-0.488,38.086
1571285977.862,-25.391,-242.676,-217.285,-20.508,-93.262
1571285977.866,38.086,-133.789,-91.309,13.184,-22.949
1571285977.870,62.500,260.254,244.141,38.086,111.328
1571285977.874,5.859,-79.102,-39.062,1.953,38.574
1571285977.878,-25.879,-602.051,-432.617,-21.973,-47.363
1571285977.882,15.625,-70.801,-10.742,-17.578,14.648
1571285977.886,63.477,544.434,451.172,7.324,117.188
1571285977.889,17.090,496.582,391.602,9.277,79.590
1571285977.893,-39.551,217.285,159.668,-14.648,-30.762
1571285977.897,-0.488,174.316,140.137,-6.836,-35.645
1571285977.901,65.918,360.840,312.012,26.855,67.383
1571285977.905,41.016,500.488,422.363,28.320,108.887
1571285977.909,-13.672,339.355,273.438,3.906,20.020
1571285977.913,5.859,11.230,22.461,1.465,-17.578
1571285977.917,62.012,-212.402,-116.211,27.344,18.066
1571285977.921,57.129,-307.617,-142.090,28.809,76.172
1571285977.925,-16.113,-98.633,6.348,3.418,47.363
1571285977.928,-25.879,120.605,117.676,2.441,-15.137
1571285977.932,44.922,102.539,104.004,27.344,29.297
1571285977.936,63.477,355.469,321.289,36.621,115.234
1571285977.940,6.348,504.883,403.809,18.066,59.570
1571285977.944,-17.090,161.621,111.816,8.301,-54.688
1571285977.948,37.109,-25.391,7.812,19.531,-16.602
1571285977.952,93.262,306.152,306.152,41.016,107.910
1571285977.956,42.969,532.715,454.590,30.762,88.379
1571285977.960,-19.043,-15.137,9.766,12.207,-36.621
1571285977.964,14.160,-483.398,-309.082,16.602,-65.918
1571285977.968,74.219,-40.039,69.824,33.203,52.734
1571285977.971,48.828,460.449,427.734,31.738,105.469
1571285977.975,-12.207,323.242,279.785,12.695,21.973
1571285977.979,7.812,-171.387,-92.773,2.930,-57.617
1571285977.983,75.684,-151.855,-27.832,28.809,-4.395
1571285977.987,75.195,428.711,429.199,42.969,98.145
1571285977.991,7.812,291.016,282.227,20.020,30.273
1571285977.995,-10.254,-520.020,-333.496,8.301,-101.562
1571285977.999,42.480,-306.641,-113.281,16.602,-26.855
1571285978.003,75.684,559.570,546.387,30.273,117.676
1571285978.007,17.578,353.027,344.238,20.508,51.758
1571285978.011,-34.180,-491.699,-285.645,1.953,-57.617
1571285978.014,3.906,-379.883,-163.086,16.113,-39.551
1571285978.018,61.523,376.465,408.203,45.410,75.684
1571285978.022,25.879,445.312,418.457,32.715,76.172
1571285978.026,-20.020,25.879,66.895,7.324,-29.785
1571285978.030,1.465,-27.832,33.691,8.301,-33.203
1571285978.034,60.547,267.090,275.391,39.551,63.965
1571285978.038,59.570,405.762,384.766,53.711,115.234
1571285978.042,-8.301,150.391,162.109,23.926,18.066
1571285978.046,-14.160,-253.418,-161.621,5.859,-82.520
1571285978.050,53.223,-164.551,-62.500,29.297,-14.648
1571285978.053,78.613,167.969,207.031,49.805,89.844
1571285978.057,26.367,-104.004,-31.738,20.508,7.324
1571285978.061,-0.977,-234.863,-146.484,-2.441,-54.688
1571285978.065,49.316,104.004,119.629,25.879,14.160
1571285978.069,91.797,13.184,73.242,61.035,77.637
1571285978.073,32.715,-108.398,-11.719,43.457,65.430
1571285978.077,-15.625,63.965,63.477,12.695,-18.555
1571285978.081,27.344,-57.129,-57.129,25.879,-39.062
1571285978.085,83.496,157.227,139.160,60.059,83.496
1571285978.089,54.199,455.566,356.445,53.711,95.703
1571285978.093,3.418,309.570,207.031,18.066,0.000
1571285978.096,17.578,-38.574,-60.547,11.230,-45.898
1571285978.100,69.336,-118.164,-72.266,36.621,40.527
1571285978.104,55.664,111.328,134.277,45.410,129.883
1571285978.108,-15.137,148.438,113.770,20.020,29.785
1571285978.112,-4.883,-257.812,-227.051,11.719,-73.242
1571285978.116,54.688,-570.801,-404.785,30.762,-4.395
1571285978.120,56.641,-3.906,61.523,34.180,94.727
1571285978.124,-0.488,247.070,187.012,4.883,10.742
1571285978.128,-27.344,-190.918,-173.340,-4.883,-82.520
1571285978.132,14.648,-250.488,-184.570,17.090,-39.062
1571285978.136,56.152,268.555,229.004,42.969,73.730
1571285978.139,13.184,489.258,367.188,20.508,86.426
1571285978.143,-34.668,62.500,10.254,-3.418,-22.461
1571285978.147,0.000,-260.254,-207.520,7.324,-26.367
1571285978.151,53.711,-107.422,-56.641,31.250,56.152
1571285978.155,34.180,186.035,163.574,32.715,80.078
1571285978.159,-16.113,-273.438,-208.496,9.277,0.977
1571285978.163,-5.859,-748.047,-566.406,0.000,-86.426
1571285978.167,56.641,-9.766,19.531,24.902,23.438
1571285978.171,50.781,508.301,389.648,34.180,107.910
1571285978.175,-3.418,228.516,138.672,-1.953,22.949
1571285978.178,-12.207,-0.488,-43.457,-20.020,-42.969
1571285978.182,22.949,210.449,132.812,10.742,13.184
1571285978.186,48.340,515.137,382.812,30.273,125.488
1571285978.190,3.906,369.141,246.582,10.742,65.918
1571285978.194,-27.832,-100.586,-123.535,-22.461,-44.922
1571285978.198,11.230,-229.004,-187.500,-16.113,-16.602
1571285978.202,48.828,56.641,67.871,13.672,105.469
1571285978.206,8.301,-167.480,-115.723,2.930,59.570
1571285978.210,-40.039,-294.922,-240.723,-17.578,-53.223
1571285978.214,-11.719,-119.141,-128.418,-22.949,-37.109
1571285978.218,55.176,6.836,-18.066,1.465,71.289
1571285978.221,29.297,315.430,215.820,8.301,116.699
1571285978.225,-34.180,311.035,153.809,-12.695,20.996
1571285978.229,-16.113,6.348,-104.004,-11.719,-57.617
1571285978.233,44.922,84.473,-0.488,9.277,41.016
1571285978.237,41.016,363.281,223.145,15.625,108.398
1571285978.241,-40.039,55.664,-49.805,-12.695,2.441
1571285978.245,-70.801,-440.430,-433.105,-45.898,-74.707
1571285978.249,-18.555,-701.660,-591.309,-40.039,-20.996
1571285978.253,8.301,-401.367,-327.637,-12.695,85.938
1571285978.257,-42.480,120.117,16.602,-15.625,47.363
1571285978.261,-70.312,-154.297,-252.930,-25.879,-77.637
1571285978.264,-28.809,-367.676,-383.301,-17.090,-49.316
1571285978.268,20.020,164.551,66.406,12.207,84.961
1571285978.272,-11.230,435.059,246.582,10.254,90.332
1571285978.276,-53.711,-69.336,-167.480,-17.578,-23.926
1571285978.280,-24.902,-321.289,-340.332,-14.160,-78.125
1571285978.284,38.086,196.289,88.867,19.043,40.527
1571285978.288,25.879,521.973,334.473,29.785,125.000
1571285978.292,-32.227,81.055,-32.715,6.836,34.180
1571285978.296,-23.438,-569.336,-512.207,-11.230,-57.129
1571285978.300,34.180,-179.199,-162.598,14.648,20.996
1571285978.303,40.527,627.441,443.359,33.203,118.652
1571285978.307,-19.043,443.359,258.789,4.395,47.852
1571285978.311,-24.902,-15.625,-93.262,-10.254,-48.340
1571285978.315,25.391,127.930,48.828,1.465,-0.488
1571285978.319,56.641,535.156,377.930,23.438,121.582
1571285978.323,19.531,356.445,219.727,15.137,64.941
1571285978.327,-24.414,-104.004,-140.625,-5.371,-38.086
1571285978.331,15.625,-272.461,-237.305,23.438,-28.809
1571285978.335,72.266,-84.961,-37.109,54.199,89.844
1571285978.339,36.133,50.781,70.312,32.227,111.328
1571285978.343,-7.812,-87.891,-78.125,2.441,-4.395
1571285978.346,13.672,-168.457,-161.133,3.906,-64.941
1571285978.350,63.965,122.070,78.613,36.621,29.785
1571285978.354,53.711,49.805,39.062,43.945,84.961
1571285978.358,-1.465,-208.008,-161.133,14.160,14.648
1571285978.362,-4.883,-24.414,-36.621,9.766,-6.348
1571285978.366,55.664,95.215,64.453,34.180,40.527
1571285978.370,74.219,333.984,272.461,46.875,113.281
1571285978.374,13.672,411.133,306.152,27.344,62.500
1571285978.378,-14.160,197.266,120.117,21.973,-14.648
1571285978.382,31.738,-103.027,-85.449,36.133,9.277
1571285978.386,75.684,-346.191,-213.379,49.805,78.125
1571285978.389,36.133,-82.031,-6.348,50.781,72.754
1571285978.393,0.977,26.855,15.137,32.227,-33.691
1571285978.397,30.273,-238.770,-193.848,25.879,-63.477
1571285978.401,89.355,32.715,60.059,50.781,65.430
1571285978.405,58.105,341.309,284.180,48.340,95.215
1571285978.409,-5.371,81.543,40.039,29.297,-24.414
1571285978.413,21.484,-147.949,-126.465,36.133,-31.250
1571285978.417,87.402,73.730,73.242,62.988,69.824
1571285978.421,89.844,457.520,354.492,69.824,121.094
1571285978.425,30.273,363.281,245.117,51.758,56.152
1571285978.428,20.508,-202.148,-196.289,44.434,-35.645
1571285978.432,79.102,-369.141,-283.691,52.246,17.578
1571285978.436,93.262,236.328,192.383,64.941,134.766
1571285978.440,39.551,429.688,277.832,44.434,77.148
1571285978.444,12.207,-397.949,-382.324,15.625,-61.523
1571285978.448,42.480,-569.336,-456.055,21.484,-25.879
1571285978.452,80.566,292.480,221.680,50.293,116.699
1571285978.456,42.969,426.270,270.508,55.664,84.961
1571285978.460,1.953,10.254,-77.148,36.621,-15.137
1571285978.464,34.180,-47.852,-114.258,23.438,-20.020
1571285978.468,61.035,352.539,208.984,28.809,83.984
1571285978.471,15.625,536.621,342.285,17.578,124.512
1571285978.475,-51.270,-17.578,-107.422,-8.301,-0.977
1571285978.479,-48.828,-470.703,-439.453,-21.484,-60.059
1571285978.483,-4.395,-43.457,-83.984,-16.602,46.875
1571285978.487,-3.906,331.055,180.664,-17.578,123.535
1571285978.491,-65.430,-236.816,-281.250,-55.176,19.043
1571285978.495,-98.145,-371.094,-385.742,-87.402,-48.828
1571285978.499,-38.574,-81.543,-171.875,-61.035,-0.977
1571285978.503,-16.113,136.230,6.348,-35.645,77.637
1571285978.507,-81.055,245.117,58.105,-57.617,33.691
1571285978.511,-125.977,129.883,-80.078,-98.145,-61.523
1571285978.514,-91.309,243.164,1.953,-113.770,-3.906
1571285978.518,-29.785,582.520,270.020,-70.801,109.375
1571285978.522,-82.520,562.012,232.910,-67.383,90.332
1571285978.526,-155.273,257.812,-32.227,-123.047,21.973
1571285978.530,-123.047,256.348,-57.617,-129.883,4.395
1571285978.534,-48.828,228.516,-79.590,-85.449,43.945
1571285978.538,-49.316,317.383,-25.391,-68.359,59.082
1571285978.542,-94.727,720.703,223.145,-76.660,4.395
1571285978.546,-69.336,750.488,187.012,-69.824,-12.695
1571285978.550,4.395,805.176,284.180,-37.598,66.895
1571285978.553,14.160,996.582,512.207,-14.160,135.254
1571285978.557,-48.340,953.613,380.859,-35.645,64.453
1571285978.561,-71.777,551.270,12.207,-62.012,-67.871
1571285978.565,-21.973,495.605,14.160,-42.480,-21.484
1571285978.569,20.508,922.363,385.254,-4.395,132.324
1571285978.573,-15.137,865.723,319.824,-11.719,76.660
1571285978.577,-63.477,416.504,-42.969,-45.410,-33.691
1571285978.581,-29.785,74.707,-283.691,-46.875,-15.625
1571285978.585,39.062,589.844,176.270,-5.859,91.797
1571285978.589,12.695,-903.809,581.055,4.883,108.398
1571285978.593,-43.457,716.797,212.402,-18.555,-10.254
1571285978.596,-16.602,439.453,-0.977,-18.555,-41.992
1571285978.600,60.547,807.617,380.371,24.902,72.266
1571285978.604,55.176,-944.336,685.059,46.387,146.484
1571285978.608,-14.160,784.180,403.809,13.672,51.270
1571285978.612,-9.277,289.551,-10.742,6.836,-41.504
1571285978.616,58.105,230.957,22.949,49.316,15.625
1571285978.620,62.988,541.992,300.293,50.293,108.887
1571285978.624,4.395,104.004,-34.668,27.344,37.109
1571285978.628,-27.344,-415.039,-414.062,4.395,-64.941
1571285978.632,19.043,144.531,41.016,0.488,5.371
1571285978.636,66.406,673.828,447.266,39.551,101.562
1571285978.639,22.949,526.855,319.336,35.156,42.969
1571285978.643,-13.672,199.219,67.871,8.789,-52.246
1571285978.647,25.879,193.359,92.773,12.695,-27.832
1571285978.651,80.078,397.949,290.527,46.875,71.289
1571285978.655,46.875,434.570,329.102,44.434,73.730
1571285978.659,-5.859,236.328,166.504,15.625,-10.742
1571285978.663,24.414,-79.102,-49.805,17.578,-31.250
1571285978.667,89.355,-142.090,-33.203,39.551,50.781
1571285978.671,81.055,-221.191,-51.758,45.410,68.848
1571285978.675,10.742,-221.191,-62.012,25.391,-21.484
1571285978.678,8.301,-73.730,23.438,8.301,-60.059
1571285978.682,70.312,11.230,109.863,23.438,20.508
1571285978.686,89.355,306.152,367.188,55.664,109.375
1571285978.690,25.879,360.840,382.324,41.016,36.621
1571285978.694,-8.789,62.012,138.184,14.160,-43.457
1571285978.698,48.828,-134.277,25.391,32.715,-22.461
1571285978.702,101.074,145.508,286.621,70.312,84.473
1571285978.706,55.664,375.977,437.012,54.199,82.031
1571285978.710,3.418,-96.191,56.152,29.297,-34.668
1571285978.714,40.527,-808.594,-492.188,38.574,-92.773
1571285978.718,102.051,-633.301,-300.781,66.895,20.996
1571285978.721,85.449,209.473,368.164,74.219,120.605
1571285978.725,26.367,-10.742,121.582,60.059,4.883
1571285978.729,36.621,-416.504,-179.199,63.965,-41.992
1571285978.733,105.957,22.949,189.453,84.473,55.176
1571285978.737,96.191,485.840,524.902,84.961,103.027
1571285978.741,30.273,211.426,272.461,55.664,9.766
1571285978.745,16.113,-293.457,-112.793,39.062,-68.848
1571285978.749,73.730,-159.668,21.973,62.012,-10.742
1571285978.753,94.238,395.020,459.961,76.660,117.676
1571285978.757,25.879,158.203,240.234,52.734,56.152
1571285978.761,3.418,-791.992,-495.605,41.016,-86.914
1571285978.764,56.152,-628.906,-322.266,52.246,-26.855
1571285978.768,94.238,264.160,354.004,70.801,118.164
1571285978.772,48.828,306.641,318.848,64.941,82.520
1571285978.776,8.789,-166.016,-84.473,48.340,-62.988
1571285978.780,56.152,-263.184,-143.066,56.641,-49.316
1571285978.784,111.816,73.242,147.461,76.172,93.262
1571285978.788,80.566,362.793,350.098,67.383,122.070
1571285978.792,20.996,135.254,133.301,42.969,7.812
1571285978.796,27.344,7.324,34.668,37.109,-28.320
1571285978.800,87.402,254.883,245.117,62.988,55.664
1571285978.803,89.844,363.281,340.332,83.496,117.676
1571285978.807,34.668,-53.223,2.930,60.547,22.949
1571285978.811,31.250,-345.703,-237.793,40.527,-82.520
1571285978.815,81.543,-80.566,-25.879,51.758,-7.812
1571285978.819,95.703,5.859,64.453,70.801,105.957
1571285978.823,38.574,-45.410,14.160,49.805,82.520
1571285978.827,2.930,-70.312,-46.387,11.230,-10.742
1571285978.831,56.152,-172.363,-117.188,22.949,-21.484
1571285978.835,113.770,140.625,169.434,60.547,94.727
1571285978.839,60.059,309.082,295.898,41.504,114.746
1571285978.843,8.301,92.773,88.867,24.902,6.348
1571285978.846,39.062,-171.387,-124.023,34.180,-47.363
1571285978.850,108.398,-74.707,-7.324,62.988,78.125
1571285978.854,116.699,118.652,155.273,83.496,132.812
1571285978.858,46.875,122.559,125.977,59.570,52.734
1571285978.862,36.133,-200.195,-149.902,50.781,-31.250
1571285978.866,97.168,-580.566,-391.113,76.172,-9.277
1571285978.870,106.934,8.789,98.145,78.613,107.910
1571285978.874,45.410,338.379,273.926,49.316,60.547
1571285978.878,16.113,-59.082,-68.848,28.809,-17.090
1571285978.882,83.984,-43.457,-26.367,62.500,36.621
1571285978.886,127.930,482.422,387.207,89.355,135.742
1571285978.889,51.758,594.727,429.199,59.082,96.680
1571285978.893,15.137,0.000,-53.223,50.293,-37.598
1571285978.897,64.453,-402.344,-316.406,65.918,-37.598
1571285978.901,107.422,-28.809,10.254,87.402,83.496
1571285978.905,81.543,207.031,172.852,85.449,108.398
1571285978.909,20.020,-21.484,-37.109,44.434,33.203
1571285978.913,21.484,-70.312,-98.633,20.996,-13.184
1571285978.917,83.008,331.543,208.496,38.574,55.664
1571285978.921,89.844,758.789,523.926,69.824,141.602
1571285978.925,32.227,112.793,-2.441,60.059,41.992
1571285978.928,7.324,-394.043,-385.254,20.996,-53.223
1571285978.932,62.012,237.793,103.516,31.250,33.203
1571285978.936,80.078,687.012,422.852,46.387,123.047
1571285978.940,20.020,562.988,271.484,23.438,47.852
1571285978.944,-2.930,194.824,-38.574,10.742,-35.156
1571285978.948,49.316,209.961,-18.066,30.762,1.953
1571285978.952,83.984,575.195,264.648,50.293,108.398
1571285978.956,41.016,373.047,83.984,25.391,83.008
1571285978.960,-4.395,328.613,6.348,-4.883,-2.441
1571285978.964,25.391,633.301,199.219,4.883,1.465
1571285978.968,87.891,817.383,343.262,46.387,77.637
1571285978.971,67.383,922.852,417.480,50.781,85.938
1571285978.975,10.254,752.441,248.535,19.531,-24.414
1571285978.979,21.973,522.461,70.312,20.020,-59.082
1571285978.983,84.961,706.055,266.113,53.223,70.312
1571285978.987,77.148,987.305,500.488,45.898,138.672
1571285978.991,11.230,706.055,235.840,15.137,37.598
1571285978.995,10.254,139.648,-188.477,17.090,-59.082
1571285978.999,80.566,-293.945,-450.684,42.969,-46.387
1571285979.003,97.656,-24.902,-176.270,58.594,77.637
1571285979.007,33.203,381.836,107.422,37.109,58.105
1571285979.011,15.137,-48.828,-259.277,15.625,-71.777
1571285979.014,62.500,-179.199,-307.129,45.898,-44.922
1571285979.018,109.375,399.414,197.754,78.125,112.793
1571285979.022,68.359,699.219,417.480,59.082,116.211
1571285979.026,18.066,187.012,8.301,41.504,-13.672
1571285979.030,57.617,-159.668,-206.543,58.105,-21.973
1571285979.034,114.746,207.031,131.348,95.703,93.750
1571285979.038,86.426,315.430,220.215,96.191,125.977
1571285979.042,38.086,-314.941,-268.066,64.941,14.160
1571285979.046,61.035,-932.617,-770.996,55.176,-80.566
1571285979.050,116.211,-461.914,-339.355,81.543,26.855
1571285979.053,103.027,282.715,281.738,88.867,131.348
1571285979.057,34.668,-3.418,15.625,62.012,30.273
1571285979.061,21.484,-367.188,-246.094,42.480,-4.395
1571285979.065,84.473,-353.027,-208.008,58.105,25.391
1571285979.069,124.023,-106.445,8.301,87.891,76.172
1571285979.073,70.801,-82.520,26.855,72.266,83.984
1571285979.077,27.832,-544.434,-346.680,38.086,-43.945
1571285979.081,67.871,-487.793,-281.738,38.086,-28.320
1571285979.085,111.816,-165.527,18.066,71.777,104.492
1571285979.089,60.547,-515.137,-275.879,58.594,63.477
1571285979.093,4.395,-965.332,-657.715,18.066,-57.129
1571285979.096,45.410,-705.566,-412.598,31.738,-55.664
1571285979.100,100.098,-156.738,23.926,65.430,82.031
1571285979.104,59.082,104.004,211.914,54.688,140.625
1571285979.108,-5.859,-100.586,18.555,16.113,27.344
1571285979.112,3.906,-330.078,-169.922,10.254,-49.805
1571285979.116,69.336,-251.953,-75.684,38.574,24.414
1571285979.120,82.520,-138.672,35.156,56.641,98.145
1571285979.124,25.879,-220.215,-46.387,43.457,33.691
1571285979.128,12.695,-276.367,-104.004,32.715,-12.207
1571285979.132,64.453,-460.938,-232.422,47.363,10.742
1571285979.136,94.238,-668.457,-344.238,62.012,74.219
1571285979.139,42.969,-450.684,-181.641,39.551,53.711
1571285979.143,-0.488,-310.547,-135.742,11.230,-33.691
1571285979.147,38.574,-453.125,-251.953,20.020,-27.832
1571285979.151,86.426,-94.727,59.082,49.805,104.980
1571285979.155,46.387,339.844,365.723,46.875,133.301
1571285979.159,5.859,37.109,77.148,30.273,-9.277
1571285979.163,38.574,-334.473,-192.383,25.879,-39.062
1571285979.167,87.891,-106.934,27.344,46.387,82.031
1571285979.171,75.195,295.898,327.637,62.988,131.348
1571285979.175,14.160,111.328,147.461,39.551,36.621
1571285979.178,14.648,-466.309,-299.316,31.738,-56.152
1571285979.182,80.566,-681.641,-415.527,53.711,-8.789
1571285979.186,90.332,-162.109,5.371,58.594,102.051
1571285979.190,20.020,5.859,75.684,40.039,40.527
1571285979.194,1.465,-470.703,-312.012,25.391,-53.711
1571285979.198,62.500,-455.566,-267.578,38.574,-14.648
1571285979.202,96.680,195.801,244.629,62.012,119.629
1571285979.206,51.758,238.770,228.516,54.688,70.312
1571285979.210,7.324,-556.641,-387.695,32.715,-44.922
1571285979.214,30.273,-691.406,-449.707,27.344,-27.832
1571285979.218,79.102,101.562,164.551,53.223,107.422
1571285979.221,51.270,349.609,310.547,52.734,125.488
1571285979.225,3.418,-222.168,-161.621,32.715,-10.254
1571285979.229,23.926,-568.359,-398.926,29.297,-42.969
1571285979.233,72.754,-240.234,-121.582,43.945,49.316
1571285979.237,67.871,-131.836,-49.805,52.734,84.473
1571285979.241,4.395,-554.688,-375.977,25.879,23.438
1571285979.245,-9.766,-512.207,-349.609,10.742,-20.020
1571285979.249,56.152,-132.324,-69.824,39.551,23.926
1571285979.253,92.773,215.332,202.148,56.641,126.953
1571285979.257,39.551,247.559,188.477,39.551,79.590
1571285979.261,5.859,54.688,7.812,22.949,-22.461
1571285979.264,51.270,26.367,2.441,33.203,-3.418
1571285979.268,90.332,321.777,270.996,59.570,125.000
1571285979.272,59.082,148.926,128.418,58.105,72.266
1571285979.276,28.320,-380.859,-283.691,41.504,-42.480
1571285979.280,48.828,-256.836,-168.457,38.086,-6.348
1571285979.284,88.379,-228.516,-125.977,61.523,67.871
1571285979.288,68.359,-333.496,-189.941,68.359,75.195
1571285979.292,21.484,-151.855,-75.195,46.387,32.227
1571285979.296,32.715,-204.590,-136.230,39.551,-5.371
1571285979.300,90.820,-22.461,31.250,61.035,63.965
1571285979.303,82.520,375.488,338.379,69.336,124.023
1571285979.307,20.996,375.000,297.852,46.875,59.570
1571285979.311,16.602,-10.254,-9.277,39.062,-3.906
1571285979.315,70.312,-85.449,-34.668,62.012,29.785
1571285979.319,95.703,168.457,196.289,77.148,134.766
1571285979.323,37.598,77.637,109.863,54.199,75.684
1571285979.327,7.812,-319.336,-218.750,29.297,-43.457
1571285979.331,56.641,-705.566,-470.703,37.598,-17.090
1571285979.335,93.262,-127.930,16.602,63.965,113.281
1571285979.339,55.664,371.094,334.473,62.500,90.820
1571285979.343,23.926,37.109,32.715,50.293,1.465
1571285979.346,52.734,-272.461,-189.453,52.246,-7.812
1571285979.350,99.121,-13.184,34.180,65.430,68.848
1571285979.354,71.777,392.090,326.660,64.941,103.516
1571285979.358,9.766,210.938,153.809,45.410,43.457
1571285979.362,22.461,-99.609,-84.473,41.504,-7.812
1571285979.366,81.055,-58.594,-20.996,62.012,42.969
1571285979.370,86.426,147.949,160.156,70.312,110.352
1571285979.374,24.414,-338.379,-233.398,43.457,-0.488
1571285979.378,1.465,-798.828,-579.590,29.297,-83.496
1571285979.382,51.758,-93.262,-18.555,51.758,34.668
1571285979.386,74.707,538.574,444.824,65.918,144.531
1571285979.389,16.113,388.672,287.598,47.363,70.312
1571285979.393,-22.461,72.754,31.738,13.672,-25.879
1571285979.397,23.438,121.094,82.520,12.207,-1.465
1571285979.401,69.824,359.375,286.133,45.898,100.098
1571285979.405,32.227,236.816,191.895,47.363,90.332
1571285979.409,-14.160,-94.727,-83.496,20.020,-39.551
1571285979.413,14.648,-354.004,-271.484,17.090,-73.242
1571285979.417,83.984,-265.137,-149.414,51.758,55.664
1571285979.421,73.730,-290.039,-155.762,54.199,80.566
1571285979.425,9.766,-339.844,-223.145,25.879,-18.555
1571285979.428,7.324,-137.207,-104.004,17.090,-43.945
1571285979.432,62.012,20.020,25.879,36.133,42.969
1571285979.436,80.078,334.961,286.621,61.523,128.418
1571285979.440,28.809,437.500,330.566,46.875,75.195
1571285979.444,11.230,215.332,142.578,24.902,8.301
1571285979.448,63.965,26.367,26.855,31.250,15.137
1571285979.452,99.609,191.406,195.801,60.059,90.332
1571285979.456,56.152,306.641,284.668,59.082,78.613
1571285979.460,19.043,-133.789,-58.594,36.621,-16.602
1571285979.464,68.848,-801.270,-521.973,49.805,-38.086
1571285979.468,122.559,-657.227,-336.426,76.172,77.637
1571285979.471,82.031,50.293,174.316,68.359,98.633
1571285979.475,32.715,9.277,71.289,48.828,5.859
1571285979.479,58.105,-418.457,-257.324,54.199,-56.152
1571285979.483,111.328,-143.555,-2.930,77.637,46.875
1571285979.487,104.980,423.340,431.152,85.938,146.973
1571285979.491,50.781,137.695,164.062,66.895,27.832
1571285979.495,42.969,-391.602,-236.328,56.641,-65.430
1571285979.499,100.098,-222.656,-62.988,71.777,14.648
1571285979.503,106.934,292.480,339.844,72.754,123.047
1571285979.507,35.156,-11.719,79.590,48.828,52.734
1571285979.511,9.277,-864.258,-617.676,31.250,-79.102
1571285979.514,53.711,-731.934,-476.562,33.691,-44.922
1571285979.518,94.727,-44.922,104.492,59.082,102.539
1571285979.522,47.363,-40.039,56.152,52.246,66.406
1571285979.526,-4.883,-353.027,-216.797,24.414,-41.992
1571285979.530,30.762,-276.367,-158.203,23.438,-29.785
1571285979.534,84.961,127.930,158.203,51.270,81.055
1571285979.538,53.711,219.727,215.332,51.758,98.145
1571285979.542,-7.324,-102.051,-52.734,18.555,0.488
1571285979.546,4.883,-253.906,-171.875,13.672,-52.246
1571285979.550,65.918,-24.902,25.391,44.434,20.508
1571285979.553,71.289,73.242,118.164,60.547,95.215
1571285979.557,14.160,-268.555,-155.273,45.410,12.695
1571285979.561,-0.488,-394.531,-267.578,27.832,-60.547
1571285979.565,66.895,-148.926,-75.684,52.734,-7.324
1571285979.569,96.680,-113.770,-20.508,72.754,92.773
1571285979.573,35.156,-405.762,-253.418,43.457,46.387
1571285979.577,9.277,-479.004,-348.145,29.297,-69.336
1571285979.581,62.988,-389.648,-283.203,49.805,-59.570
1571285979.585,111.328,-59.570,-6.348,79.102,74.707
1571285979.589,66.406,216.309,179.688,62.012,84.473
1571285979.593,19.043,42.480,5.859,39.062,-18.555
1571285979.596,64.453,-250.488,-208.984,52.246,-51.758
1571285979.600,126.953,-227.051,-136.719,76.660,50.781
1571285979.604,96.191,-84.961,-11.719,80.566,89.844
1571285979.608,34.668,-100.098,-59.082,51.758,3.418
1571285979.612,39.062,-321.289,-238.770,40.039,-33.203
1571285979.616,93.262,-639.160,-440.918,60.547,1.465
1571285979.620,99.121,-118.652,-13.672,72.754,95.703
1571285979.624,42.480,176.270,148.438,56.641,34.180
1571285979.628,23.926,-269.043,-220.215,31.250,-62.012
1571285979.632,78.613,-398.926,-271.484,46.387,2.930
1571285979.636,101.562,176.758,193.359,71.289,125.977
1571285979.639,39.062,377.930,296.387,55.176,65.918
1571285979.643,8.301,-51.270,-55.176,37.598,-37.598
1571285979.647,57.617,-331.543,-239.746,41.016,-30.273
1571285979.651,94.238,-119.629,-39.551,56.641,73.730
1571285979.655,47.363,208.984,191.895,51.270,90.332
1571285979.659,-3.418,-354.004,-277.832,20.996,-36.133
1571285979.663,17.578,-729.004,-533.691,13.184,-54.199
1571285979.667,69.824,60.547,90.820,39.062,71.777
1571285979.671,54.688,394.531,313.965,43.457,110.352
1571285979.675,-1.953,28.320,1.953,23.438,-0.977
1571285979.678,-7.324,-72.266,-72.754,20.996,-31.250
1571285979.682,54.199,307.617,238.770,43.457,67.871
1571285979.686,81.543,521.973,416.992,54.199,152.344
1571285979.690,19.043,290.039,217.773,31.738,72.754
1571285979.694,-6.348,-201.172,-166.016,11.719,-44.434
1571285979.698,54.199,-260.742,-170.410,30.762,-5.859
1571285979.702,93.750,195.312,203.125,57.129,123.047
1571285979.706,38.086,-99.121,-35.645,28.809,83.008
1571285979.710,-4.395,-301.758,-206.543,6.348,-15.137
1571285979.714,41.992,1.465,10.742,36.621,-0.488
1571285979.718,94.238,204.102,182.129,75.195,88.379
1571285979.721,58.594,310.547,260.742,65.918,108.398
1571285979.725,4.395,140.137,90.332,37.109,-2.441
1571285979.729,35.645,-56.152,-62.988,39.551,-39.551
1571285979.733,114.258,92.285,88.379,68.848,67.383
1571285979.737,101.074,359.863,301.758,76.172,127.930
1571285979.741,28.809,46.875,29.297,56.641,32.227
1571285979.745,31.738,-470.215,-363.770,51.270,-51.270
1571285979.749,87.891,-625.977,-438.477,65.430,8.789
1571285979.753,103.516,-296.387,-152.344,79.590,116.699
1571285979.757,47.852,168.945,146.484,58.105,63.477
1571285979.761,17.090,-13.672,-58.105,33.203,-41.016
1571285979.764,65.430,-151.367,-141.113,46.875,-6.836
1571285979.768,96.191,301.758,241.211,74.707,114.746
1571285979.772,45.410,543.457,393.066,60.059,101.562
1571285979.776,9.277,78.125,0.488,31.250,-20.020
1571285979.780,54.688,-253.418,-225.586,33.691,-34.180
1571285979.784,108.398,91.797,74.707,58.105,65.918
1571285979.788,70.801,219.727,168.457,63.965,96.680
1571285979.792,14.648,-345.215,-282.227,45.898,-18.066
1571285979.796,23.926,-875.488,-668.457,34.180,-68.848
1571285979.800,79.590,-551.270,-370.605,58.594,31.738
1571285979.803,72.754,27.832,57.617,67.871,92.285
1571285979.807,15.137,-77.148,-79.102,32.715,9.277
1571285979.811,8.301,-291.016,-252.930,18.555,-34.180
1571285979.815,52.734,31.738,9.766,38.574,48.340
1571285979.819,74.219,421.387,300.781,53.711,113.281
1571285979.823,14.648,245.605,146.484,30.762,54.688
1571285979.827,-20.020,-111.328,-127.930,11.719,-17.578
1571285979.831,28.320,-82.031,-87.402,20.508,-2.441
1571285979.835,72.754,125.488,100.098,40.527,97.656
1571285979.839,28.320,-280.762,-214.355,31.250,54.688
1571285979.843,-29.785,-816.895,-626.953,-3.906,-72.754
1571285979.846,3.906,-421.875,-319.824,-5.371,-39.551
1571285979.850,73.730,208.008,158.691,27.344,91.309
1571285979.854,43.457,266.602,186.035,31.738,108.398
1571285979.858,-28.809,-88.867,-104.004,1.953,12.207
1571285979.862,-17.090,-71.777,-88.379,0.000,-8.301
1571285979.866,51.270,138.672,85.938,26.367,64.453
1571285979.870,52.246,215.820,150.879,32.227,94.727
1571285979.874,-13.184,123.047,61.523,12.695,21.973
1571285979.878,-20.020,-77.637,-107.910,-1.953,-53.223
1571285979.882,48.828,-281.738,-230.469,22.949,-17.578
1571285979.886,77.637,-393.555,-251.465,48.340,90.332
1571285979.889,12.207,-152.344,-75.195,27.344,79.102
1571285979.893,-20.020,-32.227,-46.387,11.719,-14.160
1571285979.897,43.457,-208.984,-187.012,31.738,-19.531
1571285979.901,99.609,72.266,68.848,65.918,94.727
1571285979.905,42.480,396.484,303.223,61.035,104.004
1571285979.909,-6.348,220.703,127.930,37.598,21.484
1571285979.913,31.738,-125.000,-125.977,35.645,-3.906
1571285979.917,87.891,39.551,40.039,63.477,87.402
1571285979.921,71.777,382.812,287.598,69.824,114.258
1571285979.925,14.648,114.746,44.434,43.457,0.000
1571285979.928,21.484,-395.508,-332.031,34.180,-49.316
1571285979.932,77.637,-463.379,-333.008,58.105,12.207
1571285979.936,84.961,74.219,88.379,68.848,98.145
1571285979.940,28.320,240.723,159.668,41.504,41.016
1571285979.944,13.672,-518.555,-437.012,20.996,-77.148
1571285979.948,64.941,-637.207,-473.633,27.832,-13.672
1571285979.952,87.402,231.934,200.684,46.875,125.000
1571285979.956,24.902,352.051,233.398,35.645,89.355
1571285979.960,-12.207,-92.773,-131.348,12.207,-12.207
1571285979.964,31.738,-112.305,-124.023,14.160,-0.977
1571285979.968,75.684,294.434,205.078,42.480,105.957
1571285979.971,42.969,264.648,171.875,35.156,110.840
1571285979.975,-10.254,-249.023,-235.840,8.789,6.348
1571285979.979,7.324,-520.996,-429.199,13.672,-36.621
1571285979.983,68.848,-5.859,-4.395,33.203,83.008
1571285979.987,64.941,366.211,256.836,40.039,146.973
1571285979.991,13.672,-322.266,-295.410,28.320,15.137
1571285979.995,8.301,-517.578,-430.664,17.578,-56.641
1571285979.999,60.059,22.461,-14.160,32.227,32.227
1571285980.003,73.730,246.582,151.367,40.527,101.562
1571285980.007,10.254,61.523,-12.207,23.926,23.438
1571285980.011,-15.137,-131.348,-175.781,18.555,-63.965
1571285980.014,47.363,-23.438,-76.660,36.621,-11.719
1571285980.018,93.262,234.863,151.855,63.965,107.422
1571285980.022,39.062,169.434,98.633,53.711,103.027
1571285980.026,-8.301,-192.383,-205.078,27.344,-6.348
1571285980.030,28.809,-420.898,-374.512,29.785,-50.781
1571285980.034,86.914,-485.352,-379.395,58.105,26.855
1571285980.038,59.570,-347.168,-262.695,53.223,62.988
1571285980.042,14.648,-63.477,-105.957,25.391,-7.324
1571285980.046,47.363,-140.625,-198.730,31.738,-43.945
1571285980.050,115.234,-44.434,-90.332,67.383,45.898
1571285980.053,107.422,309.082,187.500,69.336,105.957
1571285980.057,39.551,300.293,143.555,40.039,30.762
1571285980.061,42.480,-126.953,-189.941,41.504,-56.641
1571285980.065,109.863,-141.113,-156.738,68.359,3.418
1571285980.069,131.836,158.691,100.098,86.914,100.098
1571285980.073,69.336,62.988,6.836,66.895,53.711
1571285980.077,33.691,-317.871,-314.941,39.062,-52.734
1571285980.081,89.844,-786.133,-641.602,50.293,-58.105
1571285980.085,120.605,-336.914,-240.234,77.637,76.660
1571285980.089,50.293,286.133,191.406,60.059,89.844
1571285980.093,4.395,-80.566,-141.113,26.367,-21.973
1571285980.096,39.062,-262.207,-260.742,27.832,-36.621
1571285980.100,90.820,184.570,100.586,54.688,47.363
1571285980.104,62.012,438.477,275.391,51.758,72.266
1571285980.108,7.324,83.496,-19.043,30.762,-17.090
1571285980.112,18.066,-230.469,-248.047,27.832,-57.129
1571285980.116,81.055,-146.973,-152.344,58.594,20.508
1571285980.120,75.684,-6.836,-22.949,72.266,79.590
1571285980.124,8.789,-420.898,-356.934,40.039,4.883
1571285980.128,0.000,-851.074,-690.918,15.625,-80.078
1571285980.132,51.270,-223.145,-202.148,32.715,8.789
1571285980.136,71.289,480.957,311.035,65.430,143.555
1571285980.139,12.207,225.586,69.336,46.875,63.477
1571285980.143,-18.066,-177.734,-258.789,14.648,-59.082
1571285980.147,29.785,4.883,-112.793,23.926,-30.762
1571285980.151,74.707,353.027,174.805,50.781,92.773
1571285980.155,26.855,476.562,256.348,31.738,117.676
1571285980.159,-11.719,203.125,3.418,12.695,-14.648
1571285980.163,27.344,-142.090,-246.582,28.320,-49.805
1571285980.167,70.312,3.906,-75.684,52.246,98.145
1571285980.171,33.203,-2.930,-72.266,38.086,124.023
1571285980.175,-30.273,-159.668,-230.469,13.184,-7.324
1571285980.178,-15.625,-40.039,-166.016,21.484,-57.129
1571285980.182,60.059,93.750,-47.363,36.621,35.156
1571285980.186,69.336,352.539,162.598,42.480,109.375
1571285980.190,-3.418,503.906,250.000,29.785,63.965
1571285980.194,-12.207,193.848,-11.230,24.902,-9.277
1571285980.198,66.406,-87.891,-197.754,38.086,13.672
1571285980.202,101.074,312.988,143.555,58.105,123.047
1571285980.206,40.039,533.691,269.043,42.969,87.402
1571285980.210,0.488,61.035,-127.930,23.926,-20.996
1571285980.214,48.828,-564.453,-563.965,33.691,-43.457
1571285980.218,95.703,-437.500,-402.344,43.457,50.781
1571285980.221,48.828,245.605,97.656,37.109,89.355
1571285980.225,-1.953,213.379,7.812,20.020,-2.441
1571285980.229,27.832,-157.715,-275.391,21.973,-54.688
1571285980.233,84.961,98.633,-38.086,44.434,35.156
1571285980.237,65.430,604.004,345.703,49.316,117.188
1571285980.241,0.000,356.445,118.164,32.227,21.484
1571285980.245,0.488,-158.203,-268.066,30.273,-67.383
1571285980.249,63.965,41.504,-69.824,43.457,20.020
1571285980.253,73.730,355.957,191.895,53.711,104.004
1571285980.257,15.625,-28.320,-112.793,31.250,38.574
1571285980.261,-5.859,-488.281,-465.820,3.906,-60.547
1571285980.264,47.363,-254.395,-263.672,21.973,-28.809
1571285980.268,82.031,403.809,263.184,48.340,121.094
1571285980.272,18.066,363.281,205.078,27.344,103.516
1571285980.276,-23.438,-481.445,-446.289,-5.371,-40.039
1571285980.280,20.508,-413.086,-350.098,10.742,-18.066
1571285980.284,67.383,364.258,253.418,47.363,129.395
1571285980.288,41.016,440.918,283.203,35.156,124.512
1571285980.292,-8.789,41.992,-47.363,7.324,-1.953
1571285980.296,3.906,-67.871,-126.953,11.719,-40.039
1571285980.300,60.547,251.465,151.367,41.016,74.219
1571285980.303,57.617,333.496,219.727,39.062,122.070
1571285980.307,-5.371,-164.551,-186.523,8.789,-2.441
1571285980.311,-12.695,-490.234,-426.758,3.906,-64.453
1571285980.315,47.852,-219.238,-192.383,36.133,11.719
1571285980.319,57.129,-50.293,-53.711,55.176,93.262
1571285980.323,-3.906,-208.984,-201.172,20.020,27.344
1571285980.327,-20.508,-83.984,-145.508,3.906,-38.086
1571285980.331,30.273,-16.113,-102.051,22.461,-12.207
1571285980.335,69.824,291.992,165.039,43.945,103.027
1571285980.339,24.902,534.180,329.590,33.691,101.562
1571285980.343,-10.742,291.992,104.004,13.184,-10.742
1571285980.346,23.438,47.852,-64.941,24.414,-15.625
1571285980.350,73.730,115.723,35.645,49.805,90.820
1571285980.354,53.223,237.793,143.555,39.551,128.906
1571285980.358,-7.324,142.090,32.715,16.602,14.648
1571285980.362,4.883,-199.707,-247.559,16.602,-63.477
1571285980.366,80.566,-428.711,-356.934,45.898,30.273
1571285980.370,86.914,111.816,80.566,61.035,118.164
1571285980.374,20.508,353.027,186.035,33.691,31.250
1571285980.378,4.883,-101.074,-188.965,18.555,-54.199
1571285980.382,65.918,-100.098,-145.020,37.598,18.066
1571285980.386,87.402,395.020,250.977,55.176,104.980
1571285980.389,25.879,383.301,206.543,38.574,31.738
1571285980.393,1.465,-65.430,-144.043,16.113,-61.035
1571285980.397,53.223,-347.656,-320.312,28.320,-45.410
1571285980.401,97.168,-54.688,-42.969,56.152,93.750
1571285980.405,47.363,223.633,147.949,50.781,90.332
1571285980.409,-4.883,-377.930,-344.238,26.855,-39.551
1571285980.413,37.598,-770.996,-604.492,21.973,-52.246
1571285980.417,89.844,97.656,90.820,44.922,95.215
1571285980.421,61.035,500.488,362.305,48.340,134.766
1571285980.425,1.465,93.750,23.926,22.949,24.414
1571285980.428,2.930,-66.895,-93.262,9.277,-36.621
1571285980.432,61.523,224.609,153.809,29.785,37.109
1571285980.436,62.988,491.699,377.930,46.875,128.906
1571285980.440,3.906,265.137,181.641,28.809,49.805
1571285980.444,-9.766,-144.043,-131.836,6.348,-26.367
1571285980.448,45.410,-164.551,-101.562,21.973,35.645
1571285980.452,79.590,106.934,130.859,56.152,107.910
1571285980.456,26.855,-57.129,-11.230,43.457,36.621
1571285980.460,-30.273,-210.449,-146.484,7.812,-56.641
1571285980.464,3.906,-20.996,-7.812,18.066,-30.273
1571285980.468,60.547,106.445,107.910,50.293,83.984
1571285980.471,18.066,1.465,29.785,29.297,95.215
1571285980.475,-30.762,-36.133,-30.762,3.418,0.977
1571285980.479,-4.883,-291.504,-230.957,14.648,-44.434
1571285980.483,61.035,-233.887,-134.277,48.340,48.828
1571285980.487,45.898,102.051,136.230,67.383,104.492
1571285980.491,-10.742,-251.953,-159.180,60.059,15.137
1571285980.495,6.348,-603.027,-410.156,54.199,-31.738
1571285980.499,80.078,-755.859,-490.723,81.543,1.953
1571285980.503,97.168,-672.852,-388.184,95.703,74.707
1571285980.507,36.133,-178.711,-39.062,67.871,55.176
1571285980.511,20.508,-249.512,-142.578,64.453,-24.902
1571285980.514,80.566,-400.879,-238.281,90.820,-1.465
1571285980.518,112.793,-36.621,69.336,113.281,104.980
1571285980.522,62.500,124.023,159.180,103.027,76.660
1571285980.526,37.109,-379.883,-255.371,74.707,-45.898
1571285980.530,71.289,-647.949,-422.852,75.195,-32.715
1571285980.534,112.793,-303.223,-118.652,109.863,93.750
1571285980.538,83.984,-328.613,-97.168,110.840,88.379
1571285980.542,37.109,-773.926,-548.340,91.309,-38.574
1571285980.546,54.688,-1000.000,-943.359,89.844,-95.215
1571285980.550,107.910,-732.422,-529.297,112.793,20.020
1571285980.553,95.215,-232.910,-5.371,116.211,109.863
1571285980.557,32.715,-523.438,-292.480,82.520,3.906
1571285980.561,32.715,-967.285,-629.395,67.871,-78.613
1571285980.565,91.797,-702.148,-392.090,100.098,2.441
1571285980.569,101.074,-304.688,-77.148,113.770,100.586
1571285980.573,37.598,-501.953,-258.301,84.961,37.598
1571285980.577,8.789,-967.773,-637.695,65.918,-81.055
1571285980.581,56.152,-837.402,-506.348,68.359,-24.414
1571285980.585,93.262,-684.570,-330.078,90.332,82.520
1571285980.589,41.504,-890.625,-541.016,77.148,30.273
1571285980.593,-1.465,-987.793,-790.039,43.945,-86.914
1571285980.596,37.109,-955.566,-687.988,49.805,-72.754
1571285980.600,92.773,-556.152,-213.379,85.938,108.887
1571285980.604,66.406,-536.133,-210.449,79.102,104.980
1571285980.608,14.160,-924.805,-546.875,40.039,-35.156
1571285980.612,28.809,-995.605,-596.191,41.504,-62.500
1571285980.616,90.332,-818.359,-401.367,74.707,30.273
1571285980.620,85.938,-818.848,-415.039,72.266,98.633
1571285980.624,18.555,-991.699,-582.031,44.434,-0.488
1571285980.628,10.742,-963.867,-635.742,36.621,-106.445
1571285980.632,74.707,-964.844,-603.027,58.105,-14.648
1571285980.636,95.703,-962.891,-532.715,70.312,107.422
1571285980.639,35.156,-869.629,-482.910,45.898,21.973
1571285980.643,16.113,-821.777,-454.102,34.668,-66.406
1571285980.647,65.918,-929.688,-539.062,54.199,-43.945
1571285980.651,104.004,-707.031,-324.707,81.055,78.613
1571285980.655,56.152,-365.234,-78.613,66.895,83.496
1571285980.659,11.230,-486.816,-215.820,38.574,-10.254
1571285980.663,50.293,-742.188,-407.227,40.527,-27.832
1571285980.667,105.957,-532.227,-208.496,69.824,72.266
1571285980.671,78.613,-193.359,40.039,68.848,103.516
1571285980.675,13.672,-414.062,-166.992,38.574,-7.324
1571285980.678,22.461,-859.863,-540.039,35.645,-60.059
1571285980.682,82.520,-848.633,-479.980,55.664,24.414
1571285980.686,84.473,-365.723,-75.684,57.617,103.516
1571285980.690,20.996,-312.988,-68.848,31.738,35.156
1571285980.694,4.395,-814.941,-588.379,18.555,-56.641
1571285980.698,58.594,-872.559,-621.094,40.039,-6.348
1571285980.702,84.961,-194.336,41.504,60.547,136.719
1571285980.706,29.297,-249.512,-46.875,45.898,88.867
1571285980.710,-0.488,-771.973,-469.238,32.227,-35.645
1571285980.714,55.664,-632.812,-347.168,43.457,-7.812
1571285980.718,105.957,-166.504,14.160,63.965,90.820
1571285980.721,60.059,-144.531,-0.488,49.805,64.453
1571285980.725,4.395,-701.660,-457.520,30.762,-55.664
1571285980.729,32.715,-1000.000,-678.711,41.992,-73.242
1571285980.733,102.051,-555.664,-280.273,67.383,65.430
1571285980.737,82.031,-250.977,-84.473,71.777,95.703
1571285980.741,16.113,-797.363,-545.410,40.527,0.000
1571285980.745,19.043,-848.145,-584.473,23.926,-42.969
1571285980.749,72.266,-336.426,-200.195,50.781,17.090
1571285980.753,77.637,-14.648,42.969,62.988,124.512
1571285980.757,12.695,-73.730,-38.574,40.039,60.059
1571285980.761,0.977,-399.414,-323.242,24.902,-45.410
1571285980.764,66.895,-492.676,-369.141,36.621,-0.488
1571285980.768,89.355,-130.371,-67.383,56.152,105.957
1571285980.772,30.273,-224.609,-167.480,48.828,58.105
1571285980.776,-3.418,-687.012,-539.551,33.691,-52.246
1571285980.780,45.898,-609.375,-456.543,41.504,-12.695
1571285980.784,90.332,-397.461,-269.531,56.641,83.008
1571285980.788,42.969,-330.078,-234.375,44.922,58.594
1571285980.792,-7.812,-133.789,-129.395,24.902,-5.859
1571285980.796,23.438,-173.828,-182.129,24.902,-16.113
1571285980.800,90.820,-113.770,-97.656,50.293,83.496
1571285980.803,72.266,112.305,75.684,52.246,101.562
1571285980.807,5.371,59.082,-12.207,34.180,-10.742
1571285980.811,11.719,-261.719,-257.324,28.809,-61.523
1571285980.815,67.383,-260.742,-224.121,43.945,-6.836
1571285980.819,84.961,16.113,14.160,63.965,89.355
1571285980.823,24.902,-98.633,-92.285,44.434,40.527
1571285980.827,-5.859,-523.438,-439.941,20.508,-63.965
1571285980.831,53.711,-818.848,-623.047,32.715,-35.645
1571285980.835,85.938,-225.586,-134.766,46.875,85.938
1571285980.839,28.809,332.520,228.027,37.109,70.801
1571285980.843,-4.395,31.250,-46.387,22.949,-9.766
1571285980.846,46.875,-147.461,-168.945,32.227,-12.207
1571285980.850,107.910,269.531,167.480,64.941,66.895
1571285980.854,65.918,513.184,334.473,54.688,90.820
1571285980.858,12.695,43.457,-60.547,28.809,-42.480
1571285980.862,42.969,-313.477,-317.383,29.297,-94.238
1571285980.866,95.215,-46.875,-63.477,57.617,53.223
1571285980.870,87.891,196.289,134.277,78.613,124.023
1571285980.874,29.297,-384.766,-342.773,44.922,-15.137
1571285980.878,19.531,-883.789,-715.332,20.020,-107.422
1571285980.882,68.848,-206.055,-166.504,49.316,16.602
1571285980.886,83.496,428.711,296.387,70.801,130.371
1571285980.889,33.691,179.199,65.430,48.828,29.785
1571285980.893,13.184,-130.371,-171.875,27.832,-53.223
1571285980.897,59.082,-14.160,-66.406,43.945,-22.949
1571285980.901,92.773,244.141,157.227,66.895,79.590
1571285980.905,45.410,278.320,180.176,45.410,90.820
1571285980.909,-2.441,69.336,-5.859,16.113,-6.348
1571285980.913,25.391,-165.527,-170.898,20.996,-17.578
1571285980.917,81.543,-128.906,-88.867,51.270,86.914
1571285980.921,56.152,-233.398,-144.043,43.945,96.191
1571285980.925,-3.906,-320.801,-240.234,14.648,-13.672
1571285980.928,8.301,-97.168,-104.980,10.742,-43.945
1571285980.932,68.359,-35.156,-51.270,41.016,33.691
1571285980.936,58.594,31.738,2.441,47.363,59.570
1571285980.940,-13.184,107.422,25.391,13.184,-17.090
1571285980.944,-16.602,36.621,-50.293,4.395,-62.012
1571285980.948,44.922,72.266,2.441,23.926,5.371
1571285980.952,64.941,393.555,276.367,37.109,102.051
1571285980.956,3.418,454.102,287.598,18.555,32.227
1571285980.960,-22.949,-23.926,-92.773,6.836,-79.102
1571285980.964,33.691,-505.371,-400.879,14.160,-46.387
1571285980.968,72.266,-331.055,-203.125,31.738,56.641
1571285980.971,23.438,321.289,279.785,32.227,75.195
1571285980.975,-19.043,361.328,255.371,15.625,-2.441
1571285980.979,17.578,30.762,11.230,22.949,-35.645
1571285980.983,82.031,379.883,325.684,51.758,96.191
1571285980.987,68.359,649.414,519.043,58.105,127.930
1571285980.991,10.742,103.027,70.312,33.691,-18.555
1571285980.995,18.066,-222.168,-155.273,23.438,-64.453
1571285980.999,79.102,94.727,122.559,45.898,39.062
1571285981.003,84.473,504.883,428.711,60.059,105.957
1571285981.007,22.949,179.199,149.414,42.480,20.508
1571285981.011,11.230,-646.973,-461.914,18.555,-55.664
1571285981.014,63.477,-416.016,-239.746,30.273,26.855
1571285981.018,90.332,450.195,406.738,59.082,139.160
1571285981.022,40.039,357.422,281.738,43.945,69.824
1571285981.026,8.301,-122.559,-96.680,21.484,-42.969
1571285981.030,51.270,57.617,68.359,31.250,17.090
1571285981.034,103.516,453.125,378.418,65.918,128.418
1571285981.038,64.453,430.176,345.215,57.617,112.305
1571285981.042,3.906,-29.297,-30.273,19.531,-4.395
1571285981.046,28.320,-311.035,-234.863,17.578,-32.715
1571285981.050,86.914,126.953,141.113,44.434,111.816
1571285981.053,69.824,286.133,257.812,45.898,150.879
1571285981.057,8.301,-183.594,-113.770,22.949,37.598
1571285981.061,7.324,-354.980,-246.582,16.113,-35.156
1571285981.065,64.941,86.426,100.586,41.016,64.453
1571285981.069,80.078,110.840,127.441,55.664,143.555
1571285981.073,16.602,-303.223,-204.102,31.250,23.438
1571285981.077,-1.953,-325.684,-243.652,16.602,-75.684
1571285981.081,53.223,-228.027,-162.598,35.156,-16.113
1571285981.085,85.938,135.254,145.508,62.500,126.465
1571285981.089,29.785,276.367,220.703,42.480,90.820
1571285981.093,-11.230,0.488,-31.250,14.648,-30.762
1571285981.096,26.367,-148.926,-125.488,16.602,-4.883
1571285981.100,69.336,-5.371,26.367,34.180,124.512
1571285981.104,31.738,49.805,65.430,26.367,128.418
1571285981.108,-23.438,-123.535,-92.285,-1.465,41.992
1571285981.112,2.441,-382.324,-309.082,0.000,-23.926
1571285981.116,65.430,-587.891,-435.059,24.902,18.066
1571285981.120,46.875,-103.516,-43.457,29.297,105.957
1571285981.124,-9.766,218.262,130.371,13.672,30.273
1571285981.128,-3.906,-183.105,-211.426,8.301,-59.570
1571285981.132,61.035,-165.527,-159.180,36.621,8.301
1571285981.136,78.613,376.465,272.949,55.664,125.488
1571285981.139,15.625,386.230,229.492,32.227,66.895
1571285981.143,-1.465,-162.109,-215.820,14.160,-56.641
1571285981.147,58.105,-463.867,-406.738,34.180,-24.902
1571285981.151,94.727,-136.230,-122.070,61.035,113.770
1571285981.155,46.387,16.602,-20.996,51.270,110.352
1571285981.159,4.883,-607.910,-561.523,27.344,-34.668
1571285981.163,37.598,-801.758,-700.195,28.809,-42.480
1571285981.167,84.961,62.988,14.648,63.965,108.398
1571285981.171,53.223,474.121,282.715,62.988,128.418
1571285981.175,-3.906,84.473,-52.246,28.320,12.207
1571285981.178,13.672,-145.020,-218.262,25.391,-44.922
1571285981.182,78.613,254.883,126.465,53.711,69.824
1571285981.186,73.730,516.602,336.914,58.594,134.766
1571285981.190,4.883,193.848,68.848,31.738,23.438
1571285981.194,4.883,-235.352,-247.070,26.367,-57.617
1571285981.198,79.102,-180.664,-149.414,58.105,25.879
1571285981.202,88.379,176.758,151.367,62.988,125.000
1571285981.206,1.465,-133.789,-95.215,11.719,46.875
1571285981.210,-46.875,-131.348,-95.215,-23.438,-8.789
1571285981.214,6.836,276.855,206.055,-5.371,40.039
1571285981.218,47.363,385.742,291.016,14.160,103.027
1571285981.221,-19.531,438.965,299.316,-21.484,61.035
1571285981.225,-100.098,391.113,214.355,-83.008,-19.531
1571285981.229,-83.984,317.383,151.367,-101.562,-28.320
1571285981.233,-37.598,492.188,325.195,-76.660,76.172
1571285981.237,-89.355,733.398,517.090,-93.262,121.582
1571285981.241,-160.645,476.562,285.156,-133.301,17.578
1571285981.245,-139.160,175.781,53.711,-127.930,-20.996
1571285981.249,-90.820,91.797,13.184,-119.629,56.641
1571285981.253,-90.332,304.199,179.199,-111.816,117.188
1571285981.257,-135.742,689.453,404.785,-118.652,22.949
1571285981.261,-163.086,647.461,291.016,-147.949,-65.918
1571285981.264,-114.746,749.512,362.793,-133.789,16.602
1571285981.268,-71.777,992.676,655.762,-96.191,106.934
1571285981.272,-123.047,-997.070,568.848,-104.980,44.434
1571285981.276,-155.273,950.684,314.941,-127.441,-38.086
1571285981.280,-88.867,942.383,356.445,-102.051,-9.766
1571285981.284,-23.926,995.117,723.145,-55.664,122.559
1571285981.288,-45.898,-984.375,625.000,-44.434,65.918
1571285981.292,-66.895,950.684,201.660,-41.016,-52.734
1571285981.296,-23.438,925.293,187.988,-21.484,-51.270
1571285981.300,36.621,992.676,596.680,0.977,66.895
1571285981.303,29.785,-974.121,829.590,14.160,134.277
1571285981.307,-0.977,927.246,417.480,15.137,10.742
1571285981.311,16.113,781.250,-40.527,7.812,-52.734
1571285981.315,68.848,956.543,311.035,31.738,39.062
1571285981.319,81.055,-981.445,718.262,54.199,122.070
1571285981.323,36.133,983.398,479.492,48.340,44.434
1571285981.327,15.137,964.844,119.141,30.273,-54.199
1571285981.331,56.152,955.078,242.188,37.109,-6.836
1571285981.335,90.820,-948.730,536.133,67.383,119.141
1571285981.339,37.598,823.730,188.965,43.457,63.965
1571285981.343,-3.906,450.195,-240.234,9.277,-63.965
1571285981.346,54.199,769.043,31.738,35.645,-39.062
1571285981.350,120.605,-968.262,421.875,75.684,84.473
1571285981.354,77.637,985.352,386.719,65.918,100.098
1571285981.358,28.320,796.875,74.707,42.480,-9.277
1571285981.362,61.523,668.945,-1.465,49.805,-39.062
1571285981.366,117.676,873.535,217.773,78.613,78.613
1571285981.370,82.520,964.844,306.152,62.988,127.930
1571285981.374,2.441,722.168,104.004,17.090,27.344
1571285981.378,9.277,364.746,-161.133,9.277,-56.152
1571285981.382,94.727,134.766,-289.062,52.734,3.418
1571285981.386,109.375,-28.809,-338.867,75.195,122.070
1571285981.389,27.832,-23.438,-340.820,37.109,45.410
1571285981.393,2.441,42.969,-330.078,13.672,-51.758
1571285981.397,65.430,2.930,-342.285,37.598,14.648
1571285981.401,106.934,188.477,-161.621,67.871,106.445
1571285981.405,42.480,448.730,33.203,40.039,109.863
1571285981.409,-2.441,210.449,-188.965,11.719,4.395
1571285981.413,43.457,-193.848,-485.840,28.320,-45.410
1571285981.417,95.703,42.969,-239.746,57.617,98.633
1571285981.421,60.059,351.562,-15.625,48.828,123.535
1571285981.425,9.766,85.938,-259.766,29.297,2.930
1571285981.428,48.828,-411.133,-619.629,46.875,-47.852
1571285981.432,115.234,-517.578,-637.695,83.496,27.344
1571285981.436,86.914,-43.457,-259.277,73.730,108.398
1571285981.440,23.926,-100.586,-354.980,39.062,25.879
1571285981.444,26.367,-777.832,-860.840,28.320,-83.984
1571285981.448,73.730,-696.777,-764.648,41.016,-23.438
1571285981.452,85.449,106.445,-174.805,58.105,113.281
1571285981.456,29.297,253.906,-114.258,38.086,83.008
1571285981.460,5.371,-168.945,-462.891,20.020,-27.344
1571285981.464,60.547,-168.945,-437.500,41.016,-10.742
1571285981.468,103.027,258.301,-83.496,63.965,92.773
1571285981.471,57.617,195.801,-140.625,54.688,48.340
1571285981.475,21.484,-391.113,-579.590,41.016,-45.410
1571285981.479,53.711,-561.523,-668.457,40.039,-38.574
1571285981.483,104.980,75.195,-144.043,70.801,104.980
1571285981.487,70.801,355.469,57.129,63.477,150.391
1571285981.491,6.836,-375.977,-510.742,26.855,3.906
1571285981.495,21.973,-694.336,-720.703,27.344,-62.012
1571285981.499,86.426,-189.453,-300.293,59.570,57.129
1571285981.503,86.914,180.176,-7.324,68.359,133.301
1571285981.507,19.043,51.270,-126.953,32.715,44.922
1571285981.511,11.719,-111.328,-256.836,23.926,-40.039
1571285981.514,70.312,-26.367,-157.227,44.922,12.207
1571285981.518,89.355,229.004,82.031,61.523,122.070
1571285981.522,37.109,-29.785,-119.141,47.363,54.199
1571285981.526,6.836,-529.297,-500.000,26.367,-58.594
1571285981.530,39.551,-390.625,-363.281,29.297,-26.855
1571285981.534,75.684,-191.895,-167.480,50.293,102.051
1571285981.538,32.227,-354.492,-286.621,37.109,70.801
1571285981.542,-11.719,-175.293,-174.316,16.113,-6.348
1571285981.546,21.973,-130.859,-152.832,26.855,-18.555
1571285981.550,66.895,-69.336,-76.660,43.457,50.293
1571285981.553,37.109,136.230,104.004,37.598,114.746
1571285981.557,-24.902,38.574,-0.488,15.625,11.230
1571285981.561,-4.883,-175.293,-165.527,22.461,-43.457
1571285981.565,56.152,-80.566,-45.898,46.875,56.641
1571285981.569,52.246,152.344,163.574,50.781,136.230
1571285981.573,-3.418,-46.387,-4.883,28.809,50.293
1571285981.577,-9.277,-531.250,-381.836,19.043,-62.988
1571285981.581,50.293,-866.699,-580.078,28.320,-8.789
1571285981.585,75.195,-300.781,-104.492,47.852,124.023
1571285981.589,18.555,260.742,269.043,36.621,91.309
1571285981.593,-7.812,-99.609,-52.246,20.020,-28.320
1571285981.596,35.645,-263.184,-147.949,24.414,-21.484
1571285981.600,76.660,224.121,255.859,43.945,101.562
1571285981.604,46.387,477.539,430.176,46.387,113.281
1571285981.608,4.395,9.766,52.246,27.344,-9.277
1571285981.612,32.227,-386.230,-217.285,33.203,-43.945
1571285981.616,95.703,-150.879,15.137,66.895,74.707
1571285981.620,84.473,10.254,149.902,77.637,102.539
1571285981.624,24.902,-508.789,-272.461,47.363,-18.066
1571285981.628,6.348,-904.785,-562.500,16.113,-70.801
1571285981.632,52.734,-253.418,-29.297,35.645,43.457
1571285981.636,63.477,404.297,445.312,44.434,156.738
1571285981.639,6.348,213.867,254.395,20.508,78.613
1571285981.643,-3.906,-121.582,-7.324,13.672,-17.578
1571285981.647,48.340,-36.133,74.219,25.391,14.160
1571285981.651,91.309,219.727,291.992,58.105,119.629
1571285981.655,36.133,106.445,197.754,42.969,78.613
1571285981.659,-11.719,-141.602,-5.371,9.277,-12.207
1571285981.663,33.691,-340.820,-140.137,21.973,-3.418
1571285981.667,78.125,-333.008,-95.703,45.898,75.195
1571285981.671,42.480,-569.824,-264.160,32.715,66.406
1571285981.675,-13.184,-685.059,-367.188,8.789,-15.137
1571285981.678,1.465,-252.441,-68.359,5.371,-8.301
1571285981.682,69.824,-2.441,117.188,36.621,90.332
1571285981.686,58.594,150.879,242.188,43.457,124.023
1571285981.690,-13.672,69.824,156.250,14.160,14.160
1571285981.694,-16.602,-153.809,-18.555,13.672,-46.875
1571285981.698,49.316,-112.305,57.617,41.992,45.898
1571285981.702,67.383,175.293,300.293,48.340,135.254
1571285981.706,3.906,176.758,244.141,20.020,48.828
1571285981.710,-20.508,-237.305,-115.723,-0.977,-48.828
1571285981.714,38.086,-706.055,-458.496,13.672,-32.715
1571285981.718,75.195,-519.531,-280.273,30.762,82.031
1571285981.721,31.250,-56.152,33.203,18.555,62.012
1571285981.725,8.301,-314.941,-221.191,9.766,-84.961
1571285981.729,39.062,-405.762,-269.043,13.184,-75.195
1571285981.733,78.613,60.547,101.074,31.250,42.969
1571285981.737,55.176,483.398,401.855,35.645,76.172
1571285981.741,3.906,263.184,200.195,19.531,-14.160
1571285981.745,20.996,-140.625,-97.168,23.926,-74.219
1571285981.749,88.379,65.918,115.234,57.617,14.160
1571285981.753,88.867,484.375,456.543,72.266,88.867
1571285981.757,31.250,146.484,204.590,53.223,13.672
1571285981.761,28.809,-769.043,-484.863,47.852,-108.398
1571285981.764,91.309,-679.199,-338.867,78.613,-50.293
1571285981.768,120.117,90.820,296.387,105.957,77.148
1571285981.772,72.266,25.879,217.773,99.609,35.156
1571285981.776,47.363,-468.262,-149.414,85.449,-83.496
1571285981.780,94.238,-617.676,-209.961,93.750,-77.637
1571285981.784,145.508,-187.988,181.641,127.441,77.637
1571285981.788,107.422,-79.590,257.812,125.977,55.176
1571285981.792,55.176,-521.973,-81.055,100.586,-55.176
1571285981.796,87.402,-547.852,-61.523,104.492,-17.578
1571285981.800,151.855,-331.055,133.301,136.719,59.082
1571285981.803,126.465,-482.910,73.730,133.789,77.148
1571285981.807,65.918,-892.578,-312.988,104.980,-24.902
1571285981.811,78.125,-1000.000,-479.980,95.703,-117.188
1571285981.815,132.324,-876.953,-215.332,110.352,-19.043
1571285981.819,129.883,-838.379,-220.703,114.746,79.102
1571285981.823,61.523,-974.609,-417.969,88.867,15.625
1571285981.827,44.434,-983.887,-392.578,74.707,-61.035
1571285981.831,99.121,-907.715,-281.250,88.379,5.371
1571285981.835,119.141,-899.414,-197.754,104.004,102.539
1571285981.839,62.012,-974.609,-332.520,89.844,36.133
1571285981.843,24.414,-968.750,-456.055,60.059,-67.871
1571285981.846,69.824,-971.680,-529.785,68.359,-69.824
1571285981.850,117.676,-957.520,-388.184,98.145,72.754
1571285981.854,66.406,-957.031,-405.273,76.172,66.895
1571285981.858,11.719,-968.750,-495.117,41.992,-28.809
1571285981.862,40.527,-967.773,-557.129,38.574,-39.062
1571285981.866,98.145,-967.285,-654.297,53.711,23.926
1571285981.870,87.402,-797.363,-328.613,64.941,81.055
1571285981.874,34.668,-561.523,-72.754,53.223,45.410
1571285981.878,31.250,-625.488,-160.645,42.480,39.551
1571285981.882,73.242,-668.945,-207.520,43.945,79.590
1571285981.886,74.707,-454.102,-54.688,53.711,112.305
1571285981.889,27.832,-351.562,16.113,49.805,84.961
1571285981.893,26.855,-570.801,-166.016,41.016,35.645
1571285981.897,77.148,-875.977,-413.574,52.246,25.879
1571285981.901,87.891,-883.789,-426.758,57.129,75.195
1571285981.905,33.203,-596.680,-177.246,45.410,100.586
1571285981.909,15.625,-703.125,-358.398,43.945,28.320
1571285981.913,47.852,-951.660,-645.508,41.992,-23.438
1571285981.917,66.406,-555.176,-241.699,42.969,67.383
1571285981.921,46.387,-253.906,-14.648,51.758,94.238
1571285981.925,22.461,-416.992,-162.598,52.734,26.367
1571285981.928,37.598,-377.441,-139.160,48.340,40.039
1571285981.932,69.336,-212.402,-60.059,54.688,71.289
1571285981.936,56.641,-275.879,-126.465,55.664,59.082
1571285981.940,26.367,-325.195,-146.484,52.246,36.621
1571285981.944,33.203,-480.469,-274.414,52.246,1.465
1571285981.948,67.383,-594.727,-375.488,52.246,38.086
1571285981.952,72.266,-479.492,-284.180,58.594,103.027
1571285981.956,40.039,-675.781,-430.664,53.223,53.223
1571285981.960,33.691,-530.273,-337.402,42.480,3.418
1571285981.964,57.129,-83.984,-56.641,41.016,35.156
1571285981.968,65.430,-59.570,-82.031,43.945,79.102
1571285981.971,27.832,14.160,-25.391,41.992,80.078
1571285981.975,0.000,221.680,109.375,33.203,40.527
1571285981.979,26.367,291.504,116.211,28.809,45.410
1571285981.983,63.477,215.332,32.715,40.039,84.961
1571285981.987,62.500,163.086,0.000,60.547,62.988
1571285981.991,34.180,145.020,-1.953,60.547,38.574
1571285981.995,15.625,-14.648,-149.414,25.391,7.324
1571285981.999,49.316,-255.859,-350.098,35.645,39.062
1571285982.003,53.223,-180.664,-286.133,47.363,86.914
1571285982.007,-10.742,319.824,59.082,6.348,60.059
1571285982.011,-22.461,517.578,138.184,-4.883,7.324
1571285982.014,20.996,538.574,102.051,2.930,31.738
1571285982.018,31.738,785.156,283.691,2.441,102.051
1571285982.022,-26.855,-969.727,541.504,-23.438,101.074
1571285982.026,-69.336,962.891,426.270,-58.105,18.066
1571285982.030,-48.340,925.293,251.953,-78.125,-4.883
1571285982.034,-17.578,991.699,441.406,-63.965,82.031
1571285982.038,-48.340,-990.234,507.324,-61.035,85.938
1571285982.042,-68.848,994.141,336.914,-63.965,12.207
1571285982.046,-17.090,833.008,77.148,-39.551,-21.484
1571285982.050,-3.418,904.785,199.707,-56.641,18.555
1571285982.053,-30.273,-975.586,569.336,-64.453,58.594
1571285982.057,-46.387,989.746,517.578,-51.270,24.414
1571285982.061,-16.602,-999.512,333.008,-37.598,-12.695
1571285982.065,27.344,999.512,367.676,-16.602,20.020
1571285982.069,17.090,999.512,597.656,-9.766,83.496
1571285982.073,-24.414,999.512,594.727,-18.066,56.152
1571285982.077,-29.785,-999.512,476.562,-31.738,1.953
1571285982.081,17.090,990.234,512.695,-20.020,33.691
1571285982.085,41.992,-976.074,500.000,8.301,74.219
1571285982.089,20.508,906.250,259.766,28.809,34.668
1571285982.093,8.789,848.145,169.434,24.414,7.324
1571285982.096,24.414,-994.141,428.711,8.301,19.531
1571285982.100,53.711,-997.070,482.910,25.391,44.922
1571285982.104,40.039,993.164,473.633,38.574,63.477
1571285982.108,17.090,995.605,533.691,34.668,48.828
1571285982.112,30.273,-998.047,485.840,20.996,12.207
1571285982.116,69.824,-997.070,384.766,28.320,34.668
1571285982.120,62.500,859.863,284.668,43.945,58.105
1571285982.124,17.578,887.207,355.957,36.621,47.852
1571285982.128,17.090,999.512,455.078,24.414,36.133
1571285982.132,55.176,750.000,241.699,23.926,50.293
1571285982.136,64.453,234.863,-101.074,33.203,72.266
1571285982.139,38.574,269.043,-29.785,37.598,24.414
1571285982.143,33.203,652.344,245.605,32.227,-7.324
1571285982.147,66.406,558.594,151.855,35.156,15.625
1571285982.151,78.125,562.988,179.199,44.922,84.473
1571285982.155,34.668,751.953,347.656,30.273,69.336
1571285982.159,13.184,738.281,344.238,18.555,27.832
1571285982.163,52.246,571.777,228.027,37.598,43.945
1571285982.167,91.309,453.613,152.832,60.547,68.359
1571285982.171,47.363,624.512,309.570,41.504,84.473
1571285982.175,2.930,545.898,253.906,16.602,47.363
1571285982.178,30.273,99.121,-84.961,19.043,3.906
1571285982.182,64.453,-52.246,-171.875,26.855,58.105
1571285982.186,41.992,198.730,37.109,26.855,83.008
1571285982.190,5.371,452.148,228.516,22.461,48.828
1571285982.194,18.066,62.988,-66.406,15.137,31.738
1571285982.198,54.199,-242.676,-292.480,18.066,38.086
1571285982.202,48.340,127.930,-0.977,26.367,90.332
1571285982.206,8.789,312.012,138.672,17.578,75.195
1571285982.210,8.301,184.570,39.062,14.160,20.020
1571285982.214,45.410,184.570,30.762,15.137,34.180
1571285982.218,57.617,371.582,166.504,22.461,80.078
1571285982.221,40.039,388.672,197.754,43.457,69.824
1571285982.225,22.461,147.461,38.086,37.598,36.133
1571285982.229,20.508,37.109,-33.203,8.789,63.477
1571285982.233,45.898,132.812,33.203,11.230,96.680
1571285982.237,33.691,167.480,62.500,30.273,70.801
1571285982.241,-2.930,189.453,90.820,28.320,36.621
1571285982.245,17.090,321.289,175.781,17.578,23.926
1571285982.249,68.848,479.492,275.879,35.156,65.430
1571285982.253,73.242,422.363,251.465,57.617,106.934
1571285982.257,35.156,-70.801,-79.590,47.363,33.203
1571285982.261,29.297,14.160,4.395,35.156,0.977
1571285982.264,76.172,353.027,233.887,47.852,48.340
1571285982.268,89.355,299.316,190.430,54.688,71.777
1571285982.272,48.828,152.344,113.281,54.688,42.969
1571285982.276,32.715,-2.930,11.230,46.875,-6.348
1571285982.280,57.617,24.414,22.461,32.227,-8.301
1571285982.284,77.148,-86.426,-53.711,31.250,38.574
1571285982.288,42.480,-302.246,-172.852,25.391,42.969
1571285982.292,9.766,0.000,67.871,14.648,10.742
1571285982.296,29.785,256.348,222.656,16.602,6.836
1571285982.300,73.242,147.461,125.488,44.922,19.043
1571285982.303,50.293,238.770,229.980,45.410,44.922
1571285982.307,0.000,458.496,404.297,26.855,29.297
1571285982.311,12.695,300.293,268.555,24.902,-15.137
1571285982.315,51.758,137.695,149.902,30.273,11.719
1571285982.319,46.875,74.219,132.812,40.527,46.387
1571285982.323,0.000,125.488,209.473,31.738,40.527
1571285982.327,-1.465,115.723,188.965,21.973,-0.488
1571285982.331,44.922,-121.094,2.930,27.832,-0.977
1571285982.335,42.969,129.883,214.355,23.438,62.012
1571285982.339,-5.859,460.449,465.820,15.625,55.664
1571285982.343,-5.371,300.781,339.844,16.602,43.457
1571285982.346,50.781,-195.801,-30.762,30.762,28.320
1571285982.350,81.543,4.395,138.672,43.457,59.082
1571285982.354,54.688,409.668,440.918,37.109,81.543
1571285982.358,28.320,298.340,351.074,28.320,32.715
1571285982.362,41.504,117.676,203.125,24.414,-3.906
1571285982.366,63.965,29.297,135.254,31.250,32.715
1571285982.370,50.293,-101.074,59.570,40.039,45.898
1571285982.374,5.371,-159.668,32.715,19.043,26.855
1571285982.378,1.953,-107.910,44.922,-1.953,-3.418
1571285982.382,51.758,44.434,121.582,10.254,16.602
1571285982.386,64.453,251.953,274.414,32.715,54.688
1571285982.389,27.832,-194.336,-53.223,26.367,-13.184
1571285982.393,16.602,-520.508,-282.227,5.859,-38.574
1571285982.397,46.387,-48.340,48.340,6.348,11.719
1571285982.401,71.289,45.898,83.984,26.367,49.316
1571285982.405,40.527,-75.684,11.230,30.762,31.250
1571285982.409,17.090,90.820,147.461,23.926,8.301
1571285982.413,47.852,31.738,76.660,31.738,14.648
1571285982.417,79.590,-192.871,-92.773,41.504,39.062
1571285982.421,68.848,-571.777,-349.609,51.270,-1.953
1571285982.425,36.133,-484.375,-256.348,51.758,-25.391
1571285982.428,34.180,74.707,124.023,33.691,0.977
1571285982.432,67.383,41.504,39.062,40.039,25.391
1571285982.436,58.105,-68.848,-33.691,47.363,44.922
1571285982.440,21.973,219.238,196.289,41.016,41.016
1571285982.444,31.250,280.762,205.566,37.598,3.418
1571285982.448,67.383,79.590,36.621,35.156,13.672
1571285982.452,69.336,141.113,108.887,42.969,76.660
1571285982.456,34.668,270.020,216.797,43.945,47.363
1571285982.460,18.555,85.938,73.730,28.809,-6.348
1571285982.464,54.688,-430.176,-307.129,25.879,-1.465
1571285982.468,71.289,-570.312,-380.859,36.133,36.133
1571285982.471,33.203,-40.039,37.598,37.109,47.363
1571285982.475,24.414,146.973,153.320,41.016,13.672
1571285982.479,63.477,-63.965,-30.273,44.434,-7.812
1571285982.483,78.613,-116.699,-70.801,41.504,20.508
1571285982.487,43.457,120.605,120.605,35.645,44.922
1571285982.491,21.973,155.762,151.855,29.785,30.273
1571285982.495,44.434,-51.758,-9.277,25.879,10.742
1571285982.499,74.219,-38.574,-1.465,23.926,40.039
1571285982.503,48.340,186.035,185.059,22.461,83.008
1571285982.507,0.488,2.441,62.012,15.137,43.457
1571285982.511,0.977,-609.375,-380.371,-4.395,-3.418
1571285982.514,35.645,-696.777,-436.523,-4.883,17.578
1571285982.518,38.574,-237.793,-106.445,3.906,44.434
1571285982.522,5.859,-68.848,13.672,4.395,35.156
1571285982.526,5.371,-137.695,-46.875,10.742,8.789
1571285982.530,43.457,-52.246,-1.465,12.695,11.230
1571285982.534,65.430,135.742,138.184,21.484,76.172
1571285982.538,34.180,147.949,161.133,32.227,80.566
1571285982.542,5.371,38.086,80.078,18.555,36.133
1571285982.546,21.484,66.406,79.590,0.977,33.203
1571285982.550,56.152,118.652,98.633,12.207,68.848
1571285982.553,35.156,-60.059,-17.090,26.855,73.730
1571285982.557,-0.977,-250.488,-125.000,27.344,47.852
1571285982.561,17.578,-162.598,-72.754,19.531,8.301
1571285982.565,60.547,16.602,37.109,26.367,28.809
1571285982.569,50.781,-218.262,-119.629,34.668,66.895
1571285982.573,2.930,-449.219,-257.812,22.461,44.434
1571285982.577,11.230,-129.883,-31.738,18.066,10.254
1571285982.581,62.012,-62.012,-14.648,28.320,17.090
1571285982.585,82.031,-22.461,39.062,46.387,86.914
1571285982.589,42.969,128.418,180.664,44.922,75.684
1571285982.593,26.855,204.590,233.887,32.715,34.180
1571285982.596,67.383,67.871,110.352,46.875,24.414
1571285982.600,74.707,-188.965,-76.172,43.945,56.641
1571285982.604,33.691,-265.137,-94.727,33.691,69.336
1571285982.608,15.625,-119.141,20.508,32.227,23.438
1571285982.612,43.457,-186.035,-57.617,29.785,-3.418
1571285982.616,72.266,-548.340,-314.941,35.645,54.199
1571285982.620,51.758,-315.918,-106.445,41.992,88.379
1571285982.624,24.902,90.332,192.383,46.387,79.102
1571285982.628,37.598,-57.129,53.223,45.410,52.734
1571285982.632,79.590,-184.082,-62.012,46.875,45.410
1571285982.636,78.613,104.492,167.969,45.410,100.098
1571285982.639,34.668,255.859,288.086,41.016,94.727
1571285982.643,29.297,82.520,150.391,36.621,49.316
1571285982.647,67.383,-251.465,-99.609,41.016,42.969
1571285982.651,71.777,-307.129,-113.281,44.922,96.191
1571285982.655,22.461,-32.715,107.422,33.691,95.703
1571285982.659,1.465,-176.758,-16.113,24.414,42.969
1571285982.663,35.156,-287.598,-105.957,19.531,59.570
1571285982.667,61.523,40.039,122.559,19.043,105.469
1571285982.671,26.367,213.867,248.047,18.555,99.609
1571285982.675,3.906,-213.379,-61.035,20.020,17.090
1571285982.678,27.832,-354.004,-144.531,20.020,20.020
1571285982.682,62.988,107.422,188.965,26.855,105.469
1571285982.686,56.641,-17.090,87.402,41.016,89.355
1571285982.690,24.414,-85.938,70.801,47.363,70.312
1571285982.694,33.691,-170.410,-1.953,45.898,35.645
1571285982.698,67.871,-260.254,-79.102,40.527,46.875
1571285982.702,63.477,-55.176,82.031,51.758,91.309
1571285982.706,24.902,-386.719,-146.484,58.105,49.316
1571285982.710,2.930,-419.922,-161.621,32.227,9.277
1571285982.714,30.273,-41.992,88.867,22.461,36.133
1571285982.718,56.152,-1.465,106.934,36.133,89.355
1571285982.721,24.414,14.160,139.160,34.668,85.449
1571285982.725,-5.859,173.340,266.113,20.996,58.594
1571285982.729,21.973,201.660,262.207,23.438,62.988
1571285982.733,64.453,88.379,174.316,39.551,98.145
1571285982.737,50.293,60.059,180.664,44.922,96.191
1571285982.741,21.484,-65.918,104.980,44.434,44.922
1571285982.745,31.738,-250.000,-24.414,39.551,29.297
1571285982.749,65.430,-581.055,-277.832,33.691,39.062
1571285982.753,54.688,-748.535,-378.906,34.180,29.785
1571285982.757,14.160,-190.918,56.152,36.621,41.992
1571285982.761,15.625,47.363,187.988,32.715,20.996
1571285982.764,55.176,-83.496,64.941,37.598,32.227
1571285982.768,58.105,35.645,168.945,49.316,86.426
1571285982.772,15.625,288.086,360.352,45.898,89.355
1571285982.776,1.465,217.285,278.320,28.809,54.199
1571285982.780,37.598,2.441,90.332,26.855,48.828
1571285982.784,58.105,89.844,159.180,40.527,81.543
1571285982.788,24.902,38.574,145.996,42.969,71.777
1571285982.792,7.324,-178.711,18.555,40.039,41.992
1571285982.796,31.738,-624.023,-305.664,33.691,7.324
1571285982.800,63.477,-567.383,-244.629,39.062,55.664
1571285982.803,43.945,68.359,229.980,42.969,88.379
1571285982.807,3.906,142.090,263.184,39.062,52.246
1571285982.811,15.137,41.016,176.270,30.273,38.086
1571285982.815,51.270,124.512,217.773,24.902,46.875
1571285982.819,44.434,276.367,340.332,35.156,79.102
1571285982.823,3.418,232.422,331.055,33.691,62.988
1571285982.827,-6.348,178.711,299.316,20.996,57.129
1571285982.831,30.273,282.227,354.980,25.391,78.125
1571285982.835,43.945,161.133,256.836,35.156,73.242
1571285982.839,12.695,-285.645,-42.480,27.832,37.109
1571285982.843,-5.859,-482.910,-145.508,8.789,33.203
1571285982.846,18.555,-22.949,176.758,4.883,62.988
1571285982.850,49.316,308.105,378.906,23.926,104.492
1571285982.854,18.066,269.531,362.305,23.926,111.328
1571285982.858,-14.160,224.121,334.961,10.742,62.988
1571285982.862,15.137,303.223,370.117,10.254,43.457
1571285982.866,53.223,288.574,351.562,22.949,83.984
1571285982.870,32.715,149.414,272.949,26.855,92.773
1571285982.874,3.418,92.285,244.629,24.414,37.109
1571285982.878,20.508,126.465,254.883,24.414,8.789
1571285982.882,54.199,-105.469,64.941,27.832,32.227
1571285982.886,50.293,-573.242,-251.465,32.715,46.387
1571285982.889,8.789,-414.551,-88.379,26.855,37.109
1571285982.893,0.977,88.379,259.766,21.484,23.438
1571285982.897,36.621,102.051,221.191,18.555,44.434
1571285982.901,49.805,73.242,192.871,23.926,77.148
1571285982.905,19.531,309.082,384.277,26.855,71.289
1571285982.909,0.488,337.402,400.391,24.902,59.082
1571285982.913,28.320,17.578,145.020,20.508,37.598
1571285982.917,54.199,82.520,211.426,26.367,82.031
1571285982.921,21.973,358.887,430.176,23.438,87.891
1571285982.925,-2.930,318.848,392.090,18.555,31.738
1571285982.928,30.762,-21.973,129.395,28.320,1.465
1571285982.932,70.312,-285.645,-57.617,35.645,28.320
1571285982.936,51.270,-126.953,80.566,34.180,60.059
1571285982.940,11.230,182.617,303.223,30.762,37.598
1571285982.944,8.789,-188.477,0.000,15.625,-10.742
1571285982.948,39.062,-468.750,-204.590,8.301,8.789
1571285982.952,43.945,60.547,195.801,24.902,66.895
1571285982.956,6.348,228.027,299.316,24.414,35.156
1571285982.960,-5.371,20.996,126.465,15.625,-19.531
1571285982.964,30.762,39.551,136.230,11.719,12.207
1571285982.968,40.527,93.262,185.547,13.184,63.477
1571285982.971,5.371,77.637,199.219,15.625,56.641
1571285982.975,-12.695,-52.734,107.422,8.301,24.414
1571285982.979,19.043,-314.941,-103.516,4.883,-3.418
1571285982.983,48.340,-109.863,42.480,9.766,44.434
1571285982.987,19.043,44.922,145.508,15.625,47.363
1571285982.991,-0.488,-455.078,-220.703,18.066,-17.578
1571285982.995,24.902,-401.855,-165.527,18.555,-3.906
1571285982.999,47.852,29.785,115.234,25.391,36.621
1571285983.003,27.344,-84.961,9.277,29.297,19.043
1571285983.007,-8.301,-121.582,6.348,24.902,10.254
1571285983.011,7.812,120.117,181.152,21.973,32.227
1571285983.014,55.664,160.645,166.992,27.832,33.691
1571285983.018,58.105,-7.812,40.527,37.598,30.273
1571285983.022,23.926,-208.984,-70.312,40.039,14.648
1571285983.026,13.184,-400.391,-215.332,30.273,-33.203
1571285983.030,42.969,-448.242,-271.484,25.391,-23.926
1571285983.034,63.965,-665.039,-441.895,36.621,4.883
1571285983.038,36.621,-698.730,-440.918,39.551,7.324
1571285983.042,22.949,-287.109,-149.414,37.109,-28.320
1571285983.046,53.711,-241.699,-168.945,33.203,-43.457
1571285983.050,79.590,-188.477,-131.836,43.945,30.762
1571285983.053,53.223,41.016,44.922,54.688,45.898
1571285983.057,20.508,214.355,169.434,47.363,21.484
1571285983.061,41.992,70.801,30.273,39.551,-16.602
1571285983.065,65.918,-217.773,-209.961,32.227,-28.320
1571285983.069,48.340,-350.586,-285.156,34.180,-8.301
1571285983.073,9.277,-401.367,-294.922,30.762,-22.461
1571285983.077,10.742,-520.020,-396.973,25.879,-58.594
1571285983.081,48.340,-862.793,-685.547,22.949,-65.918
1571285983.085,51.270,-580.566,-455.566,25.391,-4.395
1571285983.089,18.555,106.934,67.871,34.668,42.480
1571285983.093,-5.859,69.824,-4.883,20.508,0.000
1571285983.096,20.020,-137.695,-184.082,9.766,-13.672
1571285983.100,48.340,116.699,20.508,22.949,62.988
1571285983.104,20.020,283.691,151.855,29.297,61.035
1571285983.108,0.000,40.527,-38.574,25.879,-19.531
1571285983.112,27.832,-194.824,-226.074,17.578,-50.293
1571285983.116,65.430,-328.125,-327.637,26.855,2.930
1571285983.120,42.969,-313.477,-297.363,35.156,11.230
1571285983.124,-0.488,-481.934,-416.504,24.902,-34.180
1571285983.128,13.184,-835.938,-685.547,17.578,-69.336
1571285983.132,52.734,-306.152,-292.969,21.484,6.348
1571285983.136,48.828,-23.926,-108.887,23.926,32.227
1571285983.139,15.625,-211.914,-229.980,22.949,-10.254
1571285983.143,14.648,-43.457,-85.938,18.066,11.719
1571285983.147,48.828,132.324,7.812,20.020,28.809
1571285983.151,58.594,122.559,-6.348,31.738,54.199
1571285983.155,22.461,-24.902,-92.285,34.180,18.555
1571285983.159,10.742,-70.801,-111.816,28.320,-24.414
1571285983.163,43.457,-222.168,-226.562,29.297,-11.719
1571285983.167,56.641,-409.180,-354.004,35.156,30.762
1571285983.171,24.414,-631.836,-484.863,27.832,33.203
1571285983.175,-2.441,-550.293,-407.227,13.184,-0.488
1571285983.178,18.555,-133.789,-130.371,12.207,5.371
1571285983.182,49.316,-123.535,-157.227,17.578,43.945
1571285983.186,35.156,-130.371,-145.020,26.855,57.129
1571285983.190,0.977,-41.016,-64.941,24.414,9.277
1571285983.194,1.953,-269.531,-249.023,10.742,-41.504
1571285983.198,44.434,-510.742,-429.688,16.602,-30.273
1571285983.202,49.316,-367.188,-289.551,25.391,26.855
1571285983.206,15.625,-190.430,-144.531,28.809,11.230
1571285983.210,14.160,-352.539,-246.094,35.156,-20.996
1571285983.214,51.758,-724.121,-548.828,35.645,-11.230
1571285983.218,75.195,-871.582,-692.383,39.062,-6.348
1571285983.221,40.527,-451.660,-295.898,46.875,9.277
1571285983.225,31.738,-210.449,-117.188,53.711,-12.207
1571285983.229,72.754,-342.773,-232.422,54.199,-6.836
1571285983.233,105.469,-297.852,-179.199,60.547,35.156
1571285983.237,80.078,-115.234,-19.531,66.406,20.508
1571285983.241,45.410,-194.824,-56.641,62.500,-18.555
1571285983.245,65.918,-306.152,-124.023,59.570,1.465
1571285983.249,102.051,-373.047,-180.664,65.430,34.180
1571285983.253,79.590,-398.926,-179.199,71.289,42.480
1571285983.257,39.062,-493.164,-217.285,67.383,18.555
1571285983.261,49.805,-877.930,-546.387,61.035,-24.902
1571285983.264,89.355,-744.629,-444.336,68.848,11.719
1571285983.268,93.750,-211.426,-18.066,81.543,75.684
1571285983.272,52.246,-263.672,-75.195,70.312,27.832
1571285983.276,41.992,-672.852,-372.070,51.758,-29.297
1571285983.280,74.219,-528.320,-257.324,45.410,4.883
1571285983.284,91.797,-208.496,-36.621,51.270,61.035
1571285983.288,56.641,-273.438,-83.008,55.664,44.434
1571285983.292,36.621,-432.617,-186.523,59.082,0.488
1571285983.296,60.059,-437.500,-207.031,51.270,-6.836
1571285983.300,80.566,-329.590,-129.883,58.105,40.527
1571285983.303,54.688,-562.500,-304.199,58.105,51.758
1571285983.307,20.020,-990.234,-618.652,45.410,-8.301
1571285983.311,37.598,-830.078,-454.590,44.922,-16.113
1571285983.315,84.473,-395.996,-156.250,52.734,53.223
1571285983.319,78.125,-322.266,-128.906,55.664,54.199
1571285983.323,34.180,-321.777,-117.188,49.316,29.785
1571285983.327,37.109,-169.922,-15.625,47.852,21.484
1571285983.331,84.473,-193.359,-60.547,60.547,20.508
1571285983.335,96.191,-184.570,-36.133,69.824,70.801
1571285983.339,43.457,-104.980,44.434,53.711,53.711
1571285983.343,29.297,-118.164,17.578,43.945,-8.301
1571285983.346,76.660,-199.219,-59.570,50.781,3.906
1571285983.350,94.727,-323.242,-142.090,58.105,71.289
1571285983.354,49.805,-422.363,-201.660,49.316,44.434
1571285983.358,23.926,-183.105,-27.344,41.992,17.090
1571285983.362,57.129,-177.734,-75.684,35.645,-4.883
1571285983.366,83.984,-664.551,-444.824,37.598,7.812
1571285983.370,51.270,-377.441,-189.453,45.898,56.641
1571285983.374,13.184,142.578,173.828,45.898,33.691
1571285983.378,26.855,61.035,69.824,36.133,11.230
1571285983.382,68.359,16.602,17.090,40.039,44.922
1571285983.386,62.500,357.910,281.738,54.199,101.074
1571285983.389,32.227,515.137,394.043,62.012,73.242
1571285983.393,39.551,266.602,186.035,51.270,8.789
1571285983.397,82.520,178.223,145.508,43.945,75.195
1571285983.401,91.309,461.914,389.160,57.617,187.500
1571285983.405,24.902,648.926,497.559,51.270,142.090
1571285983.409,-5.859,73.730,17.090,31.250,-6.348
1571285983.413,50.293,-313.965,-237.305,37.109,3.418
1571285983.417,89.355,598.633,492.188,62.988,188.965
1571285983.421,43.457,803.711,590.332,59.570,166.992
1571285983.425,2.930,285.156,163.574,31.250,37.598
1571285983.428,31.250,250.000,131.836,20.020,19.531
1571285983.432,104.980,693.359,474.609,67.383,133.789
1571285983.436,62.012,864.746,583.496,53.223,154.297
1571285983.440,-42.969,414.551,197.754,-11.230,22.949
1571285983.444,-42.480,42.969,-85.938,-32.227,-15.625
1571285983.448,22.949,248.047,91.797,-15.625,90.820
1571285983.452,25.391,666.016,391.602,4.395,147.949
1571285983.456,-38.574,126.465,-74.707,-15.137,14.160
1571285983.460,-62.500,-39.062,-226.562,-40.039,-34.668
1571285983.464,-3.418,554.688,176.758,-13.672,39.551
1571285983.468,-1.953,732.422,263.672,-15.137,106.445
1571285983.471,-94.238,785.156,247.070,-81.055,83.496
1571285983.475,-126.465,701.660,119.141,-115.723,5.859
1571285983.479,-72.266,623.047,9.277,-88.867,0.000
1571285983.483,-15.137,927.734,278.320,-41.504,102.051
1571285983.487,-37.109,-964.844,391.113,-29.785,93.750
1571285983.491,-71.289,819.824,100.098,-43.457,-21.484
1571285983.495,-42.969,689.941,-39.551,-41.016,-21.973
1571285983.499,10.254,691.406,-8.301,-17.578,59.082
1571285983.503,-10.742,717.773,3.906,-14.160,69.336
1571285983.507,-58.594,967.773,198.730,-30.273,14.160
1571285983.511,-36.133,-994.141,169.922,-32.227,-41.992
1571285983.514,32.227,958.984,158.691,2.441,17.578
1571285983.518,39.551,980.469,409.668,19.531,117.188
1571285983.522,-24.414,-969.727,406.738,3.418,56.152
1571285983.526,-34.668,907.715,133.301,-2.441,-31.738
1571285983.530,35.156,687.500,-3.418,18.555,-11.719
1571285983.534,72.754,805.176,160.156,41.504,75.195
1571285983.538,22.949,681.641,82.520,25.391,26.367
1571285983.542,-11.719,257.812,-219.727,20.020,-62.988
1571285983.546,22.949,-166.992,-477.051,34.180,-51.758
1571285983.550,67.383,273.926,-71.289,40.039,80.566
1571285983.553,32.227,974.609,455.078,33.203,108.887
1571285983.557,-19.531,734.863,261.230,12.695,9.766
1571285983.561,7.812,508.789,136.719,10.254,12.207
1571285983.565,53.711,733.887,352.539,26.367,93.262
1571285983.569,33.691,847.168,468.262,34.668,111.816
1571285983.573,0.488,569.824,293.945,31.738,41.992
1571285983.577,11.719,222.168,64.453,30.762,-27.344
1571285983.581,54.199,240.723,112.305,34.668,14.160
1571285983.585,57.617,204.102,121.582,34.180,53.711
1571285983.589,13.672,-276.367,-193.848,28.320,-1.465
1571285983.593,-3.418,-710.449,-471.680,20.020,-68.359
1571285983.596,32.227,-294.434,-131.348,16.113,-13.184
1571285983.600,64.941,178.711,222.168,27.832,73.730
1571285983.604,18.555,99.609,173.340,20.508,44.434
1571285983.608,-21.973,-231.934,-74.707,0.977,-64.941
1571285983.612,20.996,-245.605,-64.453,14.648,-62.012
1571285983.616,75.195,33.203,189.941,44.922,58.105
1571285983.620,39.551,-32.227,147.461,36.621,43.457
1571285983.624,-19.043,-309.570,-69.336,2.930,-50.781
1571285983.628,2.930,-437.500,-167.480,-7.324,-83.496
1571285983.632,66.406,-508.301,-184.570,25.391,0.488
1571285983.636,41.992,-454.590,-108.887,32.227,66.406
1571285983.639,-20.996,-416.504,-111.328,7.324,-24.414
1571285983.643,-10.742,-492.188,-192.383,3.418,-83.496
1571285983.647,49.316,-609.375,-258.789,21.973,-27.344
1571285983.651,59.082,-713.379,-297.852,34.668,39.551
1571285983.655,-1.465,-546.875,-186.035,11.719,-3.906
1571285983.659,-9.277,-481.934,-182.129,11.719,-71.289
1571285983.663,32.715,-606.445,-294.922,28.320,-58.105
1571285983.667,47.363,-580.078,-275.879,28.809,-16.602
1571285983.671,19.531,-345.703,-92.285,24.902,-10.742
1571285983.675,-11.230,-263.672,-41.992,13.672,-46.387
1571285983.678,19.531,-636.230,-357.422,22.949,-56.641
1571285983.682,65.430,-937.012,-577.148,43.457,-13.672
1571285983.686,35.156,-566.895,-262.207,42.969,6.348
1571285983.690,0.977,-145.020,36.133,41.504,2.930
1571285983.694,27.344,-306.152,-119.629,44.434,-20.996
1571285983.698,67.383,-401.855,-207.031,45.410,-11.230
1571285983.702,57.617,-220.215,-66.895,50.293,11.230
1571285983.706,20.020,-292.480,-103.027,48.828,-20.508
1571285983.710,23.438,-294.922,-92.773,41.016,-33.691
1571285983.714,44.922,-154.297,-8.789,29.785,-7.812
1571285983.718,48.340,154.297,214.355,32.715,61.523
1571285983.721,20.996,256.348,294.434,34.180,51.270
1571285983.725,3.906,-41.504,71.289,39.062,-11.719
1571285983.729,20.508,-272.949,-103.027,37.598,-19.043
1571285983.733,40.039,-2.930,101.562,31.738,39.551
1571285983.737,21.973,182.617,234.863,33.691,43.945
1571285983.741,3.906,-353.516,-156.250,26.855,-24.902
1571285983.745,22.461,-406.738,-177.734,21.484,-36.133
1571285983.749,53.711,67.871,159.668,32.715,27.344
1571285983.753,37.598,84.473,164.062,41.504,35.156
1571285983.757,-1.465,-48.340,72.266,31.250,-19.043
1571285983.761,3.418,-89.844,41.016,20.996,-26.855
1571285983.764,39.062,8.301,99.609,23.438,22.949
1571285983.768,52.246,122.559,179.688,41.016,54.688
1571285983.772,20.508,-80.566,42.480,39.551,8.301
1571285983.776,7.812,-349.609,-160.645,24.414,-51.270
1571285983.780,51.758,-251.953,-100.586,34.180,-22.949
1571285983.784,60.547,-365.723,-196.289,40.527,11.230
1571285983.788,15.137,-598.633,-343.750,29.785,-5.859
1571285983.792,-0.488,-112.793,28.320,21.484,11.230
1571285983.796,24.414,29.297,75.684,15.625,-7.812
1571285983.800,52.734,-126.953,-48.340,26.367,20.020
1571285983.803,25.391,-32.227,44.434,25.879,33.691
1571285983.807,-4.883,89.844,127.930,20.508,-6.836
1571285983.811,24.902,-27.832,17.578,24.414,-21.973
1571285983.815,59.082,-245.605,-147.949,22.949,19.043
1571285983.819,44.922,-310.547,-167.969,30.273,50.781
1571285983.823,21.484,-346.191,-176.270,32.227,12.695
1571285983.827,25.391,-440.430,-260.254,22.461,-5.859
1571285983.831,55.176,-814.453,-561.035,15.137,-12.695
1571285983.835,62.500,-658.203,-420.410,23.926,11.719
1571285983.839,25.879,-51.758,27.344,32.227,23.926
1571285983.843,15.625,-104.980,-50.781,25.879,-9.277
1571285983.846,51.758,-184.082,-119.629,21.484,20.508
1571285983.850,71.777,130.371,118.652,34.668,87.402
1571285983.854,39.551,286.133,234.375,47.363,71.777
1571285983.858,17.578,35.156,40.039,40.039,-7.812
1571285983.862,44.434,-123.535,-77.637,26.855,-12.207
1571285983.866,73.242,-54.688,-14.648,36.621,58.594
1571285983.870,54.199,-90.820,-26.855,48.340,51.758
1571285983.874,27.832,-443.359,-281.738,41.992,-11.719
1571285983.878,33.203,-715.820,-486.328,21.973,-49.316
1571285983.882,60.059,-235.840,-142.578,21.484,-2.930
1571285983.886,52.734,270.996,223.633,38.086,66.406
1571285983.889,23.438,199.707,167.969,48.340,17.090
1571285983.893,27.832,95.703,84.473,42.480,-32.715
1571285983.897,53.223,307.617,230.957,34.180,20.996
1571285983.901,53.223,416.504,310.547,43.457,64.941
1571285983.905,17.090,321.777,255.371,35.645,32.227
1571285983.909,8.789,318.848,263.672,14.648,6.348
1571285983.913,47.363,134.766,113.770,24.414,-6.348
1571285983.917,64.453,-145.020,-81.055,38.574,9.277
1571285983.921,23.926,-109.863,-19.531,27.344,10.742
1571285983.925,8.301,174.805,191.895,24.902,-1.465
1571285983.928,27.344,186.035,167.480,19.043,-15.625
1571285983.932,46.387,0.977,24.902,6.836,16.113
1571285983.936,26.855,-215.820,-98.633,7.812,15.137
1571285983.940,1.465,-39.062,63.965,11.719,-9.766
1571285983.944,21.973,305.664,291.016,2.930,7.324
1571285983.948,59.082,183.105,162.109,6.348,13.672
1571285983.952,45.898,173.828,178.711,21.973,42.480
1571285983.956,3.906,293.457,286.133,19.043,19.531
1571285983.960,4.395,9.277,62.988,9.277,-37.109
1571285983.964,38.574,-467.773,-277.832,4.395,-10.254
1571285983.968,41.992,-645.020,-370.605,6.348,21.484
1571285983.971,0.977,-196.777,-8.789,-0.488,19.043
1571285983.975,-11.230,45.898,148.438,-9.766,-3.906
1571285983.979,14.160,-49.316,67.871,-4.883,27.344
1571285983.983,31.738,-151.855,-9.277,0.977,53.223
1571285983.987,-5.859,-264.648,-83.496,-15.137,4.395
1571285983.991,-34.668,-275.391,-65.430,-23.438,-12.695
1571285983.995,-22.461,-407.715,-165.527,-37.109,-7.812
1571285983.999,-10.742,-362.793,-130.371,-55.176,48.340
1571285984.003,-45.410,-204.102,-17.578,-66.406,53.223
1571285984.007,-94.238,-529.785,-247.070,-72.754,-15.137
1571285984.011,-91.797,-955.566,-668.457,-81.055,-41.016
1571285984.014,-57.129,-828.125,-581.055,-88.867,-0.488
1571285984.018,-64.453,-303.223,-88.867,-92.285,79.102
1571285984.022,-99.609,-275.391,-102.539,-90.332,36.621
1571285984.026,-106.445,-491.211,-277.832,-95.215,-19.043
1571285984.030,-83.496,-351.562,-195.801,-108.398,4.883
1571285984.034,-62.988,-127.441,-39.551,-95.215,57.129
1571285984.038,-88.867,-49.316,36.133,-86.914,74.707
1571285984.042,-104.492,-186.523,-64.941,-93.262,33.691
1571285984.046,-68.359,-174.316,-77.148,-91.309,11.230
1571285984.050,-25.391,90.332,103.516,-61.523,59.082
1571285984.053,-36.621,-181.152,-92.285,-39.551,39.062
1571285984.057,-53.711,-398.926,-216.309,-41.016,24.902
1571285984.061,-15.625,-41.504,37.109,-30.762,22.461
1571285984.065,31.738,156.738,144.531,-1.465,38.086
1571285984.069,21.484,101.562,120.117,18.066,72.754
1571285984.073,-11.230,80.078,128.418,19.531,47.852
1571285984.077,6.348,228.027,219.727,20.020,27.344
1571285984.081,59.082,208.984,170.410,30.273,46.387
1571285984.085,72.266,72.266,71.777,48.340,47.852
1571285984.089,35.156,115.234,128.418,49.316,29.297
1571285984.093,35.645,146.484,139.160,50.781,-14.160
1571285984.096,87.402,-12.695,3.906,64.941,-12.207
1571285984.100,106.934,-167.480,-88.379,76.660,48.828
1571285984.104,69.336,-279.297,-136.719,82.031,24.414
1571285984.108,59.082,-371.582,-189.941,82.031,-19.043
1571285984.112,90.332,-576.660,-361.816,70.801,-32.715
1571285984.116,122.559,-754.395,-488.281,86.426,1.953
1571285984.120,96.680,-374.512,-173.340,101.562,47.363
1571285984.124,66.406,52.246,121.582,99.121,25.879
1571285984.128,98.145,-155.762,-67.871,98.633,-7.324
1571285984.132,135.254,-401.367,-241.699,106.445,17.578
1571285984.136,124.512,-163.086,-39.062,113.770,35.645
1571285984.139,93.262,-42.969,62.988,112.305,5.371
1571285984.143,103.516,-241.699,-85.938,106.934,-15.137
1571285984.147,145.996,-639.160,-395.996,113.770,-24.414
1571285984.151,151.367,-690.430,-417.969,124.023,24.902
1571285984.155,115.234,-632.324,-333.496,117.188,18.555
1571285984.159,99.121,-831.055,-525.879,109.863,-4.883
1571285984.163,125.000,-917.480,-649.414,106.445,-11.719
1571285984.167,140.625,-573.730,-319.336,115.234,12.207
1571285984.171,104.004,-230.469,-39.551,109.375,49.316
1571285984.175,76.172,-339.844,-141.113,98.633,10.742
1571285984.178,100.586,-511.719,-295.898,93.750,-37.109
1571285984.182,137.695,-372.070,-204.590,101.074,14.160
1571285984.186,111.328,-348.145,-180.176,110.352,24.902
1571285984.190,62.988,-482.422,-262.695,96.680,-4.883
1571285984.194,66.406,-665.527,-405.273,81.055,-12.695
1571285984.198,107.422,-781.250,-499.023,86.914,9.766
1571285984.202,93.750,-686.523,-410.645,86.914,32.715
1571285984.206,47.363,-721.680,-419.922,81.055,-2.930
1571285984.210,55.664,-668.457,-376.953,78.125,-20.020
1571285984.214,90.820,-585.938,-330.566,78.125,-15.625
1571285984.218,93.750,-518.555,-264.160,85.938,28.809
1571285984.221,56.152,-631.836,-319.336,79.590,4.883
1571285984.225,41.016,-416.016,-143.066,62.988,-19.531
1571285984.229,70.801,-205.566,-19.043,64.941,-12.695
1571285984.233,88.379,-262.207,-72.754,78.125,12.207
1571285984.237,60.059,-214.844,-10.742,78.125,18.555
1571285984.241,39.551,-274.414,-48.340,73.242,-8.301
1571285984.245,59.082,-461.914,-198.242,64.453,-26.855
1571285984.249,95.703,-657.227,-339.355,65.430,7.812
1571285984.253,83.008,-668.457,-314.941,66.406,31.738
1571285984.257,50.781,-200.684,42.969,66.406,8.789
1571285984.261,67.871,-24.902,134.277,68.848,-17.578
1571285984.264,102.539,-132.324,35.645,71.777,5.859
1571285984.268,88.379,-249.023,-40.039,72.266,18.066
1571285984.272,43.945,-131.836,60.547,61.523,-5.859
1571285984.276,37.109,-27.344,125.000,42.969,-28.320
1571285984.280,66.406,-144.043,29.297,45.898,-12.207
1571285984.284,80.078,17.578,172.363,58.594,43.945
1571285984.288,44.434,11.719,176.270,52.246,12.695
1571285984.292,27.832,-329.102,-75.684,45.410,-34.180
1571285984.296,62.988,-479.980,-179.199,50.781,4.395
1571285984.300,83.984,-198.242,25.391,58.594,57.129
1571285984.303,51.270,109.375,238.281,53.223,43.457
1571285984.307,22.949,-66.406,96.680,42.969,2.441
1571285984.311,42.969,-472.168,-201.172,41.504,-17.090
1571285984.315,78.613,-305.176,-72.754,53.711,10.742
1571285984.319,64.941,89.355,215.820,57.129,59.082
1571285984.323,30.273,69.336,191.406,49.316,55.176
1571285984.327,39.551,-305.664,-106.445,42.480,-9.277
1571285984.331,85.449,-251.953,-62.988,52.734,22.461
1571285984.335,75.684,-122.070,39.062,62.012,71.777
1571285984.339,16.602,-524.902,-250.000,35.156,27.344
1571285984.343,5.859,-778.320,-419.922,15.625,5.371
1571285984.346,40.039,-369.141,-139.648,23.438,30.762
1571285984.350,65.430,5.371,99.609,43.945,60.059
1571285984.354,32.227,-16.113,87.402,41.504,50.781
1571285984.358,4.395,-80.078,42.969,20.020,11.230
1571285984.362,32.715,-2.930,79.590,16.602,8.301
1571285984.366,66.895,17.090,81.543,40.527,36.621
1571285984.370,38.574,-142.578,-26.855,46.387,4.395
1571285984.374,4.883,-128.418,8.789,34.668,3.418
1571285984.378,31.738,22.461,116.211,36.133,39.551
1571285984.382,71.289,-99.609,12.695,52.734,63.965
1571285984.386,58.105,-524.414,-272.949,57.129,78.125
1571285984.389,13.672,-476.562,-216.309,39.062,43.457
1571285984.393,21.973,-105.957,16.602,38.086,-18.066
1571285984.397,61.523,-170.898,-71.777,43.945,-13.184
1571285984.401,62.012,-148.438,-45.410,46.875,32.715
1571285984.405,24.902,92.285,146.484,48.340,20.508
1571285984.409,11.230,164.551,184.570,35.156,-14.160
1571285984.413,52.246,7.812,44.434,31.738,-13.672
1571285984.417,80.078,45.898,83.984,44.434,51.270
1571285984.421,36.133,198.730,199.219,39.062,25.391
1571285984.425,6.348,238.281,213.379,24.414,-13.184
1571285984.428,39.062,-191.406,-120.117,25.879,-8.789
1571285984.432,74.219,-390.625,-246.582,35.645,39.551
1571285984.436,51.270,62.012,103.516,39.551,80.078
1571285984.440,21.973,177.246,166.992,37.598,45.410
1571285984.444,42.969,-65.918,-33.691,29.297,-9.277
1571285984.448,80.566,-87.891,-46.387,38.086,27.832
1571285984.452,70.312,351.562,284.180,51.270,96.680
1571285984.456,28.809,380.371,282.715,45.898,41.016
1571285984.460,23.926,-3.906,-13.184,38.574,-24.902
1571285984.464,53.711,-52.246,-43.457,35.156,14.648
1571285984.468,56.641,200.684,138.672,35.156,60.059
1571285984.471,16.602,183.105,115.234,33.691,22.461
1571285984.475,10.254,-204.102,-181.641,32.715,-36.133
1571285984.479,48.340,-345.215,-275.879,35.645,19.043
1571285984.483,58.105,62.988,24.414,37.109,108.887
1571285984.487,24.902,192.871,84.961,35.645,69.336
1571285984.491,6.348,-401.367,-371.094,25.879,-11.230
1571285984.495,31.250,-596.191,-507.812,16.602,-13.672
1571285984.499,60.059,-146.973,-193.848,23.438,48.340
1571285984.503,33.691,75.195,-50.293,25.391,83.496
1571285984.507,-5.371,6.836,-118.164,19.043,31.250
1571285984.511,4.883,128.418,-45.410,14.648,35.645
1571285984.514,53.223,318.359,73.242,32.227,105.469
1571285984.518,54.688,232.910,-6.348,44.922,77.637
1571285984.522,20.020,-71.289,-218.750,39.551,13.672
1571285984.526,8.789,-254.883,-346.680,26.367,-3.906
1571285984.530,14.648,-149.414,-280.762,-2.441,48.828
1571285984.534,22.461,-236.816,-360.840,-1.953,75.684
1571285984.538,-19.531,-445.312,-502.930,-15.625,15.625
1571285984.542,-54.688,-66.406,-218.750,-47.363,-14.160
1571285984.546,-38.086,286.621,14.160,-61.523,30.273
1571285984.550,-24.414,200.684,-57.617,-59.570,70.801
1571285984.553,-66.406,134.277,-85.449,-73.242,52.734
1571285984.557,-105.469,326.660,60.059,-96.680,11.230
1571285984.561,-85.938,300.781,21.484,-106.934,-2.441
1571285984.565,-60.059,208.008,-37.109,-115.723,40.039
1571285984.569,-84.473,169.434,-35.156,-123.047,51.270
1571285984.573,-122.559,102.539,-58.594,-127.930,19.531
1571285984.577,-121.582,51.270,-94.238,-132.812,7.324
1571285984.581,-91.797,-195.312,-271.484,-131.348,42.969
1571285984.585,-94.238,39.062,-70.312,-129.395,83.008
1571285984.589,-125.488,528.809,277.344,-122.070,34.180
1571285984.593,-128.906,341.309,104.980,-123.535,-42.969
1571285984.596,-87.402,348.633,120.117,-124.023,30.273
1571285984.600,-52.734,771.484,442.383,-94.238,106.445
1571285984.604,-70.312,944.336,567.383,-75.684,83.496
1571285984.608,-65.430,667.969,360.352,-61.523,16.113
1571285984.612,-19.043,510.254,243.164,-49.316,-2.441
1571285984.616,15.625,604.004,325.195,-28.320,67.871
1571285984.620,-4.395,577.148,322.754,-8.301,78.613
1571285984.624,-43.945,461.426,242.188,-22.949,30.273
1571285984.628,-23.926,446.289,212.891,-32.227,4.883
1571285984.632,33.691,635.742,330.078,-1.953,38.086
1571285984.636,30.762,945.801,565.430,15.137,103.027
1571285984.639,1.953,556.152,274.902,12.207,54.688
1571285984.643,16.113,3.906,-129.883,5.859,-21.973
1571285984.647,68.359,495.117,252.930,22.949,60.059
1571285984.651,86.426,874.023,520.508,54.199,131.348
1571285984.655,48.828,664.551,346.191,49.805,62.500
1571285984.659,39.551,469.727,188.965,34.668,-0.488
1571285984.663,83.008,297.363,49.316,45.410,7.812
1571285984.667,106.445,200.684,-1.465,65.918,58.594
1571285984.671,63.477,-15.137,-129.883,59.570,62.012
1571285984.675,28.320,-17.578,-129.883,41.016,23.438
1571285984.678,64.941,380.371,132.324,47.363,28.320
1571285984.682,111.328,545.410,246.094,73.242,115.234
1571285984.686,76.172,629.395,316.406,70.801,135.254
1571285984.690,23.438,588.867,270.508,51.270,43.457
1571285984.694,38.574,442.383,153.809,46.875,6.836
1571285984.698,89.844,384.277,139.160,61.035,70.312
1571285984.702,83.008,527.832,287.109,64.453,124.512
1571285984.706,39.551,561.035,305.664,55.176,60.059
1571285984.710,38.574,204.590,25.879,44.922,-20.020
1571285984.714,81.543,-175.293,-220.703,56.152,27.344
1571285984.718,100.098,-131.836,-129.395,72.266,113.281
1571285984.721,53.223,175.781,104.004,56.152,73.242
1571285984.725,37.109,228.027,104.980,33.691,-7.324
1571285984.729,67.871,148.926,42.969,38.086,-0.977
1571285984.733,81.055,261.719,157.227,63.965,74.219
1571285984.737,48.340,610.840,433.594,63.477,102.051
1571285984.741,20.508,669.922,471.680,55.176,68.359
1571285984.745,53.711,393.066,259.766,56.641,31.738
1571285984.749,84.473,399.414,276.367,54.688,68.359
1571285984.753,61.523,574.707,417.480,55.176,74.707
1571285984.757,35.645,304.688,221.680,53.711,11.719
1571285984.761,50.293,-280.762,-191.406,44.922,-4.395
1571285984.764,79.590,-210.938,-115.234,42.969,31.738
1571285984.768,72.266,393.066,332.520,55.176,54.199
1571285984.772,34.180,480.469,387.695,54.688,22.949
1571285984.776,20.996,230.957,201.172,34.180,-15.137
1571285984.780,51.758,257.324,224.609,32.227,10.254
1571285984.784,66.895,531.738,431.641,54.199,49.805
1571285984.788,27.344,556.152,460.449,50.293,36.621
1571285984.792,18.066,392.578,346.680,43.457,-13.184
1571285984.796,62.500,427.246,374.023,53.223,-2.441
1571285984.800,82.031,657.715,560.059,56.641,82.520
1571285984.803,40.527,269.043,273.926,41.016,36.133
1571285984.807,17.090,-208.984,-56.641,29.785,-35.645
1571285984.811,48.340,96.191,182.129,39.062,-5.371
1571285984.815,78.613,380.859,366.211,46.875,56.152
1571285984.819,56.641,202.148,225.586,45.898,45.410
1571285984.823,20.996,110.352,176.270,35.645,23.438
1571285984.827,32.715,319.336,318.359,36.621,25.391
1571285984.831,69.824,304.688,268.555,44.434,23.438
1571285984.835,64.941,145.996,165.527,48.340,50.293
1571285984.839,30.273,148.438,202.148,51.270,36.621
1571285984.843,29.785,218.750,242.676,41.992,-11.230
1571285984.846,71.289,134.277,165.039,40.527,-0.488
1571285984.850,81.543,-37.598,61.523,48.340,56.641
1571285984.854,36.133,-114.746,34.668,43.457,47.852
1571285984.858,16.602,44.922,142.578,36.133,14.160
1571285984.862,48.828,63.477,116.699,35.156,17.578
1571285984.866,82.031,-340.820,-180.664,45.898,50.293
1571285984.870,51.270,-248.535,-70.801,40.527,59.570
1571285984.874,26.855,109.375,182.617,41.992,4.883
1571285984.878,46.875,-2.930,76.172,42.969,-1.953
1571285984.882,69.824,-25.879,53.711,35.156,54.199
1571285984.886,47.852,171.875,199.219,33.691,49.316
1571285984.889,14.648,123.535,168.457,35.645,12.207
1571285984.893,31.250,-156.250,-31.250,35.645,-3.906
1571285984.897,62.988,-267.090,-107.422,28.809,22.949
1571285984.901,43.945,-243.164,-78.613,20.996,52.246
1571285984.905,4.883,-37.109,83.496,23.438,36.133
1571285984.909,6.348,-282.715,-122.559,23.926,-26.855
1571285984.913,44.434,-569.824,-331.055,30.762,-2.930
1571285984.917,67.871,8.301,106.445,54.199,65.918
1571285984.921,35.156,331.543,329.102,48.828,44.922
1571285984.925,12.695,184.570,227.539,35.645,17.090
1571285984.928,34.180,147.461,194.336,34.668,18.555
1571285984.932,49.316,293.457,285.645,36.133,46.387
1571285984.936,24.902,237.305,245.605,34.180,22.949
1571285984.940,4.395,72.754,142.090,31.250,-6.836
1571285984.944,26.367,-94.238,27.832,28.320,3.418
1571285984.948,69.824,-191.406,-41.992,36.133,33.691
1571285984.952,56.641,-126.953,26.855,41.504,50.293
1571285984.956,17.578,-406.738,-157.227,36.133,8.301
1571285984.960,20.996,-418.945,-159.180,28.809,-31.738
1571285984.964,54.688,90.820,192.383,25.879,17.578
1571285984.968,59.082,237.305,284.180,37.598,82.031
1571285984.971,19.043,250.000,309.082,32.227,83.008
1571285984.975,8.789,368.652,392.090,17.578,48.828
1571285984.979,46.387,370.605,367.676,21.973,44.922
1571285984.983,61.035,206.055,244.141,31.250,56.641
1571285984.987,22.949,134.766,219.727,29.297,37.109
1571285984.991,9.277,-39.062,109.375,31.738,7.324
1571285984.995,39.062,-123.047,52.734,34.180,20.508
1571285984.999,63.965,-226.074,-39.062,27.832,48.340
1571285985.003,38.086,-627.441,-322.754,25.391,24.902
1571285985.007,-0.977,-334.473,-86.426,24.902,4.883
1571285985.011,15.625,55.176,161.133,22.461,10.742
1571285985.014,52.246,-53.711,57.129,27.344,47.363
1571285985.018,41.016,-77.148,49.316,28.809,46.875
1571285985.022,3.418,78.613,161.133,23.926,-9.277
1571285985.026,-2.441,62.500,136.719,17.578,-13.672
1571285985.030,35.645,-52.246,32.227,22.461,16.113
1571285985.034,47.363,39.062,100.586,30.762,52.734
1571285985.038,8.789,64.453,138.184,34.668,74.707
1571285985.042,2.441,-160.645,-31.250,36.621,36.133
1571285985.046,47.363,-642.578,-399.902,29.297,0.977
1571285985.050,61.523,-568.359,-329.102,24.902,58.105
1571285985.053,32.227,13.672,93.750,33.203,66.895
1571285985.057,10.742,-93.750,-30.762,28.809,8.789
1571285985.061,24.414,-405.762,-276.367,23.926,7.812
1571285985.065,59.082,-61.523,1.465,37.598,84.961
1571285985.069,41.992,354.492,308.105,43.457,119.629
1571285985.073,4.395,149.414,129.395,32.227,58.105
1571285985.077,23.926,-195.801,-145.996,22.461,-3.418
1571285985.081,77.148,-59.570,-29.297,40.527,52.246
1571285985.085,70.801,157.715,155.762,54.199,124.023
1571285985.089,11.230,-351.562,-256.348,31.250,34.668
1571285985.093,-0.488,-944.336,-739.746,10.254,-67.871
1571285985.096,52.246,-572.266,-418.945,23.926,-16.602
1571285985.100,70.801,56.641,67.871,49.316,85.449
1571285985.104,22.949,12.207,-4.395,41.504,45.410
1571285985.108,-0.977,-297.363,-259.766,21.973,-35.156
1571285985.112,41.016,-175.293,-167.969,28.809,-10.254
1571285985.116,80.566,78.613,38.086,53.223,88.867
1571285985.120,37.598,-19.531,-46.875,38.574,58.105
1571285985.124,-5.371,-165.527,-174.316,16.113,-12.207
1571285985.128,28.809,-147.949,-169.922,21.973,-16.113
1571285985.132,80.078,-136.230,-141.602,46.875,31.250
1571285985.136,53.223,-443.848,-341.797,43.945,60.059
1571285985.139,-5.371,-580.078,-452.637,20.020,-11.719
1571285985.143,7.324,-323.242,-292.480,25.391,-63.477
1571285985.147,63.965,-147.949,-162.109,45.898,7.812
1571285985.151,62.988,130.859,62.988,49.316,104.980
1571285985.155,-8.301,120.117,27.832,19.531,47.852
1571285985.159,-28.320,-82.520,-151.855,0.977,-29.785
1571285985.163,34.180,-176.270,-210.449,26.855,-17.578
1571285985.167,65.430,104.492,41.992,46.387,93.262
1571285985.171,16.602,248.535,126.953,28.320,66.406
