timestamps,TP9,AF7,AF8,TP10,Right AUX
1571285809.659,8.301,3.906,-255.371,33.691,18.555
1571285809.663,-5.859,449.219,103.027,36.133,55.176
1571285809.667,6.836,540.039,151.855,23.926,56.152
1571285809.671,21.973,252.441,-88.379,5.371,26.855
1571285809.675,15.625,117.188,-166.504,13.184,5.859
1571285809.678,-4.883,205.078,-41.504,23.438,41.504
1571285809.682,-5.859,192.871,-40.039,19.043,58.105
1571285809.686,17.578,-370.605,-490.234,7.812,2.441
1571285809.690,24.414,-561.035,-622.070,-2.930,-12.207
1571285809.694,7.324,189.941,-26.855,12.207,58.594
1571285809.698,-2.930,442.871,149.414,17.090,78.613
1571285809.702,-5.371,223.633,-56.152,-3.418,40.039
1571285809.706,-1.953,253.906,-42.480,-7.324,61.523
1571285809.710,0.977,273.926,5.859,17.578,74.707
1571285809.714,-1.953,189.941,-22.949,26.367,53.711
1571285809.718,7.812,270.508,32.715,16.602,69.824
1571285809.721,22.949,211.426,-52.734,18.066,49.316
1571285809.725,19.043,41.992,-150.879,35.156,42.969
1571285809.729,15.137,-197.754,-275.391,52.734,51.270
1571285809.733,30.273,-512.695,-500.488,43.945,11.719
1571285809.737,40.527,-332.031,-394.043,21.484,-1.465
1571285809.741,39.551,-115.723,-258.789,31.738,-8.789
1571285809.745,23.438,62.500,-83.496,47.363,40.527
1571285809.749,17.090,290.527,91.309,47.363,69.824
1571285809.753,36.133,319.336,55.176,30.273,36.621
1571285809.757,42.969,95.703,-138.672,22.461,4.395
1571285809.761,23.438,97.656,-77.148,43.457,38.574
1571285809.764,13.184,207.520,42.969,47.363,73.242
1571285809.768,38.086,170.898,-26.855,34.668,37.598
1571285809.772,61.523,-123.047,-277.344,30.273,0.488
1571285809.776,40.527,-644.531,-610.352,42.480,-8.789
1571285809.780,11.719,-412.598,-372.559,44.922,40.527
1571285809.784,25.879,175.293,26.855,35.645,52.734
1571285809.788,46.875,-14.160,-195.312,30.273,-7.324
1571285809.792,33.203,-152.344,-274.902,34.180,8.301
1571285809.796,13.672,232.910,71.289,57.617,62.500
1571285809.800,14.648,451.172,217.285,49.316,62.500
1571285809.803,33.691,167.969,-41.016,21.973,24.902
1571285809.807,39.062,-99.609,-227.539,41.016,7.324
1571285809.811,25.879,149.902,16.602,59.570,44.922
1571285809.815,24.902,384.766,187.500,46.387,61.035
1571285809.819,47.852,-61.035,-189.453,35.156,28.320
1571285809.823,52.734,-628.906,-602.539,29.785,14.648
1571285809.827,29.297,-271.484,-276.367,44.434,58.594
1571285809.831,27.832,262.695,116.211,58.594,71.777
1571285809.835,49.805,73.730,-78.125,46.387,30.762
1571285809.839,58.105,-276.367,-360.840,41.992,-7.812
1571285809.843,51.758,-13.184,-130.859,58.105,13.184
1571285809.846,44.922,296.387,123.047,75.684,51.758
1571285809.850,52.734,246.094,62.500,70.801,44.434
1571285809.854,70.801,43.457,-123.535,44.434,15.137
1571285809.858,61.035,110.352,-56.641,53.711,32.715
1571285809.862,54.688,320.312,138.672,81.543,68.359
1571285809.866,73.730,170.410,25.879,69.824,53.223
1571285809.870,71.777,-181.152,-258.301,48.340,22.949
1571285809.874,55.664,-306.152,-346.191,46.387,21.484
1571285809.878,44.922,-138.672,-178.223,60.059,51.270
1571285809.882,47.363,-356.934,-333.008,68.848,27.344
1571285809.886,57.129,-448.242,-433.105,52.246,-21.973
1571285809.889,64.941,-62.012,-177.246,46.875,-5.371
1571285809.893,56.152,15.625,-112.305,68.359,13.184
1571285809.897,57.617,50.781,-68.359,77.148,18.555
1571285809.901,66.895,248.535,53.223,60.547,29.785
1571285809.905,67.383,203.613,-30.273,53.711,18.555
1571285809.909,56.641,97.656,-87.891,66.895,22.949
1571285809.913,51.270,57.617,-68.848,86.426,55.664
1571285809.917,54.199,-12.207,-129.395,62.988,48.340
1571285809.921,49.805,86.426,-104.004,20.020,32.715
1571285809.925,39.062,-194.824,-332.520,31.250,-1.953
1571285809.928,15.137,-467.285,-473.633,43.945,0.488
1571285809.932,18.555,-0.977,-105.957,36.133,62.988
1571285809.936,45.898,111.328,-99.609,27.832,43.457
1571285809.940,44.922,-101.562,-282.715,33.691,5.859
1571285809.944,26.367,58.594,-113.770,41.016,38.086
1571285809.948,16.602,372.070,121.582,34.668,54.199
1571285809.952,25.391,296.387,23.926,23.438,32.227
1571285809.956,27.344,39.551,-181.641,17.090,22.949
1571285809.960,3.906,-96.680,-242.188,30.273,21.973
1571285809.964,-6.836,-73.242,-185.059,35.645,34.668
1571285809.968,10.254,-23.926,-168.457,25.391,39.062
1571285809.971,30.273,-419.922,-493.164,10.742,31.250
1571285809.975,12.695,-335.938,-402.832,13.184,54.688
1571285809.979,-1.465,295.898,73.242,33.203,60.547
1571285809.983,20.996,291.992,33.691,35.156,36.621
1571285809.987,57.129,105.957,-127.441,29.785,42.480
1571285809.991,41.504,39.551,-163.086,35.156,32.227
1571285809.995,14.160,208.496,5.859,56.152,40.039
1571285809.999,24.414,372.559,139.648,56.152,76.172
1571285810.003,39.551,305.664,52.246,31.738,67.383
1571285810.007,39.062,-63.477,-251.953,27.344,8.789
1571285810.011,18.066,-63.477,-196.777,38.086,29.297
1571285810.014,28.320,-3.418,-129.395,45.410,39.551
1571285810.018,41.016,-412.598,-458.984,30.273,-8.789
1571285810.022,32.715,-230.469,-334.961,21.973,-4.883
1571285810.026,22.949,200.684,-3.418,41.992,32.715
1571285810.030,20.508,380.371,156.738,60.547,72.266
1571285810.034,37.598,328.613,88.379,50.781,41.016
1571285810.038,64.941,230.469,-32.715,37.598,9.277
1571285810.042,62.988,237.793,-6.836,56.152,35.156
1571285810.046,40.039,194.336,4.395,67.383,55.664
1571285810.050,41.504,108.887,-60.547,47.363,44.434
1571285810.053,50.293,-98.633,-259.277,28.320,-3.418
1571285810.057,51.270,-269.531,-379.883,36.621,-0.488
1571285810.061,26.855,-401.367,-421.387,53.711,26.855
1571285810.065,20.508,-179.199,-237.305,42.969,55.664
1571285810.069,48.340,320.312,74.219,30.762,57.129
1571285810.073,56.641,187.988,-68.359,44.434,22.949
1571285810.077,31.738,168.945,-33.691,52.734,51.758
1571285810.081,19.531,519.531,249.512,49.316,85.449
1571285810.085,38.574,520.508,194.824,41.992,39.551
1571285810.089,57.129,115.723,-153.320,34.180,-18.066
1571285810.093,47.363,80.566,-138.184,45.898,16.602
1571285810.096,30.762,437.988,164.551,58.594,67.871
1571285810.100,31.738,391.602,103.027,44.434,53.711
1571285810.104,58.594,-179.199,-352.051,36.621,-0.977
1571285810.108,48.828,-454.590,-504.395,47.363,0.977
1571285810.112,5.859,146.484,-5.371,52.246,47.852
1571285810.116,12.695,591.309,285.156,41.016,51.270
1571285810.120,43.457,376.953,79.102,26.367,30.762
1571285810.124,46.875,225.586,-24.902,35.645,23.438
1571285810.128,28.809,565.918,276.855,52.246,62.500
1571285810.132,28.809,761.230,433.105,58.105,83.008
1571285810.136,48.828,490.723,201.172,44.434,40.039
1571285810.139,52.246,280.762,43.945,32.227,20.508
1571285810.143,28.320,440.430,198.730,42.480,40.039
1571285810.147,21.973,413.574,193.359,49.316,45.410
1571285810.151,41.016,-212.402,-284.180,26.855,1.953
1571285810.155,50.293,-495.605,-505.371,4.883,-40.527
1571285810.159,44.434,-2.441,-114.258,41.992,12.695
1571285810.163,33.691,192.871,48.828,67.871,50.781
1571285810.167,33.691,175.293,7.812,32.227,26.367
1571285810.171,55.176,134.277,-68.848,15.137,-3.906
1571285810.175,47.852,166.504,-37.109,33.203,8.789
1571285810.178,35.156,162.598,-7.324,53.711,29.785
1571285810.182,35.156,143.555,-14.160,46.875,50.781
1571285810.186,38.086,153.320,-45.410,18.066,36.621
1571285810.190,30.273,90.332,-119.629,5.371,16.602
1571285810.194,8.789,-123.535,-236.328,16.113,46.387
1571285810.198,-13.184,-435.059,-442.383,7.324,35.156
1571285810.202,-11.230,-204.590,-305.664,-9.277,19.531
1571285810.206,15.137,-41.504,-236.816,-3.418,19.531
1571285810.210,1.465,-74.219,-242.188,9.277,33.203
1571285810.214,-8.301,91.797,-85.938,31.250,60.059
1571285810.218,8.301,99.609,-108.887,22.949,36.133
1571285810.221,20.508,-108.398,-304.199,3.906,-1.953
1571285810.225,20.996,-103.516,-273.926,35.645,16.113
1571285810.229,3.906,102.539,-81.543,44.922,53.223
1571285810.233,1.465,223.145,-21.973,15.625,41.016
1571285810.237,26.367,55.664,-188.965,4.883,13.184
1571285810.241,25.391,-250.488,-402.832,20.020,-1.465
1571285810.245,-7.812,-306.641,-380.371,39.551,21.973
1571285810.249,-14.160,-78.125,-197.754,22.461,46.875
1571285810.253,9.766,-50.781,-245.605,-5.859,7.812
1571285810.257,19.043,-625.000,-687.988,0.488,-35.645
1571285810.261,0.488,-533.691,-552.734,31.250,3.906
1571285810.264,-7.324,169.922,-32.227,40.527,54.688
1571285810.268,16.113,128.418,-131.348,17.578,27.832
1571285810.272,19.531,-202.637,-403.320,8.789,9.766
1571285810.276,0.000,-100.586,-283.691,27.344,32.227
1571285810.280,-2.930,302.246,38.574,35.156,62.012
1571285810.284,14.160,240.723,-58.105,12.207,25.391
1571285810.288,34.180,-206.543,-422.852,1.953,-11.230
1571285810.292,17.578,-287.598,-441.895,17.578,19.043
1571285810.296,0.000,-99.121,-262.207,43.457,32.715
1571285810.300,0.000,-174.805,-331.055,33.691,30.273
1571285810.303,10.254,-500.977,-608.887,-2.930,9.277
1571285810.307,9.277,-220.703,-411.621,-6.836,20.020
1571285810.311,-1.953,236.328,-72.266,21.484,46.875
1571285810.315,6.836,305.664,-26.855,24.414,61.035
1571285810.319,21.484,181.641,-159.668,14.160,31.738
1571285810.323,30.273,219.238,-146.973,16.602,35.156
1571285810.327,21.973,415.039,44.922,30.762,83.496
1571285810.331,6.348,246.094,-60.059,38.574,53.711
1571285810.335,5.371,-107.422,-332.031,20.020,1.465
1571285810.339,22.461,-284.668,-468.262,17.578,1.465
1571285810.343,20.508,-86.914,-277.344,45.898,52.734
1571285810.346,8.789,-161.621,-299.805,44.922,63.965
1571285810.350,12.207,-269.043,-398.438,21.973,18.066
1571285810.354,34.180,52.734,-200.684,20.020,17.090
1571285810.358,38.574,45.410,-216.309,40.527,24.414
1571285810.362,15.137,49.316,-174.316,62.988,35.156
1571285810.366,7.324,288.086,8.301,49.316,56.152
1571285810.370,22.949,232.910,-84.473,22.461,28.320
1571285810.374,26.855,51.270,-220.215,23.438,41.992
1571285810.378,12.207,201.660,-51.270,40.039,93.750
1571285810.382,2.441,263.184,4.395,39.062,101.074
1571285810.386,22.949,24.414,-208.984,22.949,67.871
1571285810.389,35.645,-479.492,-598.145,21.484,13.184
1571285810.393,3.906,-747.559,-738.770,26.367,7.324
1571285810.397,-16.113,-197.754,-302.246,22.949,48.340
1571285810.401,-0.977,231.934,-38.574,4.883,77.637
1571285810.405,12.695,93.262,-187.988,-4.883,73.730
1571285810.409,5.371,-25.879,-258.789,16.602,41.504
1571285810.413,-12.207,271.484,-1.465,20.996,72.754
1571285810.417,-12.207,247.070,-47.852,8.789,46.387
1571285810.421,3.906,-102.051,-332.031,0.488,20.508
1571285810.425,4.883,-154.297,-345.215,3.906,33.691
1571285810.428,-8.789,-80.566,-247.070,19.043,47.363
1571285810.432,-14.160,-130.371,-268.555,14.648,57.617
1571285810.436,7.324,-653.320,-684.570,0.977,0.488
1571285810.440,10.742,-725.098,-714.355,-1.953,11.230
1571285810.444,-7.324,-140.625,-240.234,23.438,64.941
1571285810.448,-9.277,-26.367,-169.434,36.133,47.363
1571285810.452,0.000,-107.422,-259.766,2.441,27.344
1571285810.456,0.977,-66.406,-247.559,-15.137,32.715
1571285810.460,-15.137,30.762,-158.203,-0.977,25.879
1571285810.464,-27.344,76.172,-88.379,13.184,57.129
1571285810.468,-25.879,-23.438,-175.293,-3.906,43.457
1571285810.471,-6.836,-192.871,-326.660,-23.926,-0.488
1571285810.475,-14.160,-358.398,-407.227,-5.371,16.113
1571285810.479,-31.738,-620.605,-547.363,-1.465,20.508
1571285810.483,-23.926,-876.953,-726.562,-24.902,-5.859
1571285810.487,-18.066,-772.949,-680.176,-40.039,-27.344
1571285810.491,-30.273,-502.930,-485.840,-34.180,5.859
1571285810.495,-65.918,-386.230,-369.629,-40.039,41.992
1571285810.499,-88.867,-531.738,-481.934,-67.383,34.668
1571285810.503,-86.914,-657.227,-613.281,-96.680,10.254
1571285810.507,-93.262,-643.066,-628.906,-102.539,0.488
1571285810.511,-126.953,-543.945,-534.668,-98.633,34.180
1571285810.514,-149.414,-383.789,-421.875,-115.723,49.805
1571285810.518,-130.859,-374.512,-469.238,-140.625,20.508
1571285810.522,-115.723,-729.980,-753.906,-147.461,4.395
1571285810.526,-139.648,-1000.000,-986.816,-130.859,-20.996
1571285810.530,-159.668,-856.445,-834.961,-116.699,-7.324
1571285810.534,-141.602,-578.125,-593.262,-132.812,26.367
1571285810.538,-113.281,-729.004,-781.250,-136.719,-7.324
1571285810.542,-124.023,-928.223,-938.477,-111.816,-19.531
1571285810.546,-137.695,-619.629,-683.105,-90.332,34.180
1571285810.550,-121.582,-392.578,-549.316,-91.797,54.688
1571285810.553,-109.375,-676.270,-787.598,-113.770,22.461
1571285810.557,-99.609,-987.305,-992.676,-102.051,-3.418
1571285810.561,-105.957,-734.375,-784.180,-79.102,36.133
1571285810.565,-108.887,-467.285,-609.863,-77.637,74.219
1571285810.569,-83.984,-751.953,-833.496,-81.543,19.043
1571285810.573,-74.707,-963.867,-983.398,-81.543,-13.184
1571285810.577,-98.633,-710.938,-809.570,-65.430,34.668
1571285810.581,-102.051,-477.539,-648.926,-53.711,57.617
1571285810.585,-88.867,-695.312,-800.781,-81.543,15.137
1571285810.589,-78.613,-1000.000,-1000.000,-91.309,-26.367
1571285810.593,-82.520,-810.059,-912.109,-67.871,26.367
1571285810.596,-86.426,-627.930,-829.590,-52.246,52.246
1571285810.600,-77.148,-824.707,-935.059,-62.500,19.531
1571285810.604,-74.219,-992.676,-981.445,-90.332,2.930
1571285810.608,-85.449,-860.352,-962.891,-85.449,23.926
1571285810.612,-91.309,-780.762,-960.449,-57.129,48.340
1571285810.616,-83.496,-925.293,-967.773,-49.805,18.555
1571285810.620,-70.312,-994.629,-971.680,-65.430,-28.809
1571285810.624,-56.641,-926.270,-971.191,-60.547,-57.129
1571285810.628,-51.270,-741.699,-949.707,-30.273,-20.996
1571285810.632,-48.340,-864.746,-954.102,-19.043,-6.836
1571285810.636,-23.438,-856.934,-972.656,-35.645,-34.668
1571285810.639,0.977,-526.367,-857.422,-26.855,-30.762
1571285810.643,-10.742,-333.984,-665.527,5.859,3.418
1571285810.647,-16.113,-121.582,-480.469,12.207,25.391
1571285810.651,-5.859,76.172,-356.445,0.000,-8.789
1571285810.655,15.625,131.348,-328.125,9.277,-19.531
1571285810.659,20.996,162.598,-257.324,29.297,3.418
1571285810.663,19.531,182.129,-175.293,55.664,26.855
1571285810.667,26.855,171.387,-170.410,51.758,20.020
1571285810.671,47.852,97.168,-251.953,37.109,-10.254
1571285810.675,59.570,-42.480,-336.914,57.129,-8.789
1571285810.678,46.875,-81.543,-306.152,77.637,2.441
1571285810.682,44.922,465.332,118.652,69.336,40.527
1571285810.686,76.660,766.113,303.711,63.477,38.574
1571285810.690,85.938,671.387,226.074,76.172,24.902
1571285810.694,68.848,876.465,528.320,98.633,77.637
1571285810.698,68.359,-979.004,874.512,113.770,103.027
1571285810.702,84.961,989.746,876.465,107.910,83.496
1571285810.706,89.844,999.512,751.953,90.332,56.152
1571285810.710,77.637,998.535,853.027,98.145,67.871
1571285810.714,74.219,-1000.000,994.629,115.723,89.355
1571285810.718,84.473,-999.512,-1000.000,102.539,72.754
1571285810.721,103.516,972.168,880.859,95.215,50.293
1571285810.725,90.332,985.352,928.223,104.980,80.078
1571285810.729,74.707,-995.605,-981.445,110.352,116.211
1571285810.733,95.703,997.070,992.188,104.004,104.004
1571285810.737,97.168,-1000.000,-999.512,88.379,59.570
1571285810.741,72.754,999.512,999.512,89.844,74.707
1571285810.745,69.336,999.512,999.512,110.840,122.070
1571285810.749,77.637,999.512,999.512,110.840,104.492
1571285810.753,90.820,999.512,999.512,93.750,50.293
1571285810.757,94.727,999.512,999.512,86.914,34.180
1571285810.761,85.449,999.512,999.512,97.168,60.059
1571285810.764,88.379,999.512,999.512,100.586,60.059
1571285810.768,97.168,999.512,999.512,78.125,29.785
1571285810.772,98.633,999.512,999.512,65.918,32.227
1571285810.776,90.820,999.512,999.512,82.520,71.289
1571285810.780,97.168,999.512,999.512,90.820,92.285
1571285810.784,107.422,999.512,999.512,76.660,58.594
1571285810.788,101.562,999.512,999.512,63.477,44.922
1571285810.792,96.191,997.559,998.535,78.125,81.055
1571285810.796,91.797,995.605,998.535,100.098,130.371
1571285810.800,101.074,-994.141,-1000.000,86.914,130.859
1571285810.803,100.586,878.418,959.473,58.105,92.773
1571285810.807,84.473,738.770,924.805,59.570,96.191
1571285810.811,68.848,470.215,780.273,82.031,117.188
1571285810.815,62.500,560.547,858.887,71.289,156.738
1571285810.819,75.195,822.266,-996.582,47.852,132.812
1571285810.823,83.984,470.215,733.887,53.223,84.961
1571285810.827,68.848,296.387,650.391,77.637,112.793
1571285810.831,62.012,595.703,910.156,79.102,183.594
1571285810.835,73.730,654.297,900.391,53.711,181.641
1571285810.839,82.520,225.586,526.855,45.410,132.324
1571285810.843,75.684,12.207,396.973,66.406,148.438
1571285810.846,62.500,347.656,657.227,84.961,203.125
1571285810.850,63.477,347.168,581.543,76.660,208.496
1571285810.854,78.125,-274.902,38.574,58.594,162.109
1571285810.858,70.312,-710.449,-285.645,57.617,150.879
1571285810.862,43.457,-170.410,147.949,70.312,241.211
1571285810.866,51.758,345.215,474.121,71.777,286.621
1571285810.870,52.246,-74.219,62.012,32.227,203.613
1571285810.874,25.879,-427.246,-214.355,4.395,188.965
1571285810.878,14.648,-98.145,73.242,23.438,281.738
1571285810.882,7.812,119.629,218.262,27.832,321.289
1571285810.886,-3.418,-169.922,-58.594,-22.949,285.645
1571285810.889,-12.695,-494.629,-324.707,-47.852,250.977
1571285810.893,-50.293,-375.000,-183.105,-41.992,292.969
1571285810.897,-76.660,-310.059,-66.895,-49.805,352.051
1571285810.901,-82.031,-721.680,-437.012,-97.168,322.266
1571285810.905,-102.051,-898.926,-614.258,-137.207,285.156
1571285810.909,-112.305,-404.297,-170.898,-110.840,321.289
1571285810.913,-120.605,-10.742,137.207,-94.238,369.141
1571285810.917,-128.418,47.852,157.227,-115.723,384.766
1571285810.921,-118.652,-52.734,41.016,-136.230,354.980
1571285810.925,-123.535,45.410,119.141,-125.488,352.051
1571285810.928,-125.977,302.246,350.098,-88.867,387.695
1571285810.932,-121.094,572.266,538.574,-86.426,411.133
1571285810.936,-108.887,792.969,604.492,-97.168,389.160
1571285810.940,-94.238,925.781,646.484,-74.219,376.953
1571285810.944,-102.539,901.367,618.652,-32.227,408.203
1571285810.948,-106.445,734.375,453.125,-27.832,433.105
1571285810.952,-88.379,824.219,443.848,-38.574,427.246
1571285810.956,-73.242,785.645,328.613,-41.504,403.320
1571285810.960,-57.129,725.586,310.547,-18.066,416.504
1571285810.964,-42.480,875.488,525.391,13.672,449.219
1571285810.968,-29.297,-962.402,672.363,-5.371,422.852
1571285810.971,-15.137,836.426,510.254,-19.043,344.238
1571285810.975,-17.090,756.836,556.641,2.930,326.660
1571285810.979,-22.461,967.285,899.414,20.508,379.883
1571285810.983,-15.137,-974.609,-970.215,17.090,359.375
1571285810.987,3.418,955.078,934.570,3.418,260.254
1571285810.991,6.348,809.082,873.535,8.789,248.535
1571285810.995,5.371,901.367,974.609,39.551,309.570
1571285810.999,20.996,-970.215,-983.398,49.316,302.734
1571285811.003,28.809,983.887,990.234,28.809,227.051
1571285811.007,37.598,461.426,656.250,22.949,173.340
1571285811.011,36.621,561.035,732.422,56.152,247.559
1571285811.014,38.086,-924.805,-939.941,83.984,292.480
1571285811.018,48.340,921.875,928.223,62.500,218.262
1571285811.022,48.340,792.480,777.344,44.434,154.297
1571285811.026,47.363,947.754,920.898,67.383,198.242
1571285811.030,51.758,-981.445,-977.051,92.773,251.953
1571285811.034,58.594,960.938,958.008,81.055,194.336
1571285811.038,59.570,773.926,763.672,52.734,139.160
1571285811.042,58.105,625.000,662.598,78.125,126.465
1571285811.046,55.664,919.922,943.848,111.328,181.152
1571285811.050,52.734,831.543,861.328,99.121,167.480
1571285811.053,49.316,181.152,320.312,52.734,56.152
1571285811.057,36.621,204.590,332.520,41.016,29.785
1571285811.061,44.922,680.664,729.492,84.961,83.008
1571285811.065,50.781,697.266,744.141,71.289,90.332
1571285811.069,26.855,292.480,382.324,7.812,-7.812
1571285811.073,7.324,-7.324,142.578,-24.902,-75.684
1571285811.077,8.789,-110.352,140.137,-9.277,-83.984
1571285811.081,16.602,-64.453,246.582,-0.488,-58.594
1571285811.085,21.484,-323.730,36.621,-37.598,-107.910
1571285811.089,29.785,-849.121,-393.066,-52.734,-213.867
1571285811.093,37.598,-727.051,-246.094,-11.719,-218.750
1571285811.096,43.945,-654.785,-142.578,18.066,-188.965
1571285811.100,42.969,-496.094,-50.293,-6.836,-175.781
1571285811.104,51.758,-41.504,202.637,-21.484,-187.500
1571285811.108,64.453,80.566,263.672,7.812,-189.453
1571285811.112,65.430,511.230,631.836,53.223,-104.492
1571285811.116,63.477,-990.723,-992.676,47.852,-71.289
1571285811.120,81.543,935.547,844.727,6.348,-147.461
1571285811.124,86.426,672.852,624.023,16.602,-147.461
1571285811.128,68.848,856.445,864.746,76.660,-50.781
1571285811.132,78.613,-978.027,-972.656,85.449,-30.762
1571285811.136,69.336,986.328,945.801,32.227,-80.078
1571285811.139,54.199,666.992,680.176,11.719,-113.281
1571285811.143,57.129,553.711,679.688,34.668,-85.449
1571285811.147,55.664,980.957,-995.605,49.805,-2.441
1571285811.151,52.246,-979.980,-992.676,20.996,-39.551
1571285811.155,47.363,943.848,970.703,-10.742,-112.793
1571285811.159,43.457,978.516,992.676,8.789,-49.316
1571285811.163,42.969,-992.676,-997.559,39.551,3.906
1571285811.167,48.828,998.535,998.047,18.555,-22.461
1571285811.171,42.969,956.543,999.512,-35.156,-82.031
1571285811.175,42.480,971.191,999.512,-41.504,-80.566
1571285811.178,68.359,988.770,993.164,3.906,-34.668
1571285811.182,77.637,-945.312,-980.957,16.602,-28.320
1571285811.186,67.871,697.266,911.133,-16.602,-85.449
1571285811.190,61.035,544.922,887.695,-27.832,-144.043
1571285811.194,71.289,977.539,-988.281,9.766,-85.938
1571285811.198,85.449,-986.328,998.535,23.926,-21.973
1571285811.202,71.289,948.730,997.070,-19.043,-65.918
1571285811.206,51.270,808.594,-999.512,-43.457,-131.836
1571285811.210,49.805,875.488,996.094,-9.277,-86.426
1571285811.214,49.805,946.777,991.699,15.137,-2.441
1571285811.218,52.246,716.797,-987.305,-12.695,-24.902
1571285811.221,33.203,306.152,773.438,-36.621,-97.168
1571285811.225,19.531,-23.438,524.902,-10.254,-73.242
1571285811.229,31.738,-172.852,475.098,22.461,5.371
1571285811.233,33.691,-481.445,229.980,-0.488,4.883
1571285811.237,27.344,-820.801,-147.461,-43.945,-60.059
1571285811.241,21.973,-913.086,-272.461,-35.156,-68.848
1571285811.245,22.461,-704.590,-80.078,6.348,24.902
1571285811.249,22.949,-523.926,19.531,4.395,79.102
1571285811.253,16.113,-715.820,-262.695,-32.715,11.719
1571285811.257,17.090,-992.188,-675.293,-44.434,-46.387
1571285811.261,28.320,-959.961,-649.414,-8.301,8.789
1571285811.264,29.297,-833.984,-425.293,1.465,98.145
1571285811.268,30.273,-866.211,-606.445,-36.133,82.520
1571285811.272,26.855,-982.910,-970.703,-44.922,-2.441
1571285811.276,25.391,-967.285,-969.238,-9.766,18.555
1571285811.280,28.809,-968.262,-828.613,-1.465,113.770
1571285811.284,33.203,-970.703,-867.676,-32.227,108.398
1571285811.288,36.133,-957.520,-969.727,-55.176,24.414
1571285811.292,31.738,-993.652,-994.141,-33.691,19.043
1571285811.296,23.438,-855.469,-811.035,0.000,118.652
1571285811.300,27.344,-519.531,-483.887,-4.883,189.941
1571285811.303,42.480,-717.285,-731.445,-45.898,101.074
1571285811.307,44.434,-962.402,-923.340,-45.410,45.898
1571285811.311,41.016,-508.789,-451.172,4.883,132.812
1571285811.315,36.133,86.914,18.555,20.020,174.316
1571285811.319,24.902,-310.547,-362.305,-34.180,82.031
1571285811.323,14.160,-943.848,-861.328,-65.918,15.137
1571285811.327,20.020,-238.770,-170.410,-10.254,112.305
1571285811.331,28.809,711.914,645.996,24.902,193.848
1571285811.335,33.691,716.797,618.652,-26.367,125.977
1571285811.339,43.457,290.527,326.172,-58.594,23.438
1571285811.343,35.156,528.320,653.320,-17.578,65.430
1571285811.346,31.250,994.141,-980.469,11.230,145.508
1571285811.350,45.898,970.703,994.141,-19.531,93.262
1571285811.354,47.852,766.113,990.723,-56.152,4.883
1571285811.358,47.363,839.355,-998.535,-40.039,15.625
1571285811.362,34.668,-992.676,999.512,3.418,104.492
1571285811.366,21.973,-994.141,999.512,-0.488,104.492
1571285811.370,31.250,787.109,999.512,-55.176,15.625
1571285811.374,33.203,717.285,999.512,-49.805,-27.832
1571285811.378,39.551,998.047,999.512,-0.977,31.738
1571285811.382,40.039,919.922,999.512,-7.812,64.453
1571285811.386,31.250,873.047,999.512,-61.523,2.441
1571285811.389,24.902,947.754,999.512,-65.918,-42.480
1571285811.393,-3.906,976.562,999.512,-11.230,-6.348
1571285811.397,-5.859,-998.047,999.512,14.648,61.523
1571285811.401,2.441,-990.723,999.512,-28.320,34.180
1571285811.405,-8.789,784.668,999.512,-72.266,-52.734
1571285811.409,-1.953,765.137,999.512,-43.457,-31.250
1571285811.413,4.395,-990.234,999.512,-3.418,71.777
1571285811.417,7.812,966.309,999.512,-28.809,59.082
1571285811.421,21.484,659.180,999.512,-91.309,-71.289
1571285811.425,23.438,370.605,999.512,-77.637,-72.754
1571285811.428,5.371,491.211,999.512,-29.297,23.438
1571285811.432,1.953,953.125,999.512,-33.691,60.547
1571285811.436,12.207,803.223,999.512,-76.172,-24.902
1571285811.440,12.207,352.051,999.512,-75.684,-89.355
1571285811.444,21.973,657.715,999.023,-14.160,0.488
1571285811.448,22.949,-936.035,999.512,6.836,75.195
1571285811.452,6.836,903.809,999.023,-22.949,12.695
1571285811.456,-19.531,482.422,995.605,-48.340,-58.105
1571285811.460,-18.555,515.137,996.094,-23.438,-9.766
1571285811.464,1.953,918.945,997.070,14.648,74.707
1571285811.468,17.578,942.871,-981.445,-10.254,54.199
1571285811.471,16.602,166.992,865.234,-53.223,-75.195
1571285811.475,13.184,265.625,883.301,-25.879,-51.270
1571285811.479,22.461,-951.172,-976.074,21.484,84.473
1571285811.483,32.227,969.727,992.676,7.812,70.801
1571285811.487,34.668,607.910,999.512,-39.062,-39.062
1571285811.491,30.273,670.410,-999.023,-40.039,-15.137
1571285811.495,45.410,-999.023,987.793,20.020,112.305
1571285811.499,38.086,994.141,-978.516,26.855,123.047
1571285811.503,16.602,692.871,939.453,-37.109,16.113
1571285811.507,12.695,248.535,752.441,-55.664,-14.648
1571285811.511,21.973,631.348,917.969,-1.465,120.117
1571285811.514,35.156,942.383,-972.168,27.344,155.273
1571285811.518,30.762,317.871,700.684,-13.184,41.504
1571285811.522,22.461,-31.738,408.691,-39.062,-26.367
1571285811.526,25.391,311.523,686.035,-0.977,41.016
1571285811.530,36.621,619.629,958.984,37.109,120.605
1571285811.534,36.621,415.039,731.445,-11.230,79.590
1571285811.538,1.465,-306.641,81.055,-75.684,-47.852
1571285811.542,-5.371,-646.973,-119.629,-39.062,-20.508
1571285811.546,11.230,-230.957,276.855,10.254,136.719
1571285811.550,13.184,-171.875,304.688,-20.020,145.508
1571285811.553,14.160,-737.305,-415.527,-76.660,24.902
1571285811.557,4.395,-1000.000,-916.504,-60.547,-18.066
1571285811.561,10.254,-948.242,-822.266,0.000,60.547
1571285811.565,20.996,-956.055,-628.418,-4.395,145.996
1571285811.569,1.953,-958.496,-716.797,-45.898,71.777
1571285811.573,-6.348,-975.098,-1000.000,-54.688,-36.133
1571285811.577,5.859,-970.703,-872.559,-6.836,73.730
1571285811.581,19.531,-904.297,-624.023,23.438,187.012
1571285811.585,4.883,-929.688,-804.199,-34.180,121.094
1571285811.589,-14.160,-986.816,-1000.000,-78.613,5.859
1571285811.593,5.371,-958.496,-910.156,-20.020,77.148
1571285811.596,20.996,-835.938,-694.824,25.391,220.703
1571285811.600,19.043,-891.113,-814.453,-0.977,176.758
1571285811.604,15.625,-973.145,-987.305,-26.855,22.461
1571285811.608,7.324,-996.094,-973.145,-14.160,38.086
1571285811.612,2.441,-805.664,-714.355,31.250,212.402
1571285811.616,12.695,-517.090,-475.098,23.926,277.832
1571285811.620,2.441,-783.691,-791.504,-43.945,159.668
1571285811.624,-0.488,-1000.000,-1000.000,-43.945,66.895
1571285811.628,22.461,-692.871,-683.594,25.879,182.617
1571285811.632,31.250,-196.289,-271.484,41.016,289.062
1571285811.636,4.883,-494.141,-596.680,-20.020,192.383
1571285811.639,-0.488,-1000.000,-1000.000,-44.434,67.871
1571285811.643,28.320,-610.840,-627.930,19.043,145.020
1571285811.647,40.039,124.023,-5.371,59.082,301.758
1571285811.651,26.367,-235.840,-354.492,5.371,211.914
1571285811.655,9.277,-858.398,-901.855,-55.664,49.805
1571285811.659,5.371,-312.500,-416.016,-12.207,139.648
1571285811.663,16.602,562.012,305.664,39.551,266.602
1571285811.667,32.227,498.047,199.707,15.137,208.496
1571285811.671,20.996,-31.738,-296.875,-48.828,78.613
1571285811.675,12.695,13.672,-248.047,-37.598,83.008
1571285811.678,20.996,548.828,249.023,23.438,195.801
1571285811.682,23.438,881.348,481.445,6.836,211.426
1571285811.686,11.719,464.355,58.594,-45.410,95.703
1571285811.690,-11.719,-85.938,-357.910,-46.875,23.926
1571285811.694,0.488,189.941,-7.812,20.508,127.441
1571285811.698,14.160,624.512,374.512,41.016,187.500
1571285811.702,13.672,744.141,359.863,-23.438,93.262
1571285811.706,15.137,346.191,-20.508,-48.828,-5.371
1571285811.710,17.578,336.426,73.730,-1.953,67.871
1571285811.714,20.996,799.805,538.574,32.227,163.574
1571285811.718,8.301,979.492,607.910,-6.836,120.117
1571285811.721,-3.418,350.586,7.324,-63.965,-4.883
1571285811.725,17.090,12.207,-157.227,-14.160,5.371
1571285811.729,34.180,647.949,464.355,54.199,153.809
1571285811.733,28.320,-993.164,682.129,11.230,151.855
1571285811.737,16.113,310.547,-0.488,-50.781,-9.277
1571285811.741,3.906,-460.449,-555.664,-42.969,-62.988
1571285811.745,8.789,-170.410,-195.801,4.395,64.941
1571285811.749,7.812,284.180,136.719,3.906,112.305
1571285811.753,13.184,-132.812,-312.988,-61.035,-31.250
1571285811.757,32.715,-916.504,-955.078,-73.730,-131.836
1571285811.761,34.668,-549.805,-563.477,-1.953,-11.230
1571285811.764,30.762,398.926,205.566,37.598,122.559
1571285811.768,2.441,153.320,-121.094,-14.648,21.973
1571285811.772,-18.555,-702.148,-854.492,-49.805,-110.352
1571285811.776,3.418,-516.602,-618.652,9.766,-32.227
1571285811.780,10.254,263.184,28.809,47.363,89.844
1571285811.784,18.066,201.172,-134.277,15.625,41.016
1571285811.788,13.184,-666.016,-818.359,-24.902,-95.703
1571285811.792,-2.930,-997.070,-994.141,-3.906,-112.793
1571285811.796,4.883,-170.410,-347.656,56.152,51.758
1571285811.800,27.344,216.309,-141.113,42.969,99.121
1571285811.803,22.949,-696.777,-856.934,-22.949,-70.801
1571285811.807,5.859,-824.219,-934.570,-18.066,-104.980
1571285811.811,30.273,114.258,-258.301,55.664,67.383
1571285811.815,49.316,649.414,149.902,60.059,147.949
1571285811.819,29.297,297.363,-238.281,-13.672,34.668
1571285811.823,19.043,-232.910,-683.105,-31.738,-65.918
1571285811.827,33.691,58.105,-338.867,36.133,21.484
1571285811.831,35.645,652.832,175.781,74.707,124.023
1571285811.835,38.086,376.953,-115.723,17.578,45.410
1571285811.839,32.715,-442.871,-787.109,-34.668,-76.660
1571285811.843,25.391,-417.969,-646.484,25.879,-32.715
1571285811.846,29.785,199.219,-68.359,86.426,79.102
1571285811.850,18.066,542.480,146.973,41.992,70.801
1571285811.854,17.090,232.910,-208.496,-24.414,-52.246
1571285811.858,41.016,-268.555,-540.527,29.297,-96.191
1571285811.862,56.641,122.070,-74.707,96.191,48.828
1571285811.866,51.758,844.238,465.820,71.777,110.352
1571285811.870,38.574,561.035,105.469,21.484,-36.133
1571285811.874,38.086,-100.586,-396.973,24.414,-117.188
1571285811.878,42.480,352.539,93.750,83.496,13.672
1571285811.882,45.898,895.020,532.715,80.078,95.703
1571285811.886,40.039,540.527,146.973,-3.906,-17.578
1571285811.889,36.133,-261.719,-512.207,-36.621,-139.648
1571285811.893,42.480,-459.473,-525.879,28.320,-84.473
1571285811.897,12.695,500.488,281.738,59.570,51.270
1571285811.901,0.977,844.238,417.969,11.719,15.137
1571285811.905,7.812,-67.383,-377.930,-41.016,-141.113
1571285811.909,15.625,-200.684,-367.188,4.395,-95.215
1571285811.913,36.133,613.281,358.887,74.219,68.848
1571285811.917,37.109,700.684,359.863,41.992,49.805
1571285811.921,20.996,-39.062,-316.895,-21.973,-104.492
1571285811.925,16.113,-353.027,-518.555,11.230,-123.535
1571285811.928,19.531,191.406,17.578,68.359,27.344
1571285811.932,26.367,515.625,228.027,42.480,55.664
1571285811.936,17.090,-304.688,-484.375,-27.344,-108.887
1571285811.940,-1.953,-976.074,-967.773,-34.180,-179.688
1571285811.944,6.836,-187.500,-288.574,45.410,-37.109
1571285811.948,46.875,537.598,277.832,66.406,77.148
1571285811.952,34.668,137.695,-142.090,-13.184,-32.715
1571285811.956,-7.324,-511.230,-689.453,-52.734,-135.254
1571285811.960,7.812,-195.801,-331.055,11.230,-22.461
1571285811.964,15.625,379.883,177.734,53.223,88.379
1571285811.968,6.348,203.125,-37.109,19.531,13.672
1571285811.971,-0.488,-624.512,-747.070,-26.855,-129.395
1571285811.975,-10.254,-855.469,-834.473,3.906,-103.027
1571285811.979,13.672,-368.164,-354.492,69.824,33.691
1571285811.983,36.133,-286.621,-325.684,41.504,41.016
1571285811.987,3.418,-574.707,-675.781,-33.691,-98.145
1571285811.991,-1.953,-615.723,-724.121,-11.719,-129.883
1571285811.995,16.602,-112.793,-241.699,53.711,-10.742
1571285811.999,29.297,404.785,136.719,36.621,47.363
1571285812.003,14.160,174.805,-181.641,-18.555,-67.383
1571285812.007,2.441,-417.480,-672.852,-38.574,-160.645
1571285812.011,29.297,-133.301,-332.520,18.555,-49.805
1571285812.014,33.203,528.320,208.496,57.617,38.574
1571285812.018,4.395,479.492,55.664,2.930,-49.316
1571285812.022,-9.277,-364.258,-653.320,-31.738,-177.246
1571285812.026,4.883,-765.137,-820.312,14.648,-113.770
1571285812.030,14.160,-6.836,-140.625,49.316,43.457
1571285812.034,22.949,586.914,187.988,4.883,0.977
1571285812.038,35.645,-105.957,-474.609,-54.199,-156.250
1571285812.042,44.434,-440.918,-648.926,-18.066,-148.926
1571285812.046,18.555,486.328,221.191,34.180,24.902
1571285812.050,0.977,-901.367,652.344,18.555,40.039
1571285812.053,-17.090,414.062,-19.531,-31.250,-141.113
1571285812.057,-17.578,-130.371,-373.535,-31.738,-163.574
1571285812.061,2.930,535.156,280.273,17.090,-7.324
1571285812.065,2.441,-960.449,663.086,20.020,26.367
1571285812.069,1.465,229.004,-47.363,-34.668,-109.375
1571285812.073,-10.254,-764.160,-780.273,-64.453,-197.266
1571285812.077,0.000,-141.602,-167.480,-8.301,-89.355
1571285812.081,14.160,894.043,659.180,15.137,41.992
1571285812.085,0.488,594.238,324.219,-50.293,-42.480
1571285812.089,-4.395,-271.973,-402.344,-86.426,-197.266
1571285812.093,4.883,71.777,-48.340,-26.855,-131.836
1571285812.096,9.277,888.672,697.266,31.250,15.625
1571285812.100,8.789,895.020,641.113,-8.301,-30.762
1571285812.104,-8.789,151.367,-60.547,-60.059,-195.312
1571285812.108,-14.160,-6.836,-103.516,-24.902,-171.387
1571285812.112,-0.977,727.539,562.500,25.879,-14.648
1571285812.116,14.160,829.590,595.215,19.043,-12.207
1571285812.120,16.602,88.867,-78.613,-49.805,-150.391
1571285812.124,7.324,-67.383,-185.059,-62.500,-158.691
1571285812.128,11.230,678.711,477.051,17.090,-31.738
1571285812.132,15.625,809.570,585.938,16.602,4.395
1571285812.136,-7.324,459.961,230.957,-56.641,-79.590
1571285812.139,-16.602,171.387,-61.035,-63.477,-164.551
1571285812.143,-0.977,196.777,55.664,12.207,-85.938
1571285812.147,3.906,749.023,541.016,35.645,0.977
1571285812.151,0.488,897.461,558.105,-32.227,-65.430
1571285812.155,1.953,410.645,104.004,-67.871,-166.992
1571285812.159,10.254,361.328,142.578,-19.531,-123.047
1571285812.163,19.043,841.797,611.328,32.227,-6.836
1571285812.167,30.273,861.328,575.195,0.000,-36.621
1571285812.171,14.648,281.738,11.230,-63.965,-166.992
1571285812.175,-7.324,-181.641,-310.547,-32.715,-178.711
1571285812.178,-6.836,-23.926,-60.547,25.391,-71.289
1571285812.182,0.977,604.492,409.668,0.488,-20.020
1571285812.186,5.859,291.504,34.180,-57.129,-134.766
1571285812.190,1.953,-391.602,-499.512,-65.918,-205.566
1571285812.194,16.602,6.836,-81.543,3.906,-93.750
1571285812.198,12.207,668.945,438.477,24.414,15.625
1571285812.202,-15.137,445.312,144.531,-34.180,-68.848
1571285812.206,-11.719,-347.168,-521.973,-58.105,-195.801
1571285812.210,2.930,-365.723,-413.086,2.441,-109.375
1571285812.214,17.090,150.879,49.316,40.527,-10.742
1571285812.218,9.766,86.914,-86.914,3.906,-72.266
1571285812.221,-7.812,-704.590,-780.273,-36.621,-232.910
1571285812.225,8.789,-781.738,-791.016,-10.254,-216.797
1571285812.229,20.996,326.660,114.258,49.805,4.883
1571285812.233,19.043,658.691,271.973,24.414,19.531
1571285812.237,0.488,-193.359,-513.184,-73.730,-141.602
1571285812.241,-14.160,-531.738,-745.605,-70.801,-160.645
1571285812.245,-10.742,98.145,-149.902,-1.465,-30.762
1571285812.249,-14.648,481.934,111.816,-6.836,20.020
1571285812.253,-26.855,-223.145,-509.766,-71.777,-129.883
1571285812.257,-30.273,-1000.000,-1000.000,-84.961,-234.863
1571285812.261,-26.855,-493.164,-591.309,-19.531,-85.449
1571285812.264,-4.883,180.664,-93.750,23.438,25.391
1571285812.268,0.977,-367.188,-599.121,-30.762,-86.426
1571285812.272,-17.578,-820.312,-1000.000,-72.266,-188.477
1571285812.276,-9.277,-351.562,-576.172,-0.488,-103.027
1571285812.280,12.695,314.453,-2.930,52.246,30.762
1571285812.284,13.672,337.891,-71.777,3.906,-21.973
1571285812.288,-5.371,-238.770,-618.164,-58.105,-146.973
1571285812.292,0.000,-401.855,-681.152,-17.090,-116.699
1571285812.296,8.301,83.008,-189.941,53.223,7.812
1571285812.300,24.414,402.344,5.371,26.367,45.410
1571285812.303,23.438,-272.461,-569.824,-33.203,-90.332
1571285812.307,0.977,-980.469,-1000.000,-9.766,-155.273
1571285812.311,13.184,-904.297,-889.648,60.547,-38.086
1571285812.315,14.648,-416.016,-502.930,60.547,32.715
1571285812.319,4.395,-203.125,-479.004,-14.648,-59.570
1571285812.323,-1.953,-754.883,-971.191,-41.992,-164.551
1571285812.327,2.441,-556.641,-711.426,13.672,-72.266
1571285812.331,23.438,338.379,8.789,35.156,65.430
1571285812.335,16.602,356.445,-104.004,-13.184,-12.695
1571285812.339,1.953,-515.625,-818.359,-39.551,-154.785
1571285812.343,17.090,-664.551,-838.867,14.160,-111.816
1571285812.346,29.297,133.789,-186.523,67.871,23.438
1571285812.350,36.621,200.684,-251.465,39.551,14.160
1571285812.354,31.250,-665.527,-886.230,-22.461,-134.277
1571285812.358,23.438,-923.340,-945.312,-6.836,-151.367
1571285812.362,32.715,-23.926,-289.551,44.434,26.367
1571285812.366,47.363,494.629,43.945,25.879,73.242
1571285812.370,42.969,-241.211,-618.652,-45.410,-83.496
1571285812.374,27.344,-670.410,-921.875,-37.109,-135.742
1571285812.378,15.625,-55.664,-336.914,41.992,-28.809
1571285812.382,13.184,509.766,116.699,52.734,32.715
1571285812.386,0.000,120.605,-264.648,-13.184,-53.711
1571285812.389,-10.254,-553.223,-792.480,-43.457,-139.160
1571285812.393,16.602,-260.742,-450.195,10.254,-62.012
1571285812.397,34.668,179.688,-46.387,46.875,37.598
1571285812.401,14.160,-92.773,-320.801,2.441,-26.855
1571285812.405,10.742,-646.973,-818.359,-41.016,-162.598
1571285812.409,13.184,-442.383,-582.031,1.953,-103.516
1571285812.413,-1.465,390.625,141.113,54.199,48.828
1571285812.417,8.301,162.598,-69.336,20.020,9.766
1571285812.421,11.230,-624.023,-746.094,-45.898,-151.855
1571285812.425,4.883,-589.844,-674.805,-11.719,-144.043
1571285812.428,25.391,68.359,-70.312,54.199,9.766
1571285812.432,40.527,429.688,160.645,33.691,23.438
1571285812.436,28.809,114.258,-202.637,-34.668,-80.078
1571285812.440,24.414,-232.422,-483.398,-36.621,-128.418
1571285812.444,38.574,-144.043,-296.875,45.898,-46.387
1571285812.448,41.016,-51.758,-158.691,67.871,9.766
1571285812.452,28.320,62.500,-146.484,-8.789,-46.387
1571285812.456,16.602,-111.328,-358.398,-32.715,-118.652
1571285812.460,6.836,-63.477,-236.816,18.066,-55.664
1571285812.464,13.672,523.926,279.297,41.992,55.664
1571285812.468,30.762,611.816,255.371,5.371,-5.371
1571285812.471,30.762,-65.918,-342.773,-29.785,-131.836
1571285812.475,28.809,-291.992,-420.410,7.324,-113.770
1571285812.479,38.086,184.570,69.824,64.941,-0.977
1571285812.483,53.711,481.445,269.531,54.688,-9.766
1571285812.487,29.785,94.727,-130.859,-20.020,-119.141
1571285812.491,7.324,-426.758,-498.535,-11.719,-150.879
1571285812.495,33.691,-110.352,-122.070,50.781,-35.156
1571285812.499,51.758,586.426,406.738,36.621,46.387
1571285812.503,52.246,407.715,128.418,-22.461,-71.777
1571285812.507,28.320,-668.945,-707.520,-26.855,-188.477
1571285812.511,11.719,-483.887,-397.461,41.016,-79.102
1571285812.514,28.320,673.828,520.996,69.824,59.082
1571285812.518,39.062,497.070,256.836,14.160,-25.879
1571285812.522,30.273,-369.629,-464.355,-27.832,-154.785
1571285812.526,35.645,-192.871,-238.770,19.531,-92.773
1571285812.530,52.246,534.668,361.816,79.102,23.438
1571285812.534,36.621,531.738,265.625,42.480,-2.441
1571285812.538,13.672,-362.305,-520.996,-37.109,-130.859
1571285812.542,72.754,-672.363,-703.125,25.879,-133.789
1571285812.546,86.426,172.852,21.484,96.680,0.000
1571285812.550,16.602,546.875,228.516,30.273,26.367
1571285812.553,12.695,-17.578,-336.914,-34.668,-100.098
1571285812.557,10.742,-217.285,-505.371,-37.598,-132.324
1571285812.561,-8.301,538.574,139.160,7.324,9.766
1571285812.565,-17.090,755.859,264.160,3.418,44.922
1571285812.569,32.227,-44.434,-466.797,-0.977,-100.098
1571285812.573,117.676,-232.422,-646.484,47.852,-151.367
1571285812.577,24.414,341.797,-171.875,1.953,-62.012
1571285812.581,-37.598,844.727,192.383,-11.719,7.812
1571285812.585,-24.902,673.340,-55.664,-23.926,-43.457
1571285812.589,20.020,79.590,-620.605,-4.883,-154.297
1571285812.593,66.895,177.246,-515.137,64.453,-134.277
1571285812.596,-33.691,657.715,-140.137,-31.250,-25.879
1571285812.600,-102.539,873.047,-73.730,-147.461,-57.129
1571285812.604,2.930,-996.582,-180.664,-86.426,-161.621
1571285812.608,146.973,985.840,-206.055,89.355,-149.902
1571285812.612,-92.773,999.512,322.754,-92.285,-23.926
1571285812.616,-292.969,999.512,665.527,-323.730,-2.441
1571285812.620,-234.375,999.023,367.676,-331.055,-136.230
1571285812.624,-207.031,999.512,291.504,-272.949,-180.664
1571285812.628,-165.039,999.512,780.273,-166.016,-82.520
1571285812.632,-254.883,999.512,-959.473,-246.094,-33.691
1571285812.636,-294.922,999.512,926.758,-323.242,-122.070
1571285812.639,-228.516,999.512,778.809,-271.973,-231.934
1571285812.643,-169.922,999.512,884.766,-183.594,-179.688
1571285812.647,-120.117,999.512,-981.934,-133.789,-61.035
1571285812.651,-138.184,999.512,993.164,-187.012,-104.004
1571285812.655,-186.523,999.512,998.047,-257.812,-219.238
1571285812.659,-114.258,999.512,999.512,-164.551,-190.918
1571285812.663,-49.316,999.512,999.512,-62.012,-69.336
1571285812.667,-178.223,999.512,999.512,-213.379,-74.707
1571285812.671,-194.824,999.512,999.512,-295.898,-224.121
1571285812.675,-78.613,999.512,999.512,-156.250,-238.770
1571285812.678,-140.137,999.512,999.512,-166.504,-101.074
1571285812.682,-226.074,999.512,999.512,-257.324,-82.520
1571285812.686,-203.613,999.512,999.512,-247.070,-231.934
1571285812.690,-170.898,999.512,999.512,-222.656,-297.363
1571285812.694,-79.102,999.512,999.512,-113.770,-154.297
1571285812.698,41.992,999.512,999.512,11.719,-86.914
1571285812.702,-102.051,999.512,999.512,-163.086,-194.824
1571285812.706,-177.246,999.512,999.512,-245.117,-277.344
1571285812.710,-102.051,999.512,999.512,-136.230,-200.195
1571285812.714,-109.375,999.512,999.512,-128.906,-86.426
1571285812.718,-79.102,999.512,999.512,-128.418,-138.184
1571285812.721,-126.953,999.512,999.512,-185.059,-260.742
1571285812.725,-177.246,999.512,999.512,-181.152,-232.422
1571285812.729,-90.820,999.512,999.512,-50.781,-154.785
1571285812.733,28.320,999.512,999.512,31.738,-192.383
1571285812.737,-34.668,999.512,999.512,-87.402,-265.137
1571285812.741,-118.652,999.512,999.512,-171.387,-266.113
1571285812.745,-137.207,999.512,999.512,-125.977,-150.879
1571285812.749,-167.969,999.512,999.512,-141.602,-100.098
1571285812.753,-139.160,999.512,999.512,-177.734,-209.961
1571285812.757,-49.805,999.512,999.512,-80.078,-265.137
1571285812.761,-2.930,999.512,999.512,13.184,-207.031
1571285812.764,-37.109,999.512,999.512,-18.066,-135.742
1571285812.768,-140.625,999.512,999.512,-152.832,-188.477
1571285812.772,-199.219,999.512,999.512,-225.586,-315.918
1571285812.776,-188.965,999.512,999.512,-178.223,-272.461
1571285812.780,-122.070,999.512,999.512,-82.031,-148.926
1571285812.784,-93.750,999.512,999.512,-70.312,-174.805
1571285812.788,-119.141,999.512,999.512,-132.324,-297.852
1571285812.792,-160.645,999.512,999.512,-140.137,-297.852
1571285812.796,-213.867,999.512,999.512,-170.410,-178.711
1571285812.800,-167.969,999.512,999.512,-170.898,-154.785
1571285812.803,-117.676,999.512,999.512,-154.785,-286.133
1571285812.807,-64.453,999.512,999.512,-97.168,-317.383
1571285812.811,-109.375,999.512,999.512,-109.375,-158.691
1571285812.815,-198.242,999.512,999.512,-179.688,-115.234
1571285812.819,-123.047,999.512,999.512,-137.207,-234.375
1571285812.823,-64.941,999.512,999.512,-92.773,-297.852
1571285812.827,-179.688,999.512,999.512,-174.316,-197.754
1571285812.831,-249.023,999.512,999.512,-224.609,-111.328
1571285812.835,-158.691,999.512,999.512,-152.832,-210.938
1571285812.839,-139.160,999.512,999.512,-141.602,-316.406
1571285812.843,-176.758,999.512,999.512,-131.348,-255.859
1571285812.846,-130.859,999.512,999.512,-71.777,-145.508
1571285812.850,-185.547,999.512,999.512,-176.270,-134.766
1571285812.854,-246.094,999.512,999.512,-293.457,-218.262
1571285812.858,-180.664,999.512,999.512,-205.078,-208.496
1571285812.862,-125.977,999.512,999.512,-96.680,-137.695
1571285812.866,-210.938,999.512,999.512,-213.867,-147.461
1571285812.870,-233.887,999.512,999.512,-282.715,-226.562
1571285812.874,-201.660,999.512,999.512,-222.656,-250.977
1571285812.878,-190.430,999.512,999.512,-154.297,-161.133
1571285812.882,-177.734,999.512,999.512,-156.250,-137.695
1571285812.886,-175.293,999.512,999.512,-200.195,-204.102
1571285812.889,-235.840,999.512,999.512,-268.066,-231.445
1571285812.893,-255.859,999.512,999.512,-252.930,-176.758
1571285812.897,-237.305,999.512,999.512,-196.289,-103.027
1571285812.901,-281.738,999.512,999.512,-276.367,-151.367
1571285812.905,-281.250,999.512,999.512,-309.570,-254.395
1571285812.909,-241.211,999.512,999.512,-223.633,-214.355
1571285812.913,-218.750,999.512,999.512,-166.504,-104.492
1571285812.917,-195.312,999.512,999.512,-172.852,-103.516
1571285812.921,-196.777,999.512,999.512,-204.590,-191.895
1571285812.925,-238.281,999.512,999.512,-236.328,-193.848
1571285812.928,-275.391,999.512,999.512,-247.070,-106.934
1571285812.932,-295.898,999.512,999.512,-273.438,-67.871
1571285812.936,-278.320,999.512,999.512,-299.316,-163.086
1571285812.940,-266.113,999.512,999.512,-300.781,-233.887
1571285812.944,-215.332,999.512,999.512,-203.613,-137.207
1571285812.948,-139.648,999.512,999.512,-115.234,-34.668
1571285812.952,-228.027,999.512,999.512,-245.605,-96.680
1571285812.956,-294.434,999.512,999.512,-330.078,-175.293
1571285812.960,-206.543,999.512,999.512,-203.125,-129.883
1571285812.964,-204.590,999.512,999.512,-177.734,-62.988
1571285812.968,-183.594,999.512,999.512,-204.102,-92.773
1571285812.971,-156.250,999.512,999.512,-203.613,-177.246
1571285812.975,-248.535,999.512,999.512,-243.164,-155.273
1571285812.979,-242.676,999.512,999.512,-203.125,-34.668
1571285812.983,-186.523,999.512,999.512,-177.734,-53.223
1571285812.987,-205.566,999.512,999.512,-238.770,-144.043
1571285812.991,-207.031,999.512,999.512,-234.863,-126.465
1571285812.995,-210.449,999.512,997.070,-206.543,-20.508
1571285812.999,-238.770,999.512,999.512,-238.281,-4.883
1571285813.003,-245.605,999.512,-992.188,-276.855,-88.379
1571285813.007,-229.492,999.512,895.996,-269.043,-112.793
1571285813.011,-201.172,999.512,937.500,-194.336,-37.598
1571285813.014,-119.141,999.512,917.969,-88.379,21.973
1571285813.018,-180.176,999.512,455.566,-190.430,-76.660
1571285813.022,-308.105,999.512,359.375,-343.750,-136.230
1571285813.026,-282.715,999.512,691.406,-277.344,-42.969
1571285813.030,-266.602,999.512,834.961,-242.188,34.668
1571285813.034,-214.844,999.512,758.789,-217.285,1.953
1571285813.038,-212.891,999.512,541.504,-234.375,-85.449
1571285813.042,-326.660,999.512,541.016,-336.426,-57.617
1571285813.046,-319.824,999.512,701.172,-307.129,34.180
1571285813.050,-266.602,999.512,696.289,-258.301,43.457
1571285813.053,-300.293,999.512,311.523,-334.473,-54.688
1571285813.057,-351.562,999.512,70.801,-380.371,-93.262
1571285813.061,-305.176,999.512,200.195,-291.016,18.555
1571285813.065,-260.742,999.512,401.855,-250.000,81.055
1571285813.069,-283.203,999.512,460.938,-313.477,10.742
1571285813.073,-306.152,999.512,187.500,-347.168,-55.176
1571285813.077,-331.543,999.512,225.586,-333.008,-0.488
1571285813.081,-272.461,999.512,492.676,-255.371,84.961
1571285813.085,-235.352,999.512,354.492,-237.793,44.434
1571285813.089,-296.875,999.512,-116.211,-320.801,-58.105
1571285813.093,-278.809,999.512,-82.031,-276.855,-9.766
1571285813.096,-229.980,999.512,311.523,-202.637,111.328
1571285813.100,-206.543,999.512,146.484,-212.402,67.871
1571285813.104,-241.699,999.512,-385.742,-275.391,-30.762
1571285813.108,-216.309,999.512,-559.082,-217.773,-43.457
1571285813.112,-200.684,999.512,-52.246,-176.270,47.852
1571285813.116,-218.262,999.512,212.891,-222.656,87.891
1571285813.120,-247.559,999.512,-137.695,-275.391,0.488
1571285813.124,-215.820,999.512,-222.168,-233.887,-23.438
1571285813.128,-149.902,999.512,111.328,-136.719,31.738
1571285813.132,-154.785,999.512,285.156,-140.625,77.148
1571285813.136,-169.434,999.512,61.035,-196.777,33.691
1571285813.139,-236.328,999.512,-150.391,-282.715,-19.531
1571285813.143,-267.090,999.512,47.852,-275.879,24.414
1571285813.147,-224.609,999.512,163.574,-208.008,89.355
1571285813.151,-184.082,999.512,-170.898,-192.871,33.203
1571285813.155,-163.086,999.512,-337.891,-207.520,-43.457
1571285813.159,-178.223,999.512,-116.699,-185.059,-14.648
1571285813.163,-154.785,999.512,62.988,-141.113,38.086
1571285813.167,-145.996,999.512,-53.711,-173.340,3.906
1571285813.171,-159.180,999.512,-166.016,-205.566,-50.781
1571285813.175,-203.125,999.512,-51.270,-215.332,-49.316
1571285813.178,-223.633,999.512,125.977,-202.148,14.648
1571285813.182,-168.945,999.512,208.984,-167.969,33.691
1571285813.186,-150.391,999.512,55.664,-185.547,-57.617
1571285813.190,-173.340,999.512,31.250,-200.684,-68.359
1571285813.194,-175.293,999.512,57.129,-166.016,-4.883
1571285813.198,-179.688,999.512,-62.500,-169.434,10.742
1571285813.202,-197.754,999.512,3.906,-212.402,-40.527
1571285813.206,-198.242,999.512,54.688,-218.750,-73.242
1571285813.210,-211.426,999.512,118.652,-206.055,-38.086
1571285813.214,-211.426,999.512,236.816,-187.988,12.695
1571285813.218,-183.594,999.512,220.215,-188.965,-11.719
1571285813.221,-156.250,999.512,58.105,-193.359,-108.398
1571285813.225,-221.680,999.512,62.500,-231.445,-90.820
1571285813.229,-197.266,999.512,312.500,-177.734,7.324
1571285813.233,-157.227,999.512,427.246,-153.320,11.719
1571285813.237,-185.547,999.512,284.668,-206.055,-39.551
1571285813.241,-193.848,999.512,119.141,-204.102,-78.125
1571285813.245,-203.613,999.512,266.113,-172.852,-16.602
1571285813.249,-152.832,999.512,542.969,-134.277,42.480
1571285813.253,-132.812,999.512,554.688,-141.602,-11.719
1571285813.257,-195.312,999.512,174.316,-190.918,-84.961
1571285813.261,-232.910,999.512,307.617,-203.613,-55.176
1571285813.264,-178.223,999.512,872.070,-146.484,46.875
1571285813.268,-148.926,999.512,730.469,-161.133,21.484
1571285813.272,-166.016,999.512,410.645,-190.430,-31.250
1571285813.276,-177.246,999.512,580.566,-161.133,-23.438
1571285813.280,-227.539,999.512,881.836,-208.984,43.457
1571285813.284,-158.203,999.512,791.992,-172.363,38.574
1571285813.288,-149.902,999.512,420.898,-183.105,-45.410
1571285813.292,-211.914,999.512,426.270,-220.215,-23.438
1571285813.296,-165.039,999.512,799.805,-154.297,29.785
1571285813.300,-167.480,999.512,744.629,-184.570,18.066
1571285813.303,-189.941,999.512,354.004,-235.840,-34.668
1571285813.307,-175.781,999.512,483.887,-205.078,-66.406
1571285813.311,-186.035,999.512,797.363,-204.590,-15.137
1571285813.315,-177.734,999.512,789.551,-189.941,18.555
1571285813.319,-172.852,999.512,506.836,-199.219,-49.316
1571285813.323,-171.875,999.512,324.219,-220.703,-86.426
1571285813.327,-109.375,999.512,136.230,-133.301,-35.645
1571285813.331,-70.801,999.512,-456.543,-66.895,-31.738
1571285813.335,-134.766,999.512,-977.539,-162.109,-91.797
1571285813.339,-181.641,999.512,-732.910,-231.445,-138.184
1571285813.343,-139.648,999.512,247.559,-160.645,-88.867
1571285813.346,-127.930,999.512,660.645,-135.742,-15.137
1571285813.350,-188.477,999.512,329.590,-203.125,-18.066
1571285813.354,-181.641,999.512,-194.336,-217.773,-62.500
1571285813.358,-128.418,999.512,-747.070,-150.391,-57.129
1571285813.362,-86.914,999.512,-727.539,-100.586,7.812
1571285813.366,-105.957,999.512,-261.230,-146.484,18.555
1571285813.370,-138.672,999.512,146.973,-190.430,-33.691
1571285813.374,-104.004,999.512,354.004,-143.555,-47.363
1571285813.378,-100.098,999.512,454.590,-108.398,-13.672
1571285813.382,-142.090,999.512,154.785,-150.879,-3.418
1571285813.386,-143.066,999.512,-400.879,-191.895,-45.410
1571285813.389,-96.191,999.512,-750.977,-148.438,-75.684
1571285813.393,-62.012,999.512,-628.418,-92.773,-46.875
1571285813.397,-76.172,999.512,143.066,-81.543,29.297
1571285813.401,-96.191,999.512,526.855,-118.652,-10.742
1571285813.405,-82.031,999.512,330.078,-134.277,-64.941
1571285813.409,-84.961,999.512,276.367,-111.816,-23.438
1571285813.413,-122.070,999.512,241.699,-123.535,-21.484
1571285813.417,-98.145,-1000.000,39.551,-111.328,-23.438
1571285813.421,-42.969,991.211,-192.871,-72.754,-57.617
1571285813.425,-103.027,-996.094,-17.090,-128.418,-47.363
1571285813.428,-92.285,910.156,302.734,-100.586,-30.273
1571285813.432,-38.574,582.031,372.559,-37.109,-37.598
1571285813.436,-95.703,131.836,8.789,-112.305,-11.230
1571285813.440,-92.285,-216.309,-395.020,-125.488,-57.129
1571285813.444,-9.277,-439.941,-181.641,-24.902,-49.805
1571285813.448,28.809,-757.812,-19.043,25.879,5.859
1571285813.452,-51.758,-972.168,-149.414,-72.754,-27.832
1571285813.456,-119.141,-965.820,-11.719,-155.273,-30.762
1571285813.460,-87.891,-966.309,306.152,-97.656,-20.996
1571285813.464,-60.547,-971.680,391.602,-47.363,-20.996
1571285813.468,-26.367,-970.215,268.555,-40.039,-23.926
1571285813.471,-22.949,-970.215,152.832,-57.129,-14.160
1571285813.475,-41.504,-970.215,49.316,-50.781,-22.461
1571285813.479,-50.293,-970.215,87.891,-42.480,12.207
1571285813.483,-83.008,-970.215,107.422,-105.957,25.391
1571285813.487,-53.223,-970.215,271.973,-101.074,-24.902
1571285813.491,-69.336,-970.215,526.367,-95.215,-20.508
1571285813.495,-103.027,-970.215,597.168,-109.375,15.625
1571285813.499,-69.824,-970.215,547.363,-96.191,27.344
1571285813.503,-56.641,-970.215,552.246,-96.680,37.109
1571285813.507,-77.637,-970.215,534.180,-111.816,12.695
1571285813.511,-46.875,-970.215,567.383,-38.574,-9.277
1571285813.514,-46.875,-970.215,694.336,-41.016,-12.695
1571285813.518,-121.094,-970.215,717.773,-166.992,-23.438
1571285813.522,-133.301,-970.215,571.289,-182.129,1.465
1571285813.526,-22.949,-970.215,336.914,-55.664,-0.977
1571285813.530,64.941,-970.215,518.555,44.922,41.992
1571285813.534,-97.656,-970.215,845.703,-121.094,60.547
1571285813.538,-172.363,-970.215,676.758,-220.703,-7.324
1571285813.542,-75.684,-970.215,696.777,-96.680,18.555
1571285813.546,-32.227,-970.215,958.008,-29.297,70.801
1571285813.550,-82.520,-970.215,-969.727,-93.262,36.133
1571285813.553,-106.934,-970.215,800.293,-131.348,0.000
1571285813.557,-65.918,-970.215,629.395,-81.055,-16.113
1571285813.561,-36.621,-970.215,868.652,-31.738,10.254
1571285813.565,-19.531,-970.215,-944.824,-19.531,67.871
1571285813.569,-34.180,-970.215,750.488,-52.734,26.367
1571285813.573,-49.805,-970.215,414.551,-73.730,-18.555
1571285813.577,-28.320,-970.215,709.473,-22.461,16.602
1571285813.581,26.367,-970.215,909.668,44.922,49.316
1571285813.585,-34.180,-970.215,627.441,-49.805,11.719
1571285813.589,-48.828,-970.215,415.039,-83.008,-8.301
1571285813.593,7.324,-970.215,511.719,-12.207,2.441
1571285813.596,-33.203,-970.215,655.762,-32.227,60.547
1571285813.600,-51.270,-970.215,573.242,-51.270,73.730
1571285813.604,-57.129,-970.215,406.250,-84.473,40.039
1571285813.608,-43.457,-970.215,399.902,-61.523,31.250
1571285813.612,16.113,-970.215,328.613,33.203,41.504
1571285813.616,10.254,-970.215,156.738,19.531,62.988
1571285813.620,-53.711,-970.215,29.785,-72.266,11.719
1571285813.624,-27.832,-970.215,176.270,-54.199,6.836
1571285813.628,-1.953,-970.215,374.512,-10.254,61.523
1571285813.632,-14.160,-970.215,259.766,-0.977,61.035
1571285813.636,-33.203,-970.215,176.270,-37.109,7.324
1571285813.639,-50.293,-970.215,250.488,-76.172,-11.719
1571285813.643,-45.898,-970.703,303.711,-43.945,52.246
1571285813.647,-16.113,-968.750,359.375,6.348,113.770
1571285813.651,-22.949,-968.262,318.359,-21.973,83.984
1571285813.655,-59.570,-974.121,165.527,-72.266,29.785
1571285813.659,-17.578,-895.020,59.082,-7.324,36.621
1571285813.663,-23.926,-817.871,66.406,-12.695,114.258
1571285813.667,-55.664,-841.797,75.684,-65.430,125.000
1571285813.671,-54.199,-782.227,-64.453,-70.312,36.133
1571285813.675,-14.160,-664.551,-125.000,-14.648,37.598
1571285813.678,13.184,-656.250,-29.297,27.344,110.352
1571285813.682,-40.039,-722.168,237.305,-37.598,140.137
1571285813.686,-71.289,-814.941,201.172,-91.309,86.914
1571285813.690,-54.199,-862.793,-50.293,-62.012,29.297
1571285813.694,-14.648,-741.211,73.730,12.695,90.820
1571285813.698,-3.418,-579.590,278.320,14.160,138.672
1571285813.702,-12.207,-593.262,214.355,-28.809,122.559
1571285813.706,-23.926,-649.902,19.043,-57.617,87.402
1571285813.710,-37.109,-676.270,-54.688,-44.922,99.121
1571285813.714,-34.668,-665.527,10.254,-26.367,154.297
1571285813.718,-16.113,-639.160,42.969,-32.715,140.137
1571285813.721,20.996,-694.824,-300.293,-11.230,84.473
1571285813.725,20.508,-667.969,-368.164,9.277,84.473
1571285813.729,-63.965,-674.316,52.246,-43.945,138.184
1571285813.733,-49.805,-764.648,-5.371,-49.316,123.047
1571285813.737,-11.719,-751.465,-219.727,-42.969,64.453
1571285813.741,-1.953,-654.297,-210.449,-15.137,24.414
1571285813.745,-19.531,-680.664,-40.039,-1.953,88.867
1571285813.749,-32.227,-730.469,-76.660,-16.113,131.348
1571285813.753,-53.711,-744.629,-230.469,-72.754,95.215
1571285813.757,-62.012,-801.270,-346.191,-79.102,77.148
1571285813.761,-27.344,-808.105,-369.141,-22.949,92.773
1571285813.764,-62.500,-854.492,-380.371,-62.500,120.605
1571285813.768,-104.980,-841.797,-605.957,-112.305,86.914
1571285813.772,-84.473,-749.023,-513.672,-108.887,60.059
1571285813.776,-42.969,-749.512,-338.867,-37.598,73.730
1571285813.780,-77.148,-776.855,-371.582,-57.617,127.441
1571285813.784,-82.031,-749.512,-404.785,-86.426,131.348
1571285813.788,-112.793,-761.230,-452.148,-122.070,51.270
1571285813.792,-151.855,-818.359,-418.945,-145.996,68.359
1571285813.796,-82.520,-750.977,-260.742,-63.477,154.785
1571285813.800,-79.102,-699.707,-238.281,-82.520,134.766
1571285813.803,-77.637,-703.125,-356.934,-103.027,78.613
1571285813.807,-58.105,-681.641,-406.250,-67.383,72.754
1571285813.811,-2.930,-636.719,-443.848,8.789,118.652
1571285813.815,-23.926,-622.559,-391.113,-10.742,133.789
1571285813.819,-106.934,-621.582,-189.941,-122.070,99.121
1571285813.823,-57.617,-566.895,-258.301,-75.195,64.941
1571285813.827,5.371,-522.949,-186.523,11.719,130.371
1571285813.831,-12.695,-426.758,51.758,6.836,188.477
1571285813.835,-66.406,-381.348,-23.438,-62.012,125.488
1571285813.839,-58.105,-318.848,-305.176,-76.660,50.293
1571285813.843,1.953,-148.438,-157.715,-6.836,85.449
1571285813.846,-2.441,-100.586,171.875,8.301,161.621
1571285813.850,-13.184,-107.910,82.031,-12.207,140.137
1571285813.854,8.301,-67.383,-244.629,-14.648,45.898
1571285813.858,15.625,27.344,-334.961,5.859,36.133
1571285813.862,5.859,132.812,69.336,19.531,131.836
1571285813.866,35.156,157.715,353.516,39.551,178.711
1571285813.870,64.941,193.848,146.973,41.504,124.023
1571285813.874,29.785,270.020,-72.754,18.066,49.316
1571285813.878,-4.395,305.176,157.715,6.836,109.863
1571285813.882,2.930,289.062,268.066,6.348,150.391
1571285813.886,41.504,346.191,151.855,25.879,124.023
1571285813.889,60.059,384.766,135.254,45.898,108.887
1571285813.893,19.531,330.078,120.117,29.297,107.910
1571285813.897,-1.465,349.609,88.867,16.113,148.438
1571285813.901,31.250,344.727,-238.281,17.090,94.238
1571285813.905,72.266,385.742,-350.586,40.527,30.273
1571285813.909,71.289,529.785,123.047,65.430,101.074
1571285813.913,27.832,561.035,238.770,38.086,151.367
1571285813.917,-0.977,559.570,85.449,0.488,122.070
1571285813.921,18.066,603.027,30.762,-9.766,68.848
1571285813.925,44.434,558.594,83.496,27.832,76.660
1571285813.928,76.660,524.414,125.488,86.426,147.461
1571285813.932,40.039,510.742,66.406,42.969,156.738
1571285813.936,-12.207,464.355,-20.020,-37.109,92.285
1571285813.940,56.641,475.586,-73.242,28.809,55.176
1571285813.944,88.379,474.121,-172.852,94.238,93.262
1571285813.948,20.508,450.684,-408.203,29.785,119.629
1571285813.952,-4.395,491.211,-347.656,-24.414,97.656
1571285813.956,7.324,512.695,-205.566,-17.090,65.918
1571285813.960,3.906,546.387,-214.355,9.277,105.957
1571285813.964,35.156,564.941,-175.293,36.133,162.109
1571285813.968,83.496,593.750,-134.277,56.152,157.227
1571285813.971,77.148,638.672,-289.062,34.668,93.262
1571285813.975,22.949,629.395,-375.000,-3.906,97.656
1571285813.979,-13.184,656.738,-246.582,-9.766,162.109
1571285813.983,-11.719,638.184,-211.914,-28.809,130.859
1571285813.987,21.484,604.492,-273.926,-13.672,73.242
1571285813.991,50.293,580.566,-374.512,33.691,62.500
1571285813.995,44.434,547.363,-239.746,39.551,145.508
1571285813.999,1.953,474.121,-92.285,-4.883,161.621
1571285814.003,-38.574,376.953,-278.809,-70.801,63.965
1571285814.007,-17.578,327.148,-674.316,-49.805,15.625
1571285814.011,22.949,337.891,-569.336,13.184,80.566
1571285814.014,24.414,310.547,-167.969,14.648,134.766
1571285814.018,6.348,240.723,-297.852,-25.391,83.008
1571285814.022,1.465,173.340,-417.969,-43.945,53.711
1571285814.026,16.602,167.480,-258.789,-6.836,71.777
1571285814.030,48.828,170.898,-62.988,45.410,123.535
1571285814.034,30.762,192.383,-110.840,11.230,127.441
1571285814.038,-5.859,208.984,-389.648,-33.691,48.828
1571285814.042,-25.391,123.047,-498.535,-30.762,27.832
1571285814.046,-14.160,83.496,-307.617,-14.160,106.445
1571285814.050,1.465,26.367,-374.023,-14.160,107.422
1571285814.053,10.742,21.973,-752.930,-10.254,5.859
1571285814.057,11.719,63.477,-537.598,3.906,17.090
1571285814.061,21.973,7.812,-192.871,29.785,117.676
1571285814.065,55.176,14.160,-221.191,61.035,150.391
1571285814.069,7.812,0.000,-331.055,-16.602,82.520
1571285814.073,-32.715,-59.570,-343.262,-61.523,40.039
1571285814.077,-20.020,-130.371,-247.559,-33.691,104.004
1571285814.081,-0.977,-208.008,-229.980,-10.742,157.227
1571285814.085,20.508,-205.566,-410.645,16.113,108.887
1571285814.089,58.594,-173.340,-506.836,31.738,62.988
1571285814.093,32.227,-217.773,-403.320,20.508,91.797
1571285814.096,-9.277,-318.359,-492.188,-6.836,133.301
1571285814.100,0.488,-314.941,-476.562,-27.832,133.301
1571285814.104,7.812,-319.824,-293.457,-35.156,78.613
1571285814.108,11.719,-366.211,-357.422,-16.602,58.594
1571285814.112,12.695,-367.676,-294.922,2.441,132.812
1571285814.116,11.719,-417.480,-96.680,-2.930,182.129
1571285814.120,13.184,-448.242,-179.199,-30.273,137.695
1571285814.124,18.066,-434.570,-379.395,-23.926,76.172
1571285814.128,40.527,-456.543,-288.086,27.832,116.699
1571285814.132,70.312,-444.824,-271.973,61.035,163.086
1571285814.136,84.473,-371.582,-395.996,52.734,108.887
1571285814.139,84.961,-393.555,-576.660,42.969,33.691
1571285814.143,44.922,-409.668,-706.543,40.039,52.734
1571285814.147,-10.254,-351.074,-341.797,5.371,138.184
1571285814.151,-14.160,-343.750,-149.902,-30.762,137.695
1571285814.155,10.254,-315.918,-397.461,-26.367,53.223
1571285814.159,37.598,-247.070,-375.000,21.484,61.035
1571285814.163,48.828,-207.031,-104.492,54.688,134.766
1571285814.167,42.480,-181.152,-98.145,30.762,125.000
1571285814.171,40.527,-170.410,-343.750,4.883,28.809
1571285814.175,41.016,-161.133,-340.820,13.184,24.414
1571285814.178,22.461,-143.066,-195.801,24.902,110.840
1571285814.182,17.090,-157.715,-187.012,16.113,127.441
1571285814.186,39.551,-195.801,-471.680,13.184,30.762
1571285814.190,18.066,-195.312,-531.250,-18.555,-17.578
1571285814.194,19.531,-167.969,-32.715,8.789,80.566
1571285814.198,41.016,-168.945,60.547,57.129,120.117
1571285814.202,14.648,-242.188,-136.719,-9.277,65.918
1571285814.206,-2.441,-329.590,-106.934,-50.781,59.082
1571285814.210,39.062,-370.117,37.109,38.574,104.980
1571285814.214,91.309,-436.523,-1.465,88.379,127.930
1571285814.218,96.191,-477.051,-116.211,61.523,93.262
1571285814.221,68.848,-492.188,-144.043,52.734,41.016
1571285814.225,37.598,-516.602,-202.637,49.316,37.598
1571285814.229,26.367,-535.645,-255.371,38.574,91.309
1571285814.233,16.113,-554.688,-328.125,-2.441,92.285
1571285814.237,25.879,-547.363,-210.449,-8.301,52.734
1571285814.241,33.691,-540.039,-45.898,20.508,54.199
1571285814.245,30.273,-550.781,-61.035,37.598,123.047
1571285814.249,39.551,-574.219,-134.766,37.598,128.906
1571285814.253,34.180,-588.379,-177.734,9.277,50.781
1571285814.257,8.789,-604.980,-210.449,-4.395,41.016
1571285814.261,28.320,-616.699,-187.988,39.062,104.004
1571285814.264,66.406,-619.141,-168.457,74.707,136.230
1571285814.268,37.598,-649.414,-226.562,18.555,90.332
1571285814.272,35.645,-616.699,-403.809,3.418,43.457
1571285814.276,41.504,-591.309,-662.109,28.320,55.664
1571285814.280,62.012,-546.875,-519.531,62.012,134.766
1571285814.284,35.645,-530.273,-219.727,14.160,145.020
1571285814.288,-14.648,-641.113,-471.191,-49.316,58.594
1571285814.292,12.695,-681.152,-668.457,-5.859,47.852
1571285814.296,73.242,-641.113,-517.578,75.195,113.770
1571285814.300,70.312,-636.230,-395.996,67.383,125.488
1571285814.303,17.090,-735.352,-597.656,-9.277,48.340
1571285814.307,18.066,-765.137,-668.457,-3.906,41.992
1571285814.311,54.688,-677.246,-365.234,46.387,118.652
1571285814.315,56.641,-669.434,-191.895,54.688,146.973
1571285814.319,46.875,-653.809,-434.570,18.555,96.191
1571285814.323,40.527,-591.309,-760.742,0.000,38.574
1571285814.327,42.969,-594.727,-449.707,35.156,99.609
1571285814.331,58.594,-607.422,-190.918,51.270,147.461
1571285814.335,39.062,-595.703,-376.465,9.766,103.027
1571285814.339,13.672,-609.375,-520.020,-20.020,37.109
1571285814.343,-3.418,-605.469,-390.625,-12.695,38.086
1571285814.346,22.949,-611.328,-290.039,33.691,89.844
1571285814.350,48.340,-630.371,-363.770,51.270,58.594
1571285814.354,23.926,-661.133,-392.090,-3.906,14.648
1571285814.358,41.992,-658.203,-248.047,15.625,58.105
1571285814.362,62.012,-610.840,-92.773,65.430,132.324
1571285814.366,25.391,-590.332,-199.219,20.996,131.348
1571285814.370,45.898,-538.086,-411.133,22.461,56.152
1571285814.374,79.590,-471.191,-295.898,64.453,32.715
1571285814.378,29.297,-512.207,-5.859,35.645,108.887
1571285814.382,14.160,-557.129,-289.062,13.184,98.145
1571285814.386,11.230,-499.023,-432.617,-3.906,37.109
1571285814.389,-20.996,-524.414,-163.574,-39.551,26.855
1571285814.393,29.785,-569.824,-137.207,24.902,57.617
1571285814.397,68.848,-537.598,-83.984,78.613,107.422
1571285814.401,26.367,-532.715,-116.211,15.137,86.426
1571285814.405,2.930,-548.828,-269.531,-28.320,17.090
1571285814.409,10.742,-501.465,-204.590,1.953,45.410
1571285814.413,65.918,-490.234,-160.156,71.777,119.141
1571285814.417,71.777,-507.812,-225.586,64.453,95.703
1571285814.421,4.395,-507.324,-233.887,-22.949,24.902
1571285814.425,-5.859,-539.551,-322.754,-23.926,16.113
1571285814.428,31.738,-596.191,-429.199,31.738,67.383
1571285814.432,72.754,-633.301,-192.871,71.289,94.238
1571285814.436,62.012,-636.719,-159.180,47.363,37.109
1571285814.440,-6.836,-646.973,-330.566,-26.855,3.418
1571285814.444,27.832,-592.773,-211.914,26.855,68.848
1571285814.448,61.523,-561.035,-60.059,59.570,100.098
1571285814.452,25.879,-593.750,-149.414,5.371,55.664
1571285814.456,-3.418,-594.238,-291.504,-26.367,14.648
1571285814.460,-3.418,-575.684,-279.785,-2.930,61.035
1571285814.464,29.297,-548.828,-209.961,44.434,114.746
1571285814.468,44.434,-583.984,-271.973,38.574,67.871
1571285814.471,20.020,-687.012,-604.980,-5.859,-8.789
1571285814.475,17.090,-665.527,-533.691,0.488,23.438
1571285814.479,28.320,-601.562,-36.621,29.785,119.141
1571285814.483,10.254,-619.141,-60.547,13.184,97.656
1571285814.487,79.102,-558.594,-257.324,67.871,19.043
1571285814.491,86.914,-538.574,-143.066,81.055,21.484
1571285814.495,-44.434,-633.789,49.316,-34.668,102.051
1571285814.499,-50.781,-607.910,17.090,-46.875,126.465
1571285814.503,-20.508,-608.398,-164.551,-39.551,41.016
1571285814.507,19.043,-605.469,-280.762,-7.324,0.488
1571285814.511,42.480,-535.645,-99.121,38.086,71.777
1571285814.514,56.641,-551.758,31.738,65.918,125.000
1571285814.518,81.055,-571.289,-207.520,65.918,64.453
1571285814.522,33.691,-570.312,-114.258,-6.836,12.695
1571285814.526,10.254,-596.191,136.230,-0.977,53.223
1571285814.530,23.438,-602.539,182.129,29.297,118.164
1571285814.534,41.016,-598.633,72.754,22.461,70.801
1571285814.538,47.363,-571.777,41.016,3.906,3.418
1571285814.542,26.855,-622.559,97.168,-1.465,22.949
1571285814.546,30.762,-652.344,141.602,31.738,71.289
1571285814.550,51.270,-598.145,189.453,39.551,88.867
1571285814.553,91.797,-591.309,-7.324,64.941,6.348
1571285814.557,69.824,-627.930,-175.293,44.434,-39.062
1571285814.561,50.293,-648.438,-229.492,42.480,38.574
1571285814.565,46.875,-668.945,-168.945,40.527,89.844
1571285814.569,16.113,-715.332,-28.809,-25.391,43.457
1571285814.573,76.660,-718.262,-231.445,21.973,0.000
1571285814.577,82.520,-680.664,-218.750,75.684,49.316
1571285814.581,27.832,-710.449,-8.301,36.133,94.727
1571285814.585,38.086,-719.727,-23.438,2.930,56.641
1571285814.589,62.012,-667.480,-172.852,24.414,15.625
1571285814.593,44.434,-626.465,-153.809,41.504,36.133
1571285814.596,31.738,-601.562,57.617,32.227,90.820
1571285814.600,45.410,-635.742,17.090,31.250,90.332
1571285814.604,49.316,-667.969,-261.719,12.207,19.531
1571285814.608,89.844,-617.676,-238.281,41.992,9.766
1571285814.612,101.074,-604.492,107.910,84.473,104.492
1571285814.616,55.176,-678.711,231.445,56.641,132.812
1571285814.620,64.941,-695.801,-130.371,40.527,32.227
1571285814.624,50.293,-698.242,-364.746,10.742,5.859
1571285814.628,4.395,-739.746,-116.699,-10.254,75.195
1571285814.632,16.602,-793.945,0.488,8.789,118.164
1571285814.636,36.621,-816.406,-131.836,6.348,60.547
1571285814.639,48.340,-803.223,-246.094,0.977,-2.930
1571285814.643,84.473,-805.664,-46.387,65.430,66.895
1571285814.647,70.312,-829.102,20.020,91.797,132.812
1571285814.651,33.691,-876.953,-396.484,36.133,56.641
1571285814.655,59.570,-850.586,-608.887,17.090,-33.691
1571285814.659,22.461,-784.180,-238.770,-2.441,14.160
1571285814.663,-12.207,-790.527,-19.531,-3.418,121.094
1571285814.667,17.090,-778.320,-130.859,2.441,100.098
1571285814.671,-1.465,-761.230,-210.449,-21.973,30.762
1571285814.675,-37.598,-788.574,-136.230,-24.902,42.969
1571285814.678,-3.418,-798.828,-105.957,12.207,106.445
1571285814.682,41.016,-776.367,-175.293,38.086,118.652
1571285814.686,3.906,-771.484,-350.586,-14.648,44.434
1571285814.690,-35.156,-799.805,-398.926,-59.082,8.301
1571285814.694,8.789,-831.543,-387.207,10.742,67.383
1571285814.698,30.762,-828.125,-503.418,42.480,111.816
1571285814.702,21.484,-821.289,-379.883,5.859,63.965
1571285814.706,-15.625,-860.840,-290.039,-32.715,13.184
1571285814.710,-32.715,-859.863,-292.969,-18.066,58.105
1571285814.714,-12.207,-837.402,-227.539,0.488,104.004
1571285814.718,-6.348,-852.051,-199.219,-16.602,78.613
1571285814.721,1.465,-882.812,-260.254,-23.438,18.555
1571285814.725,9.277,-868.652,-264.160,0.000,14.648
1571285814.729,-5.859,-846.680,-93.750,-1.953,86.914
1571285814.733,-12.695,-829.590,53.711,-26.367,99.121
1571285814.737,20.020,-774.902,-35.156,-14.160,20.508
1571285814.741,27.832,-715.820,-129.883,6.836,13.184
1571285814.745,-5.859,-735.840,-41.504,-16.602,76.660
1571285814.749,1.465,-736.328,76.660,-21.973,84.473
1571285814.753,37.109,-710.938,155.762,1.953,47.852
1571285814.757,45.410,-702.637,-74.707,9.277,-10.742
1571285814.761,-15.137,-699.219,-36.133,-31.250,20.020
1571285814.764,-16.113,-736.816,324.707,-28.809,105.469
1571285814.768,35.156,-733.398,189.941,5.371,59.082
1571285814.772,28.809,-722.168,2.930,-5.371,-2.441
1571285814.776,12.695,-731.445,268.555,-8.301,72.266
1571285814.780,13.184,-738.770,512.207,6.348,141.602
1571285814.784,27.344,-717.773,367.676,19.043,86.914
1571285814.788,6.348,-728.516,125.000,-9.277,16.602
1571285814.792,-42.969,-749.512,103.027,-34.668,20.020
1571285814.796,-35.645,-731.445,370.117,-10.254,103.027
1571285814.800,-7.812,-773.438,250.000,-9.277,91.309
1571285814.803,29.785,-779.785,-140.137,-0.977,-9.277
1571285814.807,47.852,-755.859,125.977,31.738,19.043
1571285814.811,33.203,-781.250,487.793,50.781,127.930
1571285814.815,24.414,-794.434,394.531,29.297,125.977
1571285814.819,-3.418,-816.895,188.477,-21.484,22.461
1571285814.823,-16.113,-823.730,200.195,-31.250,-16.602
1571285814.827,13.184,-787.598,376.953,21.484,60.547
1571285814.831,33.203,-753.906,408.691,54.199,97.656
1571285814.835,13.184,-750.488,222.168,5.859,47.363
1571285814.839,-0.977,-750.488,90.332,-18.066,-3.906
1571285814.843,30.762,-715.820,286.133,43.457,37.598
1571285814.846,54.688,-691.895,280.762,70.801,90.332
1571285814.850,62.988,-695.801,240.234,45.898,56.641
1571285814.854,67.871,-674.316,355.957,37.598,-6.348
1571285814.858,29.297,-642.090,244.141,24.902,-20.508
1571285814.862,32.227,-668.945,323.242,39.062,41.992
1571285814.866,29.785,-707.031,441.406,17.090,70.801
1571285814.870,21.973,-704.590,367.676,-18.555,20.020
1571285814.874,66.406,-683.105,258.789,34.180,0.977
1571285814.878,46.387,-699.219,362.793,55.176,69.824
1571285814.882,8.789,-749.512,402.344,9.766,104.980
1571285814.886,42.969,-719.238,238.770,19.531,35.156
1571285814.889,63.965,-695.312,114.746,41.504,-20.020
1571285814.893,38.574,-717.285,106.934,40.527,13.672
1571285814.897,29.785,-697.266,500.488,39.062,84.961
1571285814.901,25.879,-735.352,688.965,7.324,52.734
1571285814.905,27.344,-778.809,580.078,0.000,1.465
1571285814.909,68.848,-749.512,685.059,63.965,20.996
1571285814.913,55.176,-746.582,838.867,63.477,69.336
1571285814.917,13.672,-764.648,844.238,10.254,57.617
1571285814.921,23.926,-750.488,786.133,0.000,6.836
1571285814.925,34.668,-732.910,877.930,24.414,22.461
1571285814.928,51.270,-701.660,-997.559,55.664,90.332
1571285814.932,59.082,-654.297,-971.191,54.199,95.703
1571285814.936,47.852,-650.879,835.938,28.320,-3.906
1571285814.940,61.523,-639.160,791.992,46.387,-38.574
1571285814.944,53.711,-635.254,-981.934,65.430,67.871
1571285814.948,46.387,-687.500,999.512,52.246,98.633
1571285814.952,55.176,-692.383,994.141,26.855,13.672
1571285814.956,39.551,-653.320,-1000.000,17.090,-29.785
1571285814.960,35.645,-634.766,999.512,43.457,49.316
1571285814.964,43.457,-615.723,999.512,60.547,112.793
1571285814.968,31.250,-601.074,999.512,33.203,85.449
1571285814.971,25.879,-594.238,999.512,16.113,41.992
1571285814.975,23.926,-597.168,999.512,39.062,83.496
1571285814.979,26.855,-633.301,999.512,61.035,175.781
1571285814.983,20.508,-644.531,999.512,38.086,154.785
1571285814.987,-0.977,-615.234,999.512,-6.836,97.168
1571285814.991,0.977,-587.402,999.512,0.977,122.070
1571285814.995,13.672,-538.574,999.512,27.344,181.641
1571285814.999,7.812,-500.977,999.512,23.926,208.496
1571285815.003,-7.324,-495.605,999.512,-7.812,178.223
1571285815.007,-12.207,-488.770,-998.535,-18.555,146.973
1571285815.011,-9.766,-474.121,987.793,14.160,180.176
1571285815.014,-13.672,-451.660,-994.141,25.391,244.141
1571285815.018,-11.230,-455.566,932.617,-8.301,220.703
1571285815.022,-7.324,-466.309,544.434,-14.160,167.969
1571285815.026,-7.324,-464.355,13.672,18.066,175.293
1571285815.030,-12.207,-455.078,-115.723,19.531,216.309
1571285815.034,-27.832,-474.609,-55.176,-14.648,209.961
1571285815.038,-26.855,-511.719,-402.344,-39.062,146.484
1571285815.042,-32.715,-491.211,-707.520,-23.926,137.207
1571285815.046,-27.344,-352.539,-671.875,12.695,203.125
1571285815.050,-18.066,89.355,-728.027,-2.930,217.285
1571285815.053,-19.043,469.727,-929.199,-40.527,139.648
1571285815.057,-14.160,371.094,-975.586,-36.621,100.098
1571285815.061,-15.625,149.902,-964.355,-8.301,157.227
1571285815.065,-16.602,-31.250,-970.703,-5.371,186.035
1571285815.069,-18.555,-158.691,-970.215,-29.297,122.559
1571285815.073,-19.531,-24.902,-970.215,-44.434,47.363
1571285815.077,-20.508,622.070,-970.215,-37.109,95.703
1571285815.081,-0.488,-967.285,-970.215,-31.250,162.598
1571285815.085,-2.930,980.957,-970.215,-61.035,87.402
1571285815.089,-24.414,997.559,-970.215,-78.125,23.926
1571285815.093,-18.066,965.820,-970.215,-48.828,88.867
1571285815.096,16.113,-941.895,-970.215,-19.531,176.270
1571285815.100,26.855,743.652,-970.215,-24.414,130.859
1571285815.104,3.906,-247.559,-970.215,-45.898,61.035
1571285815.108,9.277,284.180,-970.215,-21.973,70.801
1571285815.112,30.273,929.199,-970.215,17.090,116.699
1571285815.116,39.551,-280.762,-970.215,13.184,143.555
1571285815.120,33.203,-1000.000,-970.215,-19.043,79.102
1571285815.124,24.902,-957.031,-970.215,-14.160,21.484
1571285815.128,45.898,-844.727,-970.215,30.762,77.637
1571285815.132,44.922,-1000.000,-970.215,38.574,78.613
1571285815.136,20.996,-454.590,-970.215,-12.695,58.594
1571285815.139,20.020,858.398,-970.215,-30.273,42.480
1571285815.143,54.688,-966.309,-970.215,8.301,48.340
1571285815.147,63.477,151.367,-970.215,26.855,101.562
1571285815.151,42.969,-854.980,-970.215,8.789,58.594
1571285815.155,41.504,-887.695,-970.215,-5.859,-18.066
1571285815.159,46.387,-932.617,-970.215,14.160,10.742
1571285815.163,62.012,-985.352,-970.215,40.039,80.078
1571285815.167,74.219,-965.332,-970.215,22.949,47.363
1571285815.171,71.289,-969.238,-970.215,1.465,-9.766
1571285815.175,60.059,-971.680,-970.215,22.949,18.066
1571285815.178,52.246,-971.191,-970.215,43.457,81.543
1571285815.182,57.617,-937.012,-970.215,42.969,104.980
1571285815.186,62.012,-956.055,-970.215,20.508,58.105
1571285815.190,63.965,-976.074,-970.215,11.230,17.090
1571285815.194,80.078,-967.285,-970.215,38.086,64.453
1571285815.198,66.406,-971.191,-970.215,41.992,129.883
1571285815.202,48.340,-970.703,-970.215,18.066,86.914
1571285815.206,40.039,-962.402,-970.215,15.137,46.387
1571285815.210,40.039,-993.652,-970.215,33.691,103.516
1571285815.214,60.547,-871.094,-970.215,28.320,167.480
1571285815.218,66.406,-844.727,-970.215,6.836,140.625
1571285815.221,54.199,-986.328,-970.215,13.672,64.941
1571285815.225,45.410,-968.262,-970.215,37.109,64.941
1571285815.229,61.035,-969.238,-970.215,62.012,157.227
1571285815.233,73.730,-970.215,-970.215,55.176,175.293
1571285815.237,67.871,-917.480,-970.215,24.414,112.793
1571285815.241,70.312,-1000.000,-970.215,48.828,143.555
1571285815.245,88.379,-309.082,-970.215,90.820,233.887
1571285815.249,95.215,956.543,-970.215,79.590,260.742
1571285815.253,100.098,929.688,-970.215,37.109,196.289
1571285815.257,105.957,-996.582,-970.215,48.340,183.105
1571285815.261,99.609,656.738,-970.215,104.492,253.906
1571285815.264,115.234,-627.930,-970.215,111.816,276.855
1571285815.268,121.094,-1000.000,-970.215,82.520,208.496
1571285815.272,115.234,-294.922,-970.215,77.148,179.688
1571285815.276,130.371,984.863,-970.215,111.816,236.816
1571285815.280,147.461,-988.281,-970.215,132.812,281.738
1571285815.284,160.645,959.473,-970.215,121.582,275.391
1571285815.288,169.434,-990.234,-970.215,114.258,223.633
1571285815.292,180.664,999.512,-970.215,143.555,220.215
1571285815.296,178.223,999.512,-970.215,187.988,291.016
1571285815.300,183.105,999.512,-970.215,175.293,317.383
1571285815.303,194.824,999.512,-970.215,131.836,279.297
1571285815.307,213.867,999.512,-970.215,152.832,261.719
1571285815.311,231.934,999.512,-970.215,200.684,287.598
1571285815.315,231.445,999.512,-970.215,190.430,315.918
1571285815.319,231.445,-999.512,-970.215,162.598,312.012
1571285815.323,243.164,998.047,-970.215,167.480,268.066
1571285815.327,247.070,952.637,-970.215,199.219,291.992
1571285815.331,232.422,-915.039,-970.215,212.891,337.402
1571285815.335,240.723,384.277,-970.215,185.547,340.332
1571285815.339,258.789,-765.625,-970.215,185.547,301.758
1571285815.343,265.625,-1000.000,-970.215,216.797,315.430
1571285815.346,255.859,-167.969,-970.215,229.492,373.047
1571285815.350,242.188,-833.496,-970.215,209.473,330.566
1571285815.354,238.770,479.004,-970.215,187.988,261.230
1571285815.358,229.980,-885.254,-970.215,195.312,268.066
1571285815.362,244.141,-999.512,-970.215,222.168,332.031
1571285815.366,258.301,-923.828,-970.215,212.891,322.754
1571285815.370,243.652,-980.957,-970.215,171.875,235.840
1571285815.374,232.910,-970.215,-970.215,188.477,218.750
1571285815.378,227.051,-970.215,-970.215,208.496,298.828
1571285815.382,223.145,-970.215,-970.215,182.617,324.219
1571285815.386,212.402,-970.215,-970.215,148.438,269.043
1571285815.389,201.660,-970.215,-970.215,139.160,224.121
1571285815.393,205.078,-970.215,-970.215,170.410,233.398
1571285815.397,219.727,-970.215,-970.215,198.730,288.574
1571285815.401,213.867,-970.215,-970.215,166.504,238.770
1571285815.405,195.312,-970.215,-970.215,124.512,160.645
1571285815.409,179.199,-969.727,-970.215,147.949,208.496
1571285815.413,193.359,-970.215,-970.215,179.199,242.188
1571285815.417,200.684,-970.215,-970.215,155.762,204.590
1571285815.421,181.641,-970.215,-970.215,128.418,170.898
1571285815.425,174.316,-970.215,-970.215,138.672,153.809
1571285815.428,179.688,-970.215,-970.215,166.992,196.289
1571285815.432,183.594,-969.727,-970.215,158.203,188.965
1571285815.436,173.828,-971.680,-970.215,112.793,129.395
1571285815.440,180.664,-965.332,-970.215,114.746,103.027
1571285815.444,183.105,-940.430,-970.215,155.762,81.543
1571285815.448,173.828,-1000.000,-970.215,146.973,96.680
1571285815.452,174.805,-501.953,-970.215,114.746,79.590
1571285815.456,180.176,235.352,-970.215,114.746,67.871
1571285815.460,179.688,-117.676,-970.215,143.555,93.750
1571285815.464,178.711,-796.875,-970.215,162.109,92.285
1571285815.468,183.105,-978.516,-970.215,128.418,30.762
1571285815.471,186.035,-954.590,-970.215,106.445,-26.855
1571285815.475,187.988,-968.750,-970.215,119.629,-18.066
1571285815.479,187.500,-971.191,-969.727,132.812,15.625
1571285815.483,176.758,-970.215,-970.215,116.699,1.953
1571285815.487,182.617,-970.215,-970.215,94.238,-53.711
1571285815.491,175.293,-970.215,-970.215,106.445,-57.129
1571285815.495,154.297,-970.215,-970.215,123.047,-6.348
1571285815.499,160.156,-970.215,-970.215,116.699,37.598
1571285815.503,165.527,-970.215,-970.215,93.750,-33.691
1571285815.507,153.320,-970.215,-970.215,78.125,-112.305
1571285815.511,140.625,-970.215,-970.215,100.098,-48.340
1571285815.514,143.555,-970.215,-970.215,112.793,-5.859
1571285815.518,150.391,-970.215,-970.215,82.520,-54.199
1571285815.522,139.648,-970.215,-970.215,75.195,-108.398
1571285815.526,129.395,-970.215,-970.215,95.703,-93.262
1571285815.530,135.254,-970.215,-970.215,104.980,-42.480
1571285815.534,149.414,-970.215,-970.215,78.125,-86.426
1571285815.538,148.438,-970.215,-970.215,51.758,-172.852
1571285815.542,135.254,-970.215,-970.215,72.754,-158.203
1571285815.546,142.090,-970.215,-970.215,101.074,-59.570
1571285815.550,154.297,-970.215,-970.215,86.426,-61.523
1571285815.553,149.902,-970.215,-970.215,49.805,-153.320
1571285815.557,138.184,-970.215,-970.215,66.406,-177.734
1571285815.561,127.930,-970.215,-970.215,95.703,-105.957
1571285815.565,134.277,-970.215,-970.215,100.098,-56.152
1571285815.569,147.949,-970.215,-970.215,78.125,-113.281
1571285815.573,144.531,-970.215,-970.215,75.195,-136.230
1571285815.577,126.465,-969.727,-970.215,108.398,-88.379
1571285815.581,126.465,-970.215,-970.215,116.211,-66.406
1571285815.585,130.371,-970.215,-970.215,83.008,-103.027
1571285815.589,124.023,-970.215,-970.215,63.965,-133.789
1571285815.593,110.840,-970.215,-970.215,82.520,-102.539
1571285815.596,101.074,-970.215,-970.215,96.680,-69.824
1571285815.600,104.492,-970.215,-970.215,66.895,-83.984
1571285815.604,109.863,-970.215,-970.215,39.551,-115.723
1571285815.608,110.352,-970.215,-970.215,68.848,-106.445
1571285815.612,105.469,-970.215,-970.215,98.145,-38.086
1571285815.616,115.234,-970.215,-970.215,80.566,-26.855
1571285815.620,127.441,-970.215,-970.215,62.012,-81.055
1571285815.624,120.605,-970.215,-970.215,80.566,-58.594
1571285815.628,117.676,-970.215,-970.215,106.934,1.465
1571285815.632,125.488,-970.215,-970.215,106.934,-21.973
1571285815.636,137.695,-970.215,-970.215,87.891,-30.762
1571285815.639,137.207,-970.215,-970.215,97.168,-10.742
1571285815.643,109.375,-970.215,-970.215,108.398,2.930
1571285815.647,102.539,-970.215,-970.215,103.516,56.152
1571285815.651,131.348,-970.215,-970.215,105.469,51.270
1571285815.655,134.766,-970.215,-969.727,94.727,16.602
1571285815.659,123.047,-969.727,-970.215,103.516,41.992
1571285815.663,116.699,-970.215,-970.215,110.352,94.238
1571285815.667,122.070,-970.215,-970.215,102.051,81.543
1571285815.671,136.230,-970.215,-970.215,96.680,32.227
1571285815.675,126.953,-970.215,-970.215,114.258,33.691
1571285815.678,123.535,-970.215,-970.215,140.625,96.191
1571285815.682,140.137,-970.215,-969.727,132.812,99.121
1571285815.686,161.133,-970.215,-970.215,116.211,58.594
1571285815.690,152.344,-970.215,-970.215,111.328,60.547
1571285815.694,116.211,-970.215,-970.215,118.164,109.863
1571285815.698,120.117,-970.215,-970.215,118.652,102.051
1571285815.702,139.648,-970.215,-970.215,100.586,26.367
1571285815.706,135.254,-969.727,-970.215,95.703,-6.836
1571285815.710,124.023,-970.215,-970.215,108.887,30.273
1571285815.714,126.465,-970.215,-970.215,118.652,27.344
1571285815.718,144.531,-970.215,-970.215,101.074,-8.301
1571285815.721,151.855,-970.215,-970.215,91.309,-19.043
1571285815.725,140.137,-970.215,-970.215,112.793,-49.805
1571285815.729,131.348,-970.215,-970.703,122.559,-77.148
1571285815.733,131.348,-970.215,-968.750,108.398,-104.004
1571285815.737,141.113,-970.215,-972.656,84.473,-103.516
1571285815.741,139.160,-970.215,-955.566,88.379,-86.914
1571285815.745,122.070,-970.215,-950.195,95.703,-94.238
1571285815.749,120.605,-970.215,-871.582,83.496,-100.098
1571285815.753,144.043,-970.215,-851.562,75.684,-134.766
1571285815.757,148.438,-970.215,-825.195,86.426,-145.508
1571285815.761,128.418,-970.215,-708.008,99.609,-134.277
1571285815.764,127.930,-970.215,-578.613,92.773,-143.555
1571285815.768,155.273,-970.215,-522.461,73.242,-163.086
1571285815.772,167.480,-970.215,-628.418,83.008,-171.387
1571285815.776,143.555,-970.215,-751.465,95.703,-174.316
1571285815.780,119.141,-970.215,-606.445,89.844,-177.734
1571285815.784,135.742,-970.215,-221.680,68.848,-153.809
1571285815.788,157.227,-970.215,-166.016,63.965,-130.371
1571285815.792,122.559,-970.215,-175.293,73.242,-132.324
1571285815.796,92.285,-970.215,57.617,71.777,-113.770
1571285815.800,109.375,-970.215,142.578,60.547,-121.582
1571285815.803,143.066,-970.215,-87.891,51.758,-157.715
1571285815.807,133.301,-970.215,-222.656,62.988,-174.316
1571285815.811,92.285,-970.215,-18.555,66.406,-141.113
1571285815.815,90.332,-970.215,-22.461,63.965,-165.039
1571285815.819,124.023,-970.215,-443.848,63.965,-220.703
1571285815.823,129.883,-970.215,-701.660,61.035,-211.914
1571285815.827,96.191,-970.215,-465.332,69.336,-177.734
1571285815.831,81.055,-970.215,-215.332,62.988,-143.066
1571285815.835,114.258,-970.215,-500.977,54.199,-166.016
1571285815.839,140.625,-970.215,-768.555,62.988,-159.180
1571285815.843,110.352,-970.215,-517.090,70.312,-118.164
1571285815.846,90.820,-970.215,-429.199,76.172,-117.188
1571285815.850,117.676,-970.215,-587.402,69.824,-119.141
1571285815.854,144.043,-970.215,-716.309,68.848,-102.051
1571285815.858,122.559,-970.215,-577.637,79.590,-48.828
1571285815.862,100.586,-970.215,-480.957,94.727,-42.480
1571285815.866,123.535,-970.215,-758.789,89.844,-93.750
1571285815.870,153.809,-970.215,-919.434,74.707,-78.613
1571285815.874,154.785,-970.215,-783.691,91.309,-30.762
1571285815.878,130.371,-970.215,-626.953,111.816,-11.719
1571285815.882,112.305,-970.215,-647.461,89.355,-19.531
1571285815.886,153.320,-970.215,-604.980,84.473,22.949
1571285815.889,225.098,-970.215,-171.875,148.438,194.824
1571285815.893,210.938,-970.215,113.770,185.059,298.828
1571285815.897,174.805,-970.215,-86.914,166.504,288.574
1571285815.901,201.172,-970.215,-12.207,158.691,344.727
1571285815.905,247.559,-970.215,357.910,182.617,482.910
1571285815.909,197.266,-970.215,295.410,179.688,487.793
1571285815.913,114.258,-970.215,-58.594,149.414,387.207
1571285815.917,126.465,-970.215,-187.988,134.277,381.348
1571285815.921,176.270,-970.215,-45.410,150.391,449.707
1571285815.925,143.066,-970.215,-115.723,147.949,461.426
1571285815.928,62.012,-970.215,-659.668,108.887,332.520
1571285815.932,54.199,-970.215,-789.551,85.938,254.883
1571285815.936,122.070,-970.215,-592.773,101.074,312.012
1571285815.940,130.371,-970.215,-643.066,114.258,349.609
1571285815.944,49.805,-970.215,-797.852,89.355,282.715
1571285815.948,14.648,-970.215,-922.363,64.941,180.664
1571285815.952,66.406,-970.215,-975.586,84.473,193.848
1571285815.956,93.262,-970.215,-964.844,115.723,276.367
1571285815.960,21.484,-970.215,-970.703,102.051,218.262
1571285815.964,-27.344,-970.215,-970.215,67.871,101.562
1571285815.968,12.207,-970.215,-970.215,49.316,104.980
1571285815.971,62.988,-970.215,-970.215,70.801,189.941
1571285815.975,15.137,-970.215,-970.215,73.242,180.664
1571285815.979,-38.086,-970.215,-970.215,56.152,104.492
1571285815.983,-10.742,-970.215,-970.215,53.711,52.734
1571285815.987,54.199,-970.215,-970.215,72.266,121.582
1571285815.991,49.805,-970.215,-970.215,89.355,192.871
1571285815.995,-12.207,-970.215,-970.215,75.195,100.586
1571285815.999,-15.625,-970.215,-970.215,60.547,0.488
1571285816.003,44.434,-970.215,-970.215,70.312,62.012
1571285816.007,71.777,-970.215,-969.727,91.797,139.648
1571285816.011,12.207,-970.215,-970.215,65.918,73.730
1571285816.014,-13.184,-970.215,-970.215,41.016,1.465
1571285816.018,19.043,-970.215,-970.215,41.016,12.207
1571285816.022,45.898,-970.215,-970.215,66.406,112.793
1571285816.026,26.367,-970.215,-970.215,71.289,109.863
1571285816.030,4.883,-970.215,-970.215,49.805,3.418
1571285816.034,71.777,-970.215,-970.215,54.688,-21.973
1571285816.038,147.949,-970.215,-970.215,70.801,81.543
1571285816.042,138.184,-970.215,-970.215,85.449,92.773
1571285816.046,91.309,-970.215,-970.215,72.754,-16.602
1571285816.050,106.934,-970.215,-970.215,48.828,-54.199
1571285816.053,187.500,-970.215,-970.215,63.965,34.668
1571285816.057,186.523,-970.215,-970.215,80.566,122.559
1571285816.061,110.352,-970.215,-970.215,58.594,31.738
1571285816.065,102.539,-970.215,-970.215,37.109,-54.199
1571285816.069,174.805,-970.215,-970.215,51.758,1.953
1571285816.073,213.379,-969.727,-970.215,85.938,93.262
1571285816.077,155.762,-969.727,-969.238,83.984,62.012
1571285816.081,120.117,-970.215,-970.703,63.965,-30.762
1571285816.085,168.945,-970.215,-969.727,67.871,-4.395
1571285816.089,224.609,-970.215,-955.078,97.168,130.371
1571285816.093,187.012,-970.215,-946.289,106.934,142.090
1571285816.096,126.465,-970.215,-952.637,62.988,41.992
1571285816.100,147.461,-970.215,-968.750,39.551,-19.531
1571285816.104,217.773,-970.215,-969.727,76.660,36.621
1571285816.108,190.430,-970.215,-972.168,84.473,44.922
1571285816.112,128.906,-970.215,-900.391,73.242,-12.695
1571285816.116,147.949,-970.215,-815.918,73.730,-36.621
1571285816.120,208.008,-970.215,-795.410,82.520,26.367
1571285816.124,208.496,-970.215,-629.883,92.773,97.656
1571285816.128,131.348,-970.215,-475.586,72.266,66.406
1571285816.132,119.141,-970.215,-627.441,63.477,-38.086
1571285816.136,182.617,-970.215,-715.820,80.078,-33.203
1571285816.139,209.961,-969.727,-499.512,104.980,72.266
1571285816.143,137.207,-970.215,-382.812,103.516,45.410
1571285816.147,92.285,-970.215,-584.473,72.754,-46.875
1571285816.151,156.738,-970.215,-879.883,64.941,-68.359
1571285816.155,212.402,-970.215,-807.129,89.355,12.207
1571285816.159,161.133,-970.215,-421.875,90.332,54.199
1571285816.163,107.422,-970.215,-400.879,75.684,-31.738
1571285816.167,127.930,-970.215,-509.766,64.941,-54.688
1571285816.171,199.707,-970.215,-275.879,94.238,62.012
1571285816.175,179.688,-970.215,-84.961,111.328,94.727
1571285816.178,93.750,-970.215,-213.379,82.520,2.930
1571285816.182,101.074,-970.215,-480.957,64.453,-60.547
1571285816.186,162.109,-970.215,-419.434,76.172,32.227
1571285816.190,164.551,-970.215,-152.832,95.703,134.766
1571285816.194,106.445,-970.215,-397.949,89.844,32.715
1571285816.198,87.891,-970.215,-872.559,77.148,-106.934
1571285816.202,136.719,-970.215,-650.391,72.266,-70.312
1571285816.206,161.621,-970.215,-147.461,85.449,56.152
1571285816.210,108.887,-970.215,-147.949,78.125,40.039
1571285816.214,87.402,-970.215,-318.848,80.566,-40.527
1571285816.218,153.809,-970.215,-194.824,103.027,-29.785
1571285816.221,215.820,-970.215,60.059,123.535,74.219
1571285816.225,157.227,-970.215,78.125,113.281,82.520
1571285816.229,90.332,-970.215,-89.844,93.750,-26.367
1571285816.233,115.723,-970.215,-124.512,91.797,-62.012
1571285816.237,177.734,-970.215,-45.410,98.633,10.742
1571285816.241,178.711,-970.215,-57.617,119.629,63.477
1571285816.245,97.168,-970.215,-236.816,83.984,-0.488
1571285816.249,41.992,-970.215,-296.875,14.648,-64.453
1571285816.253,104.492,-971.191,-210.938,25.879,-22.949
1571285816.257,124.512,-961.914,-263.672,46.387,69.336
1571285816.261,61.523,-982.422,-363.281,29.785,3.418
1571285816.264,42.480,-897.949,-285.645,16.113,-76.172
1571285816.268,60.059,-734.375,-292.480,-8.301,-18.555
1571285816.272,88.379,-433.594,-189.453,-4.395,76.660
1571285816.276,37.598,54.688,63.477,-11.230,83.496
1571285816.280,2.441,229.980,59.570,-23.438,5.371
1571285816.284,65.918,83.008,-159.180,-18.066,-28.809
1571285816.288,140.625,62.500,-223.145,30.273,62.012
1571285816.292,121.582,239.258,-125.000,69.824,109.863
1571285816.296,64.941,382.324,-96.680,47.852,27.832
1571285816.300,77.148,136.719,-365.234,30.762,-49.805
1571285816.303,127.930,-249.512,-657.227,33.203,3.906
1571285816.307,106.445,185.059,-301.758,30.762,90.332
1571285816.311,51.758,604.492,-7.812,37.598,50.293
1571285816.315,66.895,367.188,-207.520,38.086,-21.973
1571285816.319,141.113,290.039,-240.723,57.617,15.625
1571285816.323,175.293,739.746,151.855,94.238,145.508
1571285816.327,106.934,647.461,92.285,79.102,91.309
1571285816.331,73.730,114.258,-286.621,55.176,-32.227
1571285816.335,138.184,-199.707,-452.637,76.172,-16.602
1571285816.339,176.758,-228.516,-395.020,105.957,73.730
1571285816.343,125.488,-232.910,-276.855,98.145,75.195
1571285816.346,92.285,-660.156,-646.484,90.332,-40.527
1571285816.350,128.906,-1000.000,-892.090,84.473,-81.055
1571285816.354,193.359,-773.438,-414.062,108.887,56.152
1571285816.358,179.199,-648.926,-156.738,126.953,123.535
1571285816.362,111.816,-918.945,-341.797,102.051,32.715
1571285816.366,121.094,-989.258,-498.047,86.914,-62.500
1571285816.370,178.223,-958.008,-368.652,106.934,-11.230
1571285816.374,174.316,-972.168,-263.672,126.953,58.105
1571285816.378,101.074,-970.215,-309.082,109.375,19.531
1571285816.382,91.309,-970.215,-488.281,93.750,-60.547
1571285816.386,167.480,-970.215,-515.625,107.910,-33.691
1571285816.389,189.941,-970.215,-409.180,126.953,56.641
1571285816.393,119.629,-970.215,-566.406,111.328,10.254
1571285816.397,73.242,-970.215,-431.641,80.566,-34.668
1571285816.401,125.000,-970.215,-249.023,84.473,-10.254
1571285816.405,189.453,-970.215,-217.773,120.605,75.684
1571285816.409,136.230,-970.215,-133.301,112.793,76.660
1571285816.413,74.219,-970.215,-131.836,85.449,-8.789
1571285816.417,96.191,-970.215,-202.148,76.660,-35.645
1571285816.421,151.855,-970.215,-115.723,101.562,48.828
1571285816.425,153.809,-970.215,70.801,124.023,104.004
1571285816.428,95.215,-970.215,-119.629,110.352,9.277
1571285816.432,74.219,-970.215,-247.070,69.824,-37.109
1571285816.436,137.207,-970.215,-344.238,73.242,5.371
1571285816.440,146.484,-970.215,-373.047,103.516,60.059
1571285816.444,76.172,-970.215,-67.383,88.379,36.133
1571285816.448,75.195,-970.215,-121.582,75.684,-44.434
1571285816.452,140.137,-970.215,-222.656,89.355,-29.785
1571285816.456,166.016,-970.215,37.109,103.027,74.707
1571285816.460,111.816,-970.215,178.223,104.492,61.035
1571285816.464,65.430,-970.215,-18.555,92.285,-34.180
1571285816.468,113.281,-970.215,-69.824,92.285,-22.949
1571285816.471,172.363,-970.215,120.605,119.141,55.176
1571285816.475,117.188,-970.215,116.211,112.793,52.734
1571285816.479,64.941,-970.215,-139.648,94.238,-36.133
1571285816.483,87.402,-970.215,-461.426,83.984,-93.750
1571285816.487,152.832,-970.215,-175.781,92.773,-0.488
1571285816.491,154.297,-970.215,246.582,112.793,71.777
1571285816.495,88.867,-970.215,121.094,99.609,22.949
1571285816.499,80.566,-970.215,-88.379,72.754,-59.570
1571285816.503,117.188,-970.215,-4.883,68.848,-35.645
1571285816.507,141.113,-970.215,221.191,94.238,66.895
1571285816.511,90.332,-970.215,170.898,90.332,43.457
1571285816.514,46.875,-970.215,5.371,50.781,-31.250
1571285816.518,87.402,-970.215,28.320,48.828,-23.926
1571285816.522,135.254,-970.215,76.660,77.637,53.711
1571285816.526,96.191,-970.215,-125.000,85.938,40.527
1571285816.530,51.270,-970.215,-288.086,62.500,-52.246
1571285816.534,97.168,-970.215,-88.867,55.664,-72.266
1571285816.538,158.203,-970.215,90.820,97.168,11.230
1571285816.542,121.582,-970.215,147.461,109.375,52.734
1571285816.546,69.336,-970.215,106.934,99.609,-20.508
1571285816.550,79.102,-970.215,58.105,83.496,-72.754
1571285816.553,134.766,-970.215,47.852,82.031,0.488
1571285816.557,130.371,-970.215,173.828,107.910,63.965
1571285816.561,39.062,-970.215,265.137,83.496,13.672
1571285816.565,35.645,-970.215,126.465,57.129,-69.824
1571285816.569,118.164,-970.215,-72.266,80.078,-61.523
1571285816.573,131.348,-970.215,-126.953,93.262,29.785
1571285816.577,78.613,-970.215,85.449,72.754,19.531
1571285816.581,61.523,-970.215,173.340,52.734,-52.734
1571285816.585,118.164,-970.215,23.438,78.125,-60.059
1571285816.589,153.809,-970.215,130.859,106.934,29.785
1571285816.593,77.637,-970.215,312.500,78.613,46.387
1571285816.596,21.484,-970.215,174.805,57.617,-41.016
1571285816.600,43.945,-970.215,-49.805,52.246,-85.449
1571285816.604,121.582,-970.215,39.551,70.312,-5.371
1571285816.608,114.258,-970.215,208.496,75.684,59.082
1571285816.612,32.227,-970.215,80.078,58.594,-3.418
1571285816.616,33.691,-970.215,-137.695,47.363,-71.289
1571285816.620,113.281,-970.215,-207.031,72.754,-34.668
1571285816.624,124.023,-970.215,-24.414,83.008,33.203
1571285816.628,54.688,-970.215,86.426,63.965,-1.465
1571285816.632,47.363,-970.215,-345.703,51.758,-103.027
1571285816.636,103.516,-970.215,-504.395,58.594,-101.562
1571285816.639,131.836,-970.215,41.504,84.961,33.203
1571285816.643,99.121,-970.215,47.852,83.984,9.766
1571285816.647,49.805,-970.215,-242.188,65.918,-85.449
1571285816.651,78.613,-970.215,-192.871,67.871,-62.500
1571285816.655,142.090,-970.215,43.457,97.656,42.480
1571285816.659,111.816,-970.215,32.715,100.098,41.504
1571285816.663,57.129,-970.215,-215.332,78.125,-30.762
1571285816.667,95.703,-970.215,-358.887,72.266,-62.012
1571285816.671,170.410,-970.215,-168.457,76.660,4.883
1571285816.675,122.559,-970.215,-68.848,79.590,49.316
1571285816.678,43.945,-970.215,-378.906,55.664,-32.227
1571285816.682,57.129,-970.215,-298.828,43.457,-60.547
1571285816.686,143.555,-970.215,-83.496,77.148,-12.207
1571285816.690,153.320,-970.215,-57.129,98.145,49.316
1571285816.694,67.871,-970.215,-104.004,73.242,4.395
1571285816.698,56.641,-970.215,-174.805,60.059,-73.730
1571285816.702,133.301,-970.215,-173.340,64.453,-45.898
1571285816.706,147.949,-970.215,-47.363,76.172,54.199
1571285816.710,73.730,-970.215,-122.070,81.543,28.809
1571285816.714,35.156,-970.215,-374.512,52.246,-82.031
1571285816.718,70.312,-970.215,-362.305,37.598,-90.332
1571285816.721,133.789,-970.215,-379.395,57.617,-10.254
1571285816.725,111.816,-970.215,-326.660,72.754,19.043
1571285816.729,44.922,-970.215,-105.469,62.500,-38.574
1571285816.733,76.660,-970.215,-237.305,42.969,-84.961
1571285816.737,143.555,-970.215,-299.805,68.359,-15.137
1571285816.741,115.723,-970.215,-138.184,92.773,42.969
1571285816.745,48.828,-970.215,-119.629,73.242,-10.742
1571285816.749,49.805,-970.215,-334.961,55.176,-74.219
1571285816.753,117.676,-970.215,-413.574,74.219,-56.152
1571285816.757,139.160,-970.215,-298.340,96.680,28.320
1571285816.761,65.430,-970.215,-237.305,84.961,26.367
1571285816.764,42.480,-970.215,-437.988,64.453,-74.219
1571285816.768,98.145,-970.215,-716.309,66.895,-85.938
1571285816.772,121.582,-970.215,-391.113,90.820,21.484
1571285816.776,85.449,-970.215,-176.270,89.355,16.113
1571285816.780,48.340,-970.215,-473.633,61.523,-76.660
1571285816.784,69.824,-970.215,-532.227,45.410,-83.496
1571285816.788,127.930,-970.215,-257.812,71.289,11.719
1571285816.792,107.422,-970.215,-113.281,88.867,54.199
1571285816.796,43.945,-970.215,-346.680,74.707,-48.828
1571285816.800,63.477,-970.215,-520.020,64.453,-104.004
1571285816.803,134.766,-970.215,-448.730,82.031,-21.973
1571285816.807,111.816,-970.215,-363.770,86.426,39.551
1571285816.811,38.086,-970.215,-583.984,56.641,-21.973
1571285816.815,31.738,-970.215,-740.723,34.668,-90.332
1571285816.819,90.332,-970.215,-403.320,44.922,-36.133
1571285816.823,117.676,-970.215,-204.590,72.754,50.781
1571285816.827,64.941,-970.215,-302.246,67.383,20.020
1571285816.831,43.457,-969.727,-419.434,49.805,-68.359
1571285816.835,108.887,-969.727,-456.543,77.637,-66.895
1571285816.839,143.066,-970.215,-381.348,105.957,18.555
1571285816.843,80.078,-970.215,-295.898,79.590,23.438
1571285816.846,35.156,-970.215,-351.074,57.129,-55.664
1571285816.850,66.406,-970.215,-544.434,55.664,-97.656
1571285816.854,136.719,-969.727,-545.410,86.426,-14.648
1571285816.858,115.723,-970.215,-563.965,85.449,10.254
1571285816.862,65.430,-970.215,-485.352,62.012,-46.875
1571285816.866,83.984,-970.215,-371.094,72.754,-77.637
1571285816.870,123.047,-970.215,-468.262,81.055,-46.875
1571285816.874,99.609,-970.215,-333.984,75.684,31.738
1571285816.878,23.926,-970.215,-236.328,55.176,-7.812
1571285816.882,27.832,-970.215,-372.559,44.434,-82.031
1571285816.886,107.910,-970.215,-441.406,56.152,-54.688
1571285816.889,133.789,-970.215,-303.223,77.637,26.367
1571285816.893,59.570,-970.215,-295.410,72.266,3.418
1571285816.897,17.578,-970.215,-479.980,44.922,-66.895
1571285816.901,88.867,-969.727,-764.648,62.500,-90.332
1571285816.905,153.320,-970.215,-655.762,108.398,-9.277
1571285816.909,91.797,-970.215,-278.320,84.473,5.371
1571285816.913,30.273,-970.215,-353.027,60.547,-76.172
1571285816.917,76.660,-970.215,-462.891,70.312,-71.777
1571285816.921,156.250,-970.215,-358.398,84.961,-6.836
1571285816.925,120.605,-970.215,-200.684,92.773,32.715
1571285816.928,59.082,-970.215,-323.730,74.219,-22.949
1571285816.932,89.844,-970.215,-520.996,69.824,-79.590
1571285816.936,125.488,-970.215,-435.547,79.590,-33.691
1571285816.940,125.977,-970.215,-233.398,91.309,45.410
1571285816.944,82.031,-970.215,-423.340,86.914,2.441
1571285816.948,61.523,-970.215,-905.273,66.895,-117.676
1571285816.952,110.840,-970.215,-785.645,79.590,-104.004
1571285816.956,142.090,-970.215,-383.301,106.934,1.465
1571285816.960,90.332,-970.215,-402.832,101.074,6.348
1571285816.964,41.992,-970.215,-573.242,84.961,-65.918
1571285816.968,60.547,-970.215,-553.223,76.172,-79.590
1571285816.971,131.348,-970.215,-366.699,98.145,23.438
1571285816.975,93.750,-970.215,-341.797,98.145,50.781
1571285816.979,26.367,-970.215,-528.809,62.500,-42.480
1571285816.983,46.875,-970.215,-545.410,49.805,-59.570
1571285816.987,122.070,-970.215,-387.207,68.359,37.109
1571285816.991,118.652,-970.215,-428.223,89.844,62.500
1571285816.995,31.250,-970.215,-671.387,77.148,-38.574
1571285816.999,34.180,-970.215,-664.551,47.363,-80.566
1571285817.003,113.281,-970.215,-473.145,70.312,-15.137
1571285817.007,137.695,-970.215,-621.094,104.004,31.250
1571285817.011,60.547,-970.215,-707.031,74.219,-0.977
1571285817.014,30.273,-970.215,-499.023,40.039,-48.340
1571285817.018,98.145,-970.215,-499.512,59.570,-30.762
1571285817.022,138.184,-970.215,-449.219,98.633,43.457
1571285817.026,83.984,-970.215,-309.082,85.938,46.875
1571285817.030,30.762,-970.215,-394.043,58.594,-41.992
1571285817.034,71.289,-970.215,-566.895,68.359,-73.730
1571285817.038,130.859,-970.215,-528.809,106.445,24.414
1571285817.042,101.074,-970.215,-472.656,93.750,46.387
1571285817.046,57.617,-970.215,-472.168,72.266,-23.438
1571285817.050,74.707,-970.215,-570.312,73.730,-55.176
1571285817.053,133.789,-970.215,-694.824,89.355,3.418
1571285817.057,116.211,-970.215,-355.469,102.051,72.754
1571285817.061,59.082,-970.215,-262.207,82.520,23.438
1571285817.065,72.754,-970.215,-520.020,62.500,-54.688
1571285817.069,117.676,-970.215,-498.535,85.938,-37.598
1571285817.073,124.512,-970.215,-188.965,109.863,67.383
1571285817.077,67.383,-970.215,-135.254,86.426,49.316
1571285817.081,53.223,-970.215,-370.117,65.430,-41.016
1571285817.085,93.262,-970.215,-502.441,77.148,-38.574
1571285817.089,125.000,-970.215,-387.207,92.773,48.828
1571285817.093,82.031,-970.215,-177.734,75.195,75.195
1571285817.096,28.320,-970.215,-470.215,51.270,-20.020
1571285817.100,73.242,-970.215,-721.680,51.270,-96.191
1571285817.104,135.742,-970.215,-217.773,69.824,17.578
1571285817.108,97.656,-970.215,-13.672,78.125,73.730
1571285817.112,50.293,-970.215,-163.086,72.754,-2.930
1571285817.116,56.641,-970.215,-298.340,65.430,-66.895
1571285817.120,111.816,-970.215,-262.695,91.309,-21.484
1571285817.124,121.094,-970.215,-53.223,102.539,65.430
1571285817.128,54.199,-970.215,-93.262,80.078,9.277
1571285817.132,52.246,-970.215,-286.621,69.336,-61.523
1571285817.136,115.723,-970.215,-286.621,78.125,-45.898
1571285817.139,117.188,-970.215,-127.930,92.773,24.414
1571285817.143,43.457,-970.215,-331.055,66.895,-10.742
1571285817.147,16.602,-970.215,-280.762,38.086,-68.359
1571285817.151,72.754,-970.215,-72.266,56.152,-43.945
1571285817.155,133.301,-970.215,-44.922,88.379,34.180
1571285817.159,81.543,-970.215,-2.930,86.426,37.598
1571285817.163,24.902,-970.215,-21.973,65.430,-38.086
1571285817.167,60.059,-970.215,-94.727,60.059,-59.570
1571285817.171,119.141,-970.215,-74.707,79.590,3.906
1571285817.175,99.121,-970.215,-43.457,87.891,32.715
1571285817.178,32.227,-970.215,-148.926,75.684,-22.949
1571285817.182,39.062,-970.215,-234.375,58.594,-57.129
1571285817.186,121.582,-970.215,-432.617,68.359,-49.805
1571285817.190,141.602,-970.215,-361.328,89.355,-0.977
1571285817.194,48.828,-970.215,17.090,75.684,11.230
1571285817.198,27.832,-970.215,-51.758,65.430,-47.363
1571285817.202,107.422,-970.215,-185.059,84.961,-40.527
1571285817.206,128.906,-970.215,2.441,95.215,48.340
1571285817.210,62.012,-970.215,80.566,70.801,30.273
1571285817.214,22.461,-970.215,-116.211,53.711,-40.527
1571285817.218,72.754,-970.215,-198.242,62.012,-28.320
1571285817.221,123.047,-970.215,3.418,83.008,51.270
1571285817.225,80.078,-970.215,1.465,73.730,57.617
1571285817.229,17.090,-970.215,-274.902,42.480,-20.996
1571285817.233,26.855,-970.215,-506.348,33.203,-63.965
1571285817.237,107.422,-970.215,-276.855,55.664,-14.160
1571285817.241,101.074,-970.215,130.371,80.566,61.035
1571285817.245,36.621,-970.215,-53.223,69.824,-11.719
1571285817.249,37.109,-970.215,-292.480,44.434,-82.031
1571285817.253,118.164,-970.215,-46.875,69.336,2.441
1571285817.257,141.113,-970.215,126.953,103.516,63.477
1571285817.261,59.570,-969.727,-24.902,84.473,0.488
1571285817.264,27.832,-970.215,-190.918,67.383,-71.289
1571285817.268,78.613,-970.215,-149.414,70.801,-51.270
1571285817.272,126.465,-970.215,-134.766,96.191,9.277
1571285817.276,76.660,-970.215,-419.922,91.797,-39.062
1571285817.280,20.996,-970.215,-524.902,60.547,-101.074
1571285817.284,65.430,-970.215,-194.824,66.406,-76.660
1571285817.288,141.113,-970.215,-83.008,101.562,0.000
1571285817.292,112.305,-970.215,-47.852,108.398,30.273
1571285817.296,51.758,-970.215,-92.773,85.449,-69.336
1571285817.300,54.199,-970.215,-161.621,67.383,-119.141
1571285817.303,102.539,-970.215,-35.156,80.566,-1.953
1571285817.307,103.027,-970.215,31.250,98.145,54.688
1571285817.311,28.809,-970.215,0.977,82.031,-14.648
1571285817.315,36.133,-970.215,-76.172,70.312,-65.918
1571285817.319,112.793,-970.215,-184.082,84.473,-13.672
1571285817.323,109.375,-970.215,-287.109,83.984,57.617
1571285817.327,37.109,-970.215,-147.461,79.102,11.719
1571285817.331,14.160,-970.215,-91.309,74.219,-71.777
1571285817.335,62.012,-970.215,-289.062,52.734,-80.566
1571285817.339,86.914,-970.215,-151.855,51.270,24.902
1571285817.343,38.086,-970.215,-106.934,48.340,13.184
1571285817.346,-17.090,-970.215,-367.676,18.555,-84.473
1571285817.350,4.883,-970.215,-401.367,0.488,-79.102
1571285817.354,65.430,-970.215,-246.582,23.926,14.160
1571285817.358,7.812,-970.215,-74.707,10.254,61.035
1571285817.362,-79.590,-970.215,-213.867,-37.598,-17.578
1571285817.366,-70.801,-970.215,-519.531,-66.406,-77.148
1571285817.370,-9.277,-970.215,-552.734,-56.152,-12.695
1571285817.374,-21.973,-970.215,-236.328,-55.176,79.102
1571285817.378,-97.656,-970.215,-189.941,-77.148,23.926
1571285817.382,-93.750,-970.215,-647.949,-83.496,-83.008
1571285817.386,-37.109,-970.215,-706.543,-81.543,-62.500
1571285817.389,-19.531,-970.215,-264.648,-67.383,41.992
1571285817.393,-74.707,-970.215,-247.070,-61.523,20.996
1571285817.397,-93.750,-970.215,-432.129,-62.988,-52.246
1571285817.401,-28.809,-970.215,-479.492,-54.199,-54.199
1571285817.405,26.855,-970.215,-281.738,-18.555,18.066
1571285817.409,1.953,-970.215,-166.992,0.488,35.645
1571285817.413,-39.062,-970.215,-428.711,-7.324,-56.641
1571285817.417,-3.906,-970.215,-529.297,-11.230,-80.078
1571285817.421,79.590,-970.215,-241.211,30.273,2.930
1571285817.425,65.430,-970.215,-51.758,46.387,70.312
1571285817.428,-0.977,-970.215,-377.441,17.578,-23.438
1571285817.432,12.695,-970.215,-373.047,17.578,-95.703
1571285817.436,93.750,-970.215,-95.215,51.270,-28.809
1571285817.440,110.840,-970.215,-5.371,82.520,37.598
1571285817.444,52.734,-970.215,-81.055,81.055,-32.715
1571285817.448,51.270,-970.215,-93.750,81.543,-94.727
1571285817.452,125.977,-970.215,-7.812,100.586,-46.875
1571285817.456,161.621,-970.215,50.781,118.652,26.855
1571285817.460,100.586,-970.215,-24.414,112.305,6.836
1571285817.464,65.430,-970.215,-117.676,101.562,-56.152
1571285817.468,120.117,-970.215,-122.559,109.375,-64.453
1571285817.471,176.758,-970.215,-190.918,124.512,-10.254
1571285817.475,130.859,-970.215,-151.855,112.305,-7.324
1571285817.479,62.012,-970.215,116.211,93.750,-45.898
1571285817.483,100.586,-970.215,110.840,103.516,-64.941
1571285817.487,179.688,-970.215,131.836,123.535,4.883
1571285817.491,153.320,-970.215,362.305,120.117,72.266
1571285817.495,82.520,-970.215,390.137,113.281,21.484
1571285817.499,100.586,-970.215,100.098,116.699,-55.664
1571285817.503,167.969,-970.215,70.801,122.559,-24.902
1571285817.507,162.598,-970.215,267.090,127.930,64.941
1571285817.511,84.961,-970.215,149.414,107.910,-4.883
1571285817.514,68.359,-970.215,-125.000,92.285,-120.117
1571285817.518,135.254,-970.215,-258.301,103.516,-89.844
1571285817.522,174.316,-970.215,116.211,129.395,20.020
1571285817.526,121.094,-969.727,394.043,130.371,30.762
1571285817.530,77.637,-970.215,159.668,104.492,-43.457
1571285817.534,106.445,-970.215,42.480,96.191,-64.453
1571285817.538,161.133,-970.215,291.504,128.906,19.043
1571285817.542,137.207,-970.215,375.000,136.230,28.320
1571285817.546,75.684,-970.215,190.430,109.863,-49.316
1571285817.550,94.727,-970.215,80.566,101.562,-78.125
1571285817.553,164.062,-970.215,129.883,124.023,-5.371
1571285817.557,163.574,-970.215,213.867,148.926,51.758
1571285817.561,95.215,-970.215,-44.434,129.883,-24.902
1571285817.565,82.031,-970.215,-229.492,103.516,-94.727
1571285817.569,152.344,-970.215,32.227,116.699,-42.480
1571285817.573,177.734,-970.215,167.969,147.461,25.879
1571285817.577,101.562,-970.215,219.727,132.812,20.996
1571285817.581,62.012,-970.215,140.625,98.633,-52.734
1571285817.585,121.582,-970.215,189.453,94.727,-29.297
1571285817.589,172.852,-970.215,287.598,119.629,61.035
1571285817.593,113.770,-970.215,219.727,123.535,27.832
1571285817.596,58.105,-970.215,180.664,94.238,-33.691
1571285817.600,98.633,-970.215,2.441,88.379,-65.430
1571285817.604,165.039,-970.215,-39.062,124.023,5.371
1571285817.608,133.301,-970.215,-70.312,124.023,29.297
1571285817.612,59.082,-970.215,-54.688,95.215,-61.035
1571285817.616,72.266,-970.215,76.660,91.309,-82.520
1571285817.620,144.531,-970.215,120.117,120.605,11.230
1571285817.624,137.695,-970.215,246.094,126.465,86.914
1571285817.628,67.871,-970.215,254.883,107.422,46.387
1571285817.632,55.664,-970.215,120.605,88.867,-30.762
1571285817.636,124.023,-970.215,66.895,97.168,-23.438
1571285817.639,155.762,-970.215,233.398,117.188,73.730
1571285817.643,88.379,-970.215,288.086,104.980,43.457
1571285817.647,53.223,-970.215,94.238,96.680,-27.832
1571285817.651,110.840,-970.215,-259.766,102.539,-58.594
1571285817.655,157.227,-970.215,-218.262,115.234,-0.488
1571285817.659,100.586,-970.215,239.258,111.328,62.500
1571285817.663,41.992,-970.215,143.066,91.309,-26.855
1571285817.667,72.754,-970.215,-88.867,78.613,-65.918
1571285817.671,148.926,-970.215,17.090,114.258,14.648
1571285817.675,123.535,-970.215,206.543,122.070,50.293
1571285817.678,42.969,-970.215,81.055,86.426,-25.879
1571285817.682,52.246,-970.215,-171.387,68.848,-79.102
1571285817.686,118.164,-970.215,-84.961,93.262,-13.672
1571285817.690,125.488,-970.215,219.727,114.746,62.500
1571285817.694,65.918,-970.215,65.430,102.539,10.254
1571285817.698,43.945,-970.215,-378.418,76.172,-78.613
1571285817.702,92.285,-970.215,-195.312,80.078,-44.922
1571285817.706,130.859,-970.215,239.258,126.465,62.012
1571285817.710,73.242,-970.215,135.254,118.652,36.133
1571285817.714,37.109,-970.215,-100.098,92.773,-59.570
1571285817.718,86.426,-970.215,12.207,89.844,-29.785
1571285817.721,144.531,-970.215,262.695,110.352,88.379
1571285817.725,106.445,-970.215,204.102,118.164,64.453
1571285817.729,44.922,-970.215,37.109,94.727,-23.438
1571285817.733,70.801,-970.215,35.156,77.637,-42.480
1571285817.737,132.812,-970.215,161.133,86.914,37.109
1571285817.741,126.465,-970.215,195.801,108.887,87.891
1571285817.745,65.918,-970.215,-34.180,108.398,1.465
1571285817.749,56.641,-970.215,-155.273,82.520,-74.707
1571285817.753,133.789,-970.215,50.781,102.051,-15.137
1571285817.757,158.691,-970.215,5.859,128.418,66.895
1571285817.761,66.895,-970.215,-168.457,90.820,3.906
1571285817.764,26.367,-970.215,3.906,61.035,-52.734
1571285817.768,94.727,-970.215,64.453,75.195,-12.207
1571285817.772,134.766,-970.215,104.004,94.238,54.199
1571285817.776,72.266,-970.215,217.285,83.984,56.152
1571285817.780,43.457,-970.215,192.871,77.637,-1.465
1571285817.784,92.773,-970.215,56.641,85.938,-23.438
1571285817.788,147.949,-970.215,7.324,107.422,38.574
1571285817.792,108.887,-970.215,95.703,107.422,71.777
1571285817.796,46.387,-970.215,84.473,90.332,14.160
1571285817.800,86.914,-970.215,-127.930,95.703,-34.668
1571285817.803,149.414,-970.215,-223.145,105.957,11.719
1571285817.807,114.746,-970.215,90.332,93.750,68.848
1571285817.811,50.293,-970.215,227.051,78.125,28.320
1571285817.815,52.246,-970.215,-35.156,68.359,-42.480
1571285817.819,107.422,-970.215,-47.852,67.383,-9.277
1571285817.823,130.371,-970.215,226.074,89.844,82.031
1571285817.827,79.590,-970.215,214.355,89.844,41.016
1571285817.831,39.062,-970.215,-8.301,55.176,-49.316
1571285817.835,90.332,-970.215,-100.098,55.176,-28.809
1571285817.839,141.113,-970.215,-15.137,88.379,44.922
1571285817.843,88.379,-970.215,212.891,91.309,57.617
1571285817.846,44.434,-969.727,-73.730,75.684,-27.344
1571285817.850,73.730,-970.215,-350.098,57.617,-80.566
1571285817.854,127.930,-970.215,-6.348,68.848,6.348
1571285817.858,106.445,-970.215,186.523,82.520,55.176
1571285817.862,43.457,-970.215,102.539,66.895,-5.371
1571285817.866,52.246,-970.215,15.625,48.828,-60.547
1571285817.870,118.652,-970.215,178.223,68.848,8.301
1571285817.874,121.582,-970.215,329.590,97.168,94.727
1571285817.878,50.781,-970.215,189.453,78.125,25.391
1571285817.882,34.180,-970.215,-43.945,56.152,-60.547
1571285817.886,88.867,-970.215,-81.543,63.477,-31.738
1571285817.889,117.188,-970.215,-10.254,81.055,33.203
1571285817.893,56.641,-970.215,-160.645,79.102,1.953
1571285817.897,24.414,-970.215,-90.820,64.941,-47.363
1571285817.901,73.242,-970.215,63.965,57.617,-41.504
1571285817.905,103.516,-970.215,91.797,62.012,26.855
1571285817.909,49.805,-970.215,89.355,53.711,47.363
1571285817.913,9.277,-970.215,-23.926,48.340,-34.668
1571285817.917,45.898,-970.215,-37.598,47.363,-58.594
1571285817.921,110.352,-970.215,62.500,67.871,32.227
1571285817.925,94.238,-970.215,159.668,72.754,68.359
1571285817.928,20.508,-970.215,-3.906,46.875,-17.090
1571285817.932,20.508,-970.215,-202.637,37.109,-74.219
1571285817.936,98.633,-970.215,-316.406,49.805,-33.691
1571285817.940,102.539,-970.215,-192.383,60.059,41.504
1571285817.944,22.461,-970.215,141.602,46.875,52.734
1571285817.948,9.277,-970.215,34.180,34.180,-18.555
1571285817.952,76.660,-970.215,-87.891,49.805,-8.301
1571285817.956,106.934,-970.215,88.379,74.219,69.824
1571285817.960,41.504,-970.215,171.387,64.453,49.316
1571285817.964,7.324,-970.215,-66.895,49.805,-41.016
1571285817.968,63.477,-970.215,-272.461,49.316,-56.641
1571285817.971,122.559,-970.215,-13.184,78.125,52.734
1571285817.975,72.754,-970.215,39.062,78.613,49.805
1571285817.979,13.672,-970.215,-245.117,57.617,-40.527
1571285817.983,45.898,-970.215,-472.656,54.688,-69.336
1571285817.987,106.445,-970.215,-218.750,67.383,7.324
1571285817.991,94.727,-970.215,164.062,81.055,77.148
1571285817.995,32.715,-970.215,46.875,63.477,39.062
1571285817.999,27.344,-970.215,-131.348,45.898,-21.973
1571285818.003,94.238,-970.215,-7.324,62.012,16.602
1571285818.007,115.234,-970.215,156.250,87.891,87.402
1571285818.011,52.246,-970.215,40.527,81.543,36.133
1571285818.014,22.461,-970.215,-91.309,45.898,-28.320
1571285818.018,71.777,-970.215,11.230,42.480,3.418
1571285818.022,113.770,-970.215,40.527,74.219,69.336
1571285818.026,60.547,-970.215,-101.074,63.965,44.922
1571285818.030,16.113,-970.215,-203.125,35.156,-40.039
1571285818.034,63.477,-970.215,-105.957,32.715,-42.480
1571285818.038,127.441,-970.215,107.910,62.012,41.504
1571285818.042,97.168,-970.215,-99.121,71.289,40.039
1571285818.046,28.320,-970.215,-318.848,52.734,-37.598
1571285818.050,42.969,-970.215,-111.328,50.293,-54.199
1571285818.053,128.906,-970.215,-17.578,83.496,16.113
1571285818.057,116.211,-970.215,21.973,87.891,68.359
1571285818.061,30.762,-970.215,62.012,52.734,29.297
1571285818.065,21.973,-970.215,6.348,35.645,-34.668
1571285818.069,99.121,-970.215,-135.742,58.594,-6.836
1571285818.073,122.070,-970.215,-190.430,82.031,45.898
1571285818.077,51.270,-970.215,-12.207,63.965,28.809
1571285818.081,21.973,-970.215,-64.453,47.852,-34.180
1571285818.085,74.707,-970.215,-250.977,56.152,-45.898
1571285818.089,122.070,-970.215,-172.363,88.379,24.414
1571285818.093,62.988,-970.215,37.598,88.379,48.340
1571285818.096,8.301,-970.215,67.871,57.129,6.836
1571285818.100,55.176,-970.215,-163.574,51.270,-54.199
1571285818.104,118.164,-970.215,-131.348,69.824,0.000
1571285818.108,78.125,-970.215,164.551,67.871,75.195
1571285818.112,15.625,-970.215,75.684,43.457,-3.418
1571285818.116,33.203,-970.215,-223.633,37.598,-68.359
1571285818.120,91.797,-970.215,-209.961,62.988,-10.742
1571285818.124,91.797,-970.215,120.117,73.242,58.105
1571285818.128,26.367,-970.215,192.871,50.293,21.973
1571285818.132,20.996,-970.215,-232.910,41.504,-78.613
1571285818.136,77.148,-970.215,-344.238,50.781,-50.293
1571285818.139,98.145,-970.215,144.531,64.941,81.543
1571285818.143,48.340,-970.215,237.793,57.129,68.848
1571285818.147,14.160,-970.215,-3.418,41.504,-21.973
1571285818.151,66.895,-970.215,-15.625,47.852,-27.832
1571285818.155,122.559,-970.215,138.672,81.055,32.715
1571285818.159,75.195,-970.215,152.832,83.984,46.387
1571285818.163,20.996,-970.215,-37.109,58.105,10.254
1571285818.167,59.082,-970.215,-184.570,50.781,-28.809
1571285818.171,117.188,-970.215,35.645,69.824,33.691
1571285818.175,93.750,-970.215,172.852,82.031,86.426
1571285818.178,33.203,-970.215,-163.574,52.734,1.465
1571285818.182,45.898,-970.215,-153.320,21.484,-53.711
1571285818.186,119.629,-970.215,202.148,48.828,38.086
1571285818.190,113.770,-970.215,266.602,74.219,97.168
1571285818.194,34.668,-970.215,86.426,50.781,20.020
1571285818.198,15.137,-970.215,69.336,24.902,-39.551
1571285818.202,70.801,-970.215,154.297,43.457,-10.254
1571285818.206,108.398,-970.215,222.168,68.848,54.688
1571285818.210,48.340,-970.215,139.160,52.246,33.691
1571285818.214,3.418,-970.215,31.250,26.855,-17.090
1571285818.218,47.852,-970.215,96.191,26.855,-38.574
1571285818.221,104.492,-970.215,8.789,54.688,9.766
1571285818.225,68.359,-970.215,-16.602,65.430,33.691
1571285818.229,12.207,-970.215,151.367,47.363,-33.691
1571285818.233,31.250,-970.215,63.965,35.156,-70.801
1571285818.237,95.703,-970.215,31.250,50.781,-11.719
1571285818.241,77.637,-970.215,161.621,67.383,23.438
1571285818.245,4.883,-970.215,226.074,51.270,-11.230
1571285818.249,17.578,-970.215,9.766,33.203,-60.547
