timestamps,TP9,AF7,AF8,TP10,Right AUX
1571283848.503,-4.883,854.980,653.320,-2.441,93.262
1571283848.507,-36.621,940.430,707.520,-47.363,71.289
1571283848.511,-57.617,605.957,431.152,-77.148,-16.602
1571283848.514,-67.383,606.445,437.500,-86.914,-2.441
1571283848.518,-48.340,933.105,719.238,-73.242,79.590
1571283848.522,-69.824,882.324,673.340,-88.379,91.309
1571283848.526,-79.590,224.609,171.387,-96.191,3.906
1571283848.530,-67.383,143.555,130.859,-85.449,-45.410
1571283848.534,-65.918,732.422,570.801,-76.172,53.711
1571283848.538,-72.754,847.656,639.648,-67.383,94.727
1571283848.542,-87.891,618.652,442.871,-71.777,9.766
1571283848.546,-76.660,576.660,382.812,-70.312,-41.016
1571283848.550,-55.176,727.051,473.145,-70.312,20.508
1571283848.553,-34.180,958.496,641.602,-56.641,118.164
1571283848.557,-23.926,843.262,515.137,-50.781,57.617
1571283848.561,-26.855,661.621,359.863,-51.270,11.230
1571283848.565,-19.043,672.363,365.234,-42.480,56.641
1571283848.569,14.160,628.418,332.031,-11.719,102.051
1571283848.573,24.902,299.316,80.078,-0.488,43.945
1571283848.577,12.207,62.988,-100.586,-7.324,-30.762
1571283848.581,13.184,224.609,20.020,2.441,0.977
1571283848.585,30.273,82.031,-91.797,16.602,47.852
1571283848.589,32.227,83.008,-79.590,13.184,51.758
1571283848.593,25.391,257.812,41.992,8.789,8.301
1571283848.596,27.832,-105.957,-251.465,7.812,-47.363
1571283848.600,42.480,-18.066,-167.969,27.832,18.066
1571283848.604,50.293,441.895,188.965,43.457,86.426
1571283848.608,24.414,481.445,201.172,26.855,27.832
1571283848.612,18.555,152.344,-49.316,21.973,-25.391
1571283848.616,41.992,-122.070,-239.258,38.574,-4.883
1571283848.620,46.387,-19.043,-127.930,35.156,59.570
1571283848.624,37.109,313.477,134.766,25.391,71.289
1571283848.628,39.062,113.281,-33.691,29.297,5.371
1571283848.632,45.898,-525.391,-506.836,24.902,-41.504
1571283848.636,47.852,-164.551,-195.801,36.133,28.809
1571283848.639,44.922,456.543,274.902,47.363,70.801
1571283848.643,31.250,256.836,111.816,37.598,16.113
1571283848.647,38.086,-6.836,-86.914,34.180,-19.531
1571283848.651,53.711,145.508,46.875,47.363,35.645
1571283848.655,42.969,430.176,283.691,43.945,85.938
1571283848.659,34.668,345.215,219.238,32.227,26.367
1571283848.663,40.039,-107.422,-119.629,28.320,-35.645
1571283848.667,47.852,-150.391,-125.488,30.762,25.391
1571283848.671,44.434,227.539,173.340,36.621,80.078
1571283848.675,29.785,-130.371,-106.934,22.461,1.953
1571283848.678,20.996,-551.758,-409.180,12.695,-46.387
1571283848.682,30.273,14.160,32.227,19.043,18.555
1571283848.686,47.852,479.004,376.465,36.621,88.867
1571283848.690,44.434,430.176,345.215,39.551,62.988
1571283848.694,29.297,329.102,284.668,25.879,18.066
1571283848.698,30.273,293.457,259.277,28.809,-6.836
1571283848.702,45.898,476.562,430.664,44.434,90.820
1571283848.706,42.969,486.328,458.496,46.387,104.492
1571283848.710,29.297,24.414,116.211,30.762,-7.812
1571283848.714,23.438,-208.984,-37.598,19.043,-31.250
1571283848.718,32.715,-61.035,86.426,26.367,17.090
1571283848.721,42.969,-111.816,68.848,28.320,58.105
1571283848.725,28.809,5.859,166.016,21.484,24.414
1571283848.729,21.484,273.926,340.820,20.020,-6.836
1571283848.733,30.273,278.809,340.332,31.738,32.227
1571283848.737,34.668,523.926,553.223,47.363,114.746
1571283848.741,24.414,664.062,656.250,37.109,77.637
1571283848.745,20.508,395.508,443.848,24.414,-3.906
1571283848.749,24.414,181.641,298.340,31.738,12.695
1571283848.753,32.227,386.230,476.074,49.805,96.680
1571283848.757,31.250,285.645,395.508,50.781,68.848
1571283848.761,26.367,-20.020,170.410,32.227,12.207
1571283848.764,30.273,-450.684,-157.227,16.602,-10.254
1571283848.768,34.668,-524.902,-202.148,20.020,46.875
1571283848.772,27.832,218.262,350.586,16.113,109.863
1571283848.776,16.602,264.648,339.355,12.695,43.945
1571283848.780,22.461,-165.039,-6.348,18.066,-27.832
1571283848.784,34.668,-4.395,126.465,26.367,42.969
1571283848.788,35.156,510.742,524.902,36.133,139.160
1571283848.792,30.762,314.453,350.586,31.250,57.617
1571283848.796,28.809,-110.352,20.996,17.090,-7.324
1571283848.800,31.250,-10.254,90.820,15.625,30.762
1571283848.803,47.852,110.840,176.270,47.852,88.867
1571283848.807,47.363,-108.887,12.695,53.223,79.102
1571283848.811,16.602,-710.938,-452.148,16.113,-15.625
1571283848.815,17.090,-584.961,-351.562,18.066,-2.930
1571283848.819,34.180,56.152,122.070,36.133,103.027
1571283848.823,25.879,-54.199,1.465,25.879,69.336
1571283848.827,20.508,-241.699,-157.227,23.438,-5.859
1571283848.831,22.461,-116.699,-76.172,23.438,-0.488
1571283848.835,37.598,155.762,118.652,32.227,68.359
1571283848.839,42.969,302.246,229.980,39.062,109.375
1571283848.843,28.809,104.492,71.777,29.297,41.992
1571283848.846,26.855,-61.523,-69.336,20.508,-8.301
1571283848.850,37.109,-66.895,-73.730,28.809,50.293
1571283848.854,40.039,-338.867,-265.625,36.133,82.031
1571283848.858,26.367,-667.969,-507.812,22.461,3.418
1571283848.862,16.113,-438.477,-343.262,13.672,-44.434
1571283848.866,28.320,-153.320,-139.160,18.555,0.488
1571283848.870,32.227,77.148,42.480,33.203,78.125
1571283848.874,22.949,216.309,144.531,28.320,58.594
1571283848.878,15.137,19.043,-17.090,16.113,-9.277
1571283848.882,12.207,-199.707,-186.035,21.484,-25.879
1571283848.886,28.320,15.137,-5.859,36.133,45.898
1571283848.889,25.391,246.094,171.387,32.227,51.758
1571283848.893,15.625,178.223,115.234,26.855,-13.672
1571283848.897,22.949,-255.371,-214.844,22.949,-65.430
1571283848.901,34.180,-666.016,-494.141,29.297,-19.531
1571283848.905,36.133,-208.008,-111.328,44.922,55.664
1571283848.909,25.879,182.617,157.715,36.133,7.324
1571283848.913,12.695,-152.832,-125.488,10.742,-69.824
1571283848.917,22.461,-159.668,-115.723,15.625,-24.414
1571283848.921,34.668,424.805,358.887,32.227,97.168
1571283848.925,26.855,505.859,405.273,24.414,46.387
1571283848.928,19.043,156.250,136.230,16.113,-29.297
1571283848.932,36.621,-90.820,-33.691,23.926,-19.043
1571283848.936,51.758,186.523,200.195,35.645,58.105
1571283848.940,33.691,405.273,364.258,33.203,41.504
1571283848.944,21.973,-13.184,47.363,23.438,-26.367
1571283848.948,36.621,-321.289,-155.273,24.902,-12.207
1571283848.952,41.992,146.484,221.680,35.156,82.031
1571283848.956,31.738,585.449,537.598,39.551,94.727
1571283848.960,27.344,-37.598,52.246,30.273,-12.207
1571283848.964,30.273,-415.039,-213.379,16.602,-38.086
1571283848.968,43.945,213.867,269.531,23.926,58.105
1571283848.971,43.945,467.285,439.453,32.227,77.637
1571283848.975,22.949,144.531,182.129,25.391,-12.207
1571283848.979,19.043,-18.555,62.500,22.949,-45.410
1571283848.983,33.203,171.387,207.031,34.668,17.578
1571283848.987,42.969,380.859,365.723,49.316,91.309
1571283848.991,32.227,41.504,99.121,40.527,32.227
1571283848.995,21.973,-395.996,-232.910,23.438,-38.574
1571283848.999,31.738,-406.738,-243.164,22.461,-17.578
1571283849.003,39.062,-271.973,-142.578,32.715,47.363
1571283849.007,40.039,-474.609,-295.898,33.691,31.250
1571283849.011,27.832,-433.105,-282.227,21.973,-31.250
1571283849.014,16.113,-124.023,-90.332,25.391,-37.598
1571283849.018,24.902,26.855,6.348,36.133,30.762
1571283849.022,26.855,96.680,52.734,34.668,36.133
1571283849.026,14.648,149.414,89.844,28.320,7.812
1571283849.030,15.625,41.992,-12.695,22.949,-26.367
1571283849.034,30.762,73.730,15.137,32.715,37.598
1571283849.038,31.250,194.336,117.188,36.133,111.816
1571283849.042,9.277,-105.469,-139.648,20.508,10.254
1571283849.046,8.789,-389.648,-362.305,13.672,-35.645
1571283849.050,34.180,-615.723,-528.320,27.344,12.207
1571283849.053,36.133,-443.848,-387.695,33.691,63.477
1571283849.057,12.207,132.324,32.715,24.902,56.641
1571283849.061,5.859,143.066,9.766,21.484,11.719
1571283849.065,17.578,-95.215,-188.477,24.902,-6.836
1571283849.069,24.902,271.484,104.004,33.203,94.238
1571283849.073,21.973,555.176,303.711,29.297,91.309
1571283849.077,16.113,165.039,-9.277,20.996,-0.488
1571283849.081,25.879,-107.910,-196.289,16.113,4.395
1571283849.085,41.992,2.930,-89.844,26.367,67.383
1571283849.089,46.387,72.754,-23.926,40.527,78.613
1571283849.093,38.574,-166.016,-211.426,26.855,-0.977
1571283849.096,30.273,-687.012,-606.934,8.301,-55.664
1571283849.100,39.062,-410.156,-377.441,18.066,15.137
1571283849.104,44.922,210.449,90.820,38.086,92.285
1571283849.108,28.320,163.574,36.621,32.227,29.785
1571283849.112,22.461,-76.172,-151.367,19.043,-42.969
1571283849.116,35.156,193.359,73.242,28.320,28.320
1571283849.120,43.457,628.906,413.086,36.133,115.234
1571283849.124,33.691,458.008,271.973,29.297,38.086
1571283849.128,24.902,150.879,52.734,28.320,-28.320
1571283849.132,35.645,7.812,-31.738,33.691,8.301
1571283849.136,49.316,223.145,159.180,44.922,81.055
1571283849.139,40.039,70.801,51.758,46.387,54.688
1571283849.143,24.414,-330.566,-229.492,33.691,-0.488
1571283849.147,23.438,-32.227,-0.488,24.414,-21.973
1571283849.151,44.434,304.688,246.582,39.551,33.203
1571283849.155,49.805,492.188,406.250,39.551,94.238
1571283849.159,38.574,281.250,249.512,36.133,15.137
1571283849.163,36.133,-21.973,20.508,32.715,-52.734
1571283849.167,39.551,202.637,209.961,26.367,44.434
1571283849.171,40.039,482.910,425.781,34.668,108.398
1571283849.175,27.832,455.566,395.020,29.785,34.180
1571283849.178,28.809,112.305,134.277,25.879,-22.461
1571283849.182,40.527,-204.102,-92.285,36.133,-2.441
1571283849.186,45.898,-366.211,-191.406,40.527,27.832
1571283849.190,27.344,-182.129,-42.969,30.273,16.113
1571283849.194,15.625,48.340,97.168,22.461,-23.438
1571283849.198,27.344,-104.492,-43.945,24.902,-21.973
1571283849.202,49.316,74.219,103.516,47.363,78.125
1571283849.206,41.504,431.641,367.188,49.805,95.215
1571283849.210,20.508,298.340,234.863,30.762,-4.395
1571283849.214,31.250,-166.992,-133.789,22.461,-61.035
1571283849.218,45.898,-206.543,-134.766,29.297,30.273
1571283849.221,49.316,280.273,246.094,38.574,105.469
1571283849.225,41.504,159.180,127.441,33.691,33.691
1571283849.229,30.762,-593.750,-444.336,17.090,-43.945
1571283849.233,30.273,-662.109,-463.867,11.719,12.207
1571283849.237,29.297,182.617,175.781,23.438,104.980
1571283849.241,19.043,416.992,305.176,25.879,60.547
1571283849.245,18.066,60.059,10.254,16.113,-3.906
1571283849.249,31.738,60.059,0.000,15.137,20.508
1571283849.253,39.062,512.207,335.938,26.855,116.699
1571283849.257,36.621,566.895,360.840,31.250,108.398
1571283849.261,36.133,151.855,34.180,34.180,20.996
1571283849.264,40.527,61.035,-32.227,32.715,21.484
1571283849.268,40.527,427.246,258.301,35.156,122.559
1571283849.272,35.645,319.336,167.969,38.574,110.840
1571283849.276,29.297,-474.609,-426.758,28.809,17.578
1571283849.280,19.043,-589.844,-500.488,18.066,-19.043
1571283849.284,23.438,21.973,-46.387,28.320,41.016
1571283849.288,25.879,310.059,168.457,34.180,107.910
1571283849.292,15.137,187.500,70.312,24.414,50.293
1571283849.296,12.207,157.227,44.434,18.066,5.859
1571283849.300,25.391,332.031,180.176,25.391,58.594
1571283849.303,39.062,486.328,310.059,40.527,109.375
1571283849.307,30.762,352.539,218.750,34.668,61.035
1571283849.311,22.949,271.973,171.387,24.414,33.691
1571283849.315,41.504,277.832,176.758,28.809,34.668
1571283849.319,57.617,248.047,168.457,36.621,78.125
1571283849.323,43.457,106.445,86.426,30.762,71.777
1571283849.327,30.762,-101.074,-66.895,22.949,-12.695
1571283849.331,35.645,-183.594,-134.766,26.367,-48.340
1571283849.335,44.922,-227.051,-139.648,31.738,28.809
1571283849.339,41.504,-74.707,-1.465,31.738,67.871
1571283849.343,25.391,191.895,180.176,32.227,1.465
1571283849.346,28.809,57.617,56.641,32.227,-37.109
1571283849.350,38.574,99.609,92.773,41.016,20.020
1571283849.354,36.133,514.160,421.387,43.457,109.375
1571283849.358,28.320,587.402,460.938,31.738,63.965
1571283849.362,31.250,153.320,118.164,29.297,-37.598
1571283849.366,48.340,-128.906,-65.430,42.969,-5.371
1571283849.370,57.617,29.785,91.797,54.199,75.684
1571283849.374,45.898,291.504,293.945,45.410,67.871
1571283849.378,38.086,69.824,105.957,35.156,-7.812
1571283849.382,41.992,-494.141,-313.965,23.438,-35.645
1571283849.386,42.969,-145.996,-12.695,27.832,77.148
1571283849.389,40.527,354.980,343.750,38.086,81.055
1571283849.393,37.109,127.930,141.602,34.180,-6.836
1571283849.397,32.715,-30.762,22.461,22.949,-8.301
1571283849.401,39.551,354.980,319.336,34.668,81.543
1571283849.405,39.551,641.113,534.180,41.504,121.094
1571283849.409,22.461,277.344,240.723,26.855,21.484
1571283849.413,17.578,-246.582,-151.855,21.973,-31.738
1571283849.417,32.715,-264.160,-146.973,28.809,25.391
1571283849.421,28.809,-6.836,54.688,32.227,85.449
1571283849.425,19.531,-380.371,-241.211,25.391,19.531
1571283849.428,19.531,-797.852,-567.383,20.508,-64.453
1571283849.432,25.879,-300.293,-204.102,28.809,-15.625
1571283849.436,37.109,227.539,174.805,44.922,74.707
1571283849.440,26.855,78.613,42.480,43.457,46.387
1571283849.444,17.578,-248.535,-209.961,34.668,-15.137
1571283849.448,20.508,-85.938,-93.262,34.180,4.883
1571283849.452,27.832,209.961,128.906,43.945,92.285
1571283849.456,24.414,314.941,207.031,41.992,111.328
1571283849.460,13.184,26.855,-29.297,29.297,34.180
1571283849.464,12.695,-333.984,-310.547,29.297,-9.277
1571283849.468,29.297,-322.266,-296.875,36.621,40.527
1571283849.471,28.809,-450.684,-389.648,20.996,59.082
1571283849.475,13.184,-336.426,-308.594,5.371,27.832
1571283849.479,22.949,20.020,-72.266,10.742,28.809
1571283849.483,35.645,46.387,-88.379,19.531,44.922
1571283849.487,32.715,230.469,54.688,20.996,98.145
1571283849.491,23.926,400.391,177.734,18.066,76.660
1571283849.495,23.438,253.906,56.152,15.625,33.203
1571283849.499,28.320,43.945,-97.656,16.602,41.992
1571283849.503,40.039,209.473,42.969,30.273,93.262
1571283849.507,39.062,186.035,27.832,36.133,75.195
1571283849.511,21.973,-101.074,-185.547,26.855,3.906
1571283849.514,27.832,-471.191,-461.426,21.484,-17.578
1571283849.518,34.180,-469.238,-432.129,24.414,53.711
1571283849.522,19.043,260.742,127.441,20.508,98.633
1571283849.526,8.301,277.832,106.934,17.578,12.207
1571283849.530,14.160,-136.719,-210.938,24.902,-52.734
1571283849.534,27.344,107.910,5.859,32.715,41.016
1571283849.538,27.344,594.727,382.324,33.691,109.863
1571283849.542,19.043,395.020,216.309,26.855,30.273
1571283849.546,21.484,10.254,-66.406,18.555,-23.438
1571283849.550,32.715,138.672,52.246,29.297,23.438
1571283849.553,32.227,291.992,183.594,40.039,72.754
1571283849.557,22.949,2.441,-21.973,30.762,36.621
1571283849.561,15.137,-612.793,-474.121,14.648,-38.574
1571283849.565,15.625,-479.004,-358.398,6.348,-23.438
1571283849.569,35.645,312.012,239.746,29.297,80.078
1571283849.573,39.551,409.180,294.922,32.715,72.266
1571283849.577,33.691,35.156,2.441,20.996,-31.738
1571283849.581,31.250,18.555,-2.930,25.879,-46.387
1571283849.585,37.598,410.156,314.941,38.086,72.266
1571283849.589,35.156,505.371,392.578,37.598,100.098
1571283849.593,24.414,238.281,188.477,37.109,20.508
1571283849.596,23.926,141.602,114.746,35.156,-9.277
1571283849.600,41.016,165.527,144.043,39.062,50.293
1571283849.604,48.828,-87.402,-22.461,40.039,91.309
1571283849.608,35.156,-352.051,-200.195,23.438,45.898
1571283849.612,28.320,-353.027,-220.703,14.648,-41.504
1571283849.616,42.480,-208.984,-133.301,31.738,-26.367
1571283849.620,56.641,121.094,124.023,51.270,71.289
1571283849.624,44.434,132.324,115.723,44.922,33.691
1571283849.628,29.297,23.438,13.672,28.320,-34.180
1571283849.632,36.621,-79.102,-74.707,30.762,-29.785
1571283849.636,41.016,19.531,11.230,45.410,53.223
1571283849.639,27.832,230.469,166.992,41.016,63.477
1571283849.643,23.926,122.559,63.477,34.180,-11.719
1571283849.647,32.715,-278.809,-249.023,33.203,-27.832
1571283849.651,41.992,-646.973,-507.324,40.527,21.973
1571283849.655,30.762,-272.949,-202.148,41.016,74.219
1571283849.659,19.043,142.090,80.566,31.738,40.527
1571283849.663,24.902,-95.703,-139.648,25.879,-21.484
1571283849.667,43.945,-208.496,-222.168,34.180,17.090
1571283849.671,42.480,134.277,60.059,29.785,114.258
1571283849.675,24.414,340.820,197.266,18.555,92.773
1571283849.678,27.344,-41.992,-131.348,19.043,-23.438
1571283849.682,39.062,-164.062,-221.191,22.461,3.906
1571283849.686,41.992,305.664,149.414,32.715,117.676
1571283849.690,27.832,423.828,224.121,27.344,88.379
1571283849.694,25.391,-140.137,-215.820,23.926,-7.324
1571283849.698,35.156,-523.926,-498.047,26.855,-30.762
1571283849.702,44.434,-100.098,-166.016,32.227,54.688
1571283849.706,34.668,294.434,124.512,34.180,84.961
1571283849.710,25.391,-270.508,-312.500,21.973,-1.953
1571283849.714,34.180,-596.680,-542.480,18.555,-13.184
1571283849.718,40.527,6.348,-92.285,32.227,54.688
1571283849.721,32.715,268.555,90.332,37.109,71.777
1571283849.725,20.020,-23.926,-126.953,30.273,15.137
1571283849.729,12.207,-197.754,-251.953,18.555,-24.902
1571283849.733,25.879,165.039,36.133,24.414,49.805
1571283849.737,37.598,460.449,262.695,39.551,109.375
1571283849.741,26.855,206.543,82.520,39.062,68.359
1571283849.745,27.344,-163.574,-184.082,31.250,-5.371
1571283849.749,33.203,-46.387,-94.727,30.273,-5.371
1571283849.753,36.621,308.105,182.129,40.527,100.586
1571283849.757,36.621,-139.160,-156.250,39.062,38.086
1571283849.761,30.273,-338.867,-287.598,25.879,-45.898
1571283849.764,31.250,81.055,28.320,18.555,5.859
1571283849.768,42.969,345.215,227.539,28.809,91.797
1571283849.772,41.992,425.293,301.758,30.762,83.008
1571283849.776,29.297,442.383,322.266,19.531,29.297
1571283849.780,33.203,152.344,94.238,18.066,-19.531
1571283849.784,47.363,59.082,49.805,28.809,33.203
1571283849.788,50.293,181.152,166.504,36.621,76.660
1571283849.792,37.109,-50.781,-11.230,27.832,8.301
1571283849.796,35.645,-196.289,-117.188,25.879,-30.273
1571283849.800,47.363,-196.289,-106.445,27.832,12.207
1571283849.803,46.875,138.672,160.156,25.879,85.449
1571283849.807,34.668,444.336,373.535,19.531,52.246
1571283849.811,31.250,284.668,235.352,24.414,-17.090
1571283849.815,42.969,-238.281,-151.855,29.785,-32.227
1571283849.819,47.852,-130.371,-33.203,31.250,49.316
1571283849.823,32.715,373.047,339.355,25.879,58.594
1571283849.827,20.996,187.012,175.293,20.996,2.441
1571283849.831,24.902,-119.141,-65.430,24.902,-28.320
1571283849.835,34.180,-16.113,24.414,36.621,47.852
1571283849.839,32.227,140.137,152.344,41.504,101.562
1571283849.843,20.020,-131.836,-70.801,33.203,22.461
1571283849.846,19.043,-626.465,-448.730,30.273,-16.602
1571283849.850,29.297,-322.266,-214.844,38.086,34.668
1571283849.854,34.180,290.527,214.844,42.480,60.059
1571283849.858,30.273,127.930,63.965,40.527,5.371
1571283849.862,22.461,-172.363,-164.551,30.273,-32.715
1571283849.866,33.203,-5.859,-45.410,33.203,6.348
1571283849.870,48.828,320.801,193.359,43.457,81.055
1571283849.874,42.480,132.324,36.621,37.109,31.738
1571283849.878,31.738,-185.547,-206.543,27.832,-23.438
1571283849.882,48.828,-323.242,-314.453,32.715,8.301
1571283849.886,69.824,-74.707,-116.699,47.852,92.773
1571283849.889,52.734,-155.762,-184.570,38.086,79.102
1571283849.893,34.180,-754.395,-644.531,26.367,-10.742
1571283849.897,45.898,-579.102,-510.742,35.156,-12.695
1571283849.901,48.828,36.133,-61.035,35.645,92.773
1571283849.905,37.598,217.773,50.293,24.414,101.074
1571283849.909,27.832,44.434,-96.680,14.160,12.207
1571283849.913,30.273,-56.152,-185.059,11.719,-34.668
1571283849.917,44.434,-9.277,-141.113,27.344,26.367
1571283849.921,41.016,214.844,47.852,34.180,110.352
1571283849.925,24.414,239.746,55.664,28.320,55.176
1571283849.928,20.996,-143.066,-247.070,26.367,-20.508
1571283849.932,34.180,-446.777,-467.285,32.227,-7.812
1571283849.936,42.969,-530.273,-506.348,39.062,50.293
1571283849.940,29.297,-321.777,-347.656,31.250,25.391
1571283849.944,20.996,-26.367,-148.438,27.344,-18.066
1571283849.948,33.203,-88.867,-210.938,24.902,-8.789
1571283849.952,48.828,-30.762,-146.973,37.109,52.734
1571283849.956,31.738,318.359,138.672,33.691,76.172
1571283849.960,17.090,414.062,207.520,22.949,31.250
1571283849.964,30.762,92.285,-43.457,27.832,-37.598
1571283849.968,41.016,184.570,57.617,28.809,31.738
1571283849.971,39.551,647.461,432.129,34.180,112.793
1571283849.975,36.621,452.637,279.785,38.086,44.434
1571283849.979,36.133,-336.426,-314.941,29.297,-48.828
1571283849.983,44.434,-498.047,-400.391,28.320,-12.695
1571283849.987,45.410,363.770,277.344,41.016,110.352
1571283849.991,40.039,607.910,431.152,46.875,65.918
1571283849.995,39.062,180.664,102.051,45.410,-22.461
1571283849.999,47.852,102.539,54.688,44.434,-15.625
1571283850.003,51.758,526.367,391.113,49.805,78.613
1571283850.007,50.781,521.484,392.090,48.828,77.148
1571283850.011,41.504,53.711,41.504,40.039,-18.555
1571283850.014,27.344,-2.441,9.277,26.367,-22.461
1571283850.018,36.133,401.855,324.219,41.504,83.984
1571283850.022,36.621,412.109,327.637,39.551,112.793
1571283850.026,31.250,-426.758,-305.664,18.555,-8.301
1571283850.030,33.691,-546.875,-369.141,7.812,-38.086
1571283850.034,44.922,202.148,204.102,20.508,75.195
1571283850.038,40.039,429.688,365.723,34.668,113.281
1571283850.042,27.344,172.852,166.992,28.809,30.273
1571283850.046,31.738,-44.434,4.395,30.762,-23.926
1571283850.050,36.621,52.246,73.730,37.598,20.996
1571283850.053,39.062,218.262,191.895,36.133,74.219
1571283850.057,31.250,140.137,129.883,36.133,39.062
1571283850.061,24.414,21.973,29.297,23.926,-12.207
1571283850.065,38.574,-75.684,-51.270,19.043,17.090
1571283850.069,49.316,-69.824,-34.668,33.203,85.938
1571283850.073,52.246,-169.922,-104.980,41.504,58.105
1571283850.077,39.062,-214.844,-149.414,30.273,-1.465
1571283850.081,34.668,-74.707,-73.242,17.090,-5.859
1571283850.085,52.734,-202.637,-171.387,31.250,62.988
1571283850.089,43.945,-133.789,-102.539,31.738,110.352
1571283850.093,26.367,62.012,8.789,21.484,20.996
1571283850.096,35.156,-77.637,-125.977,15.137,-13.184
1571283850.100,50.293,-4.395,-64.453,28.320,64.941
1571283850.104,44.922,251.953,127.930,41.016,100.586
1571283850.108,28.320,313.965,166.016,35.156,66.895
1571283850.112,26.367,1.465,-90.332,35.156,1.465
1571283850.116,36.621,-249.023,-282.227,42.969,25.879
1571283850.120,39.551,-106.934,-159.668,50.781,104.004
1571283850.124,26.855,-102.051,-162.598,41.504,61.523
1571283850.128,27.832,-405.273,-410.156,45.410,-31.250
1571283850.132,35.645,-858.887,-790.039,41.992,-75.195
1571283850.136,24.902,-366.211,-387.207,25.391,54.199
1571283850.139,18.555,313.477,130.371,24.414,104.980
1571283850.143,13.672,58.105,-104.004,23.438,5.371
1571283850.147,18.555,-179.688,-288.086,22.461,-20.020
1571283850.151,36.621,171.875,-13.184,33.691,62.012
1571283850.155,32.227,439.941,189.453,37.598,95.703
1571283850.159,17.090,102.539,-74.219,27.344,2.930
1571283850.163,17.090,-338.379,-398.926,22.949,-41.016
1571283850.167,37.109,-270.020,-321.777,36.133,40.527
1571283850.171,48.340,100.586,-20.996,42.480,109.375
1571283850.175,38.574,106.934,-8.301,34.180,64.941
1571283850.178,29.785,-189.453,-228.516,30.273,-9.766
1571283850.182,33.691,-58.105,-117.188,41.992,3.906
1571283850.186,44.922,430.176,268.066,52.734,84.961
1571283850.190,40.039,-27.832,-72.754,40.039,21.484
1571283850.194,33.203,-532.227,-426.758,32.227,-67.383
1571283850.198,39.551,-114.258,-102.051,38.086,-44.434
1571283850.202,57.617,314.453,224.121,49.805,68.359
1571283850.206,59.082,460.449,333.984,48.340,91.309
1571283850.210,41.504,147.949,90.820,33.691,6.348
1571283850.214,32.227,-71.289,-70.312,15.137,-23.438
1571283850.218,42.969,176.270,125.977,18.066,49.316
1571283850.221,41.504,59.570,63.965,20.508,87.891
1571283850.225,22.461,60.547,87.402,14.648,40.527
1571283850.229,22.461,280.273,233.887,24.414,0.977
1571283850.233,34.668,284.668,237.793,29.785,58.594
1571283850.237,37.598,389.648,342.285,33.691,121.094
1571283850.241,24.902,436.523,376.953,32.715,42.480
1571283850.245,23.926,283.203,258.789,29.297,-14.648
1571283850.249,30.273,187.500,198.242,33.691,32.227
1571283850.253,35.156,311.523,301.758,45.898,68.848
1571283850.257,26.855,116.211,156.250,44.434,17.578
1571283850.261,11.230,-150.879,-26.367,29.785,-20.508
1571283850.264,19.531,-488.281,-279.297,31.250,-37.109
1571283850.268,30.273,-495.117,-263.672,34.180,45.898
1571283850.272,18.066,229.004,283.203,28.809,103.027
1571283850.276,12.695,296.387,287.598,27.344,21.973
1571283850.280,23.438,-37.109,20.508,22.949,-12.695
1571283850.284,35.156,156.250,180.176,29.297,72.266
1571283850.288,37.598,550.781,468.750,26.367,122.070
1571283850.292,32.715,115.723,111.816,25.391,14.160
1571283850.296,27.832,-386.230,-260.742,21.973,-44.922
1571283850.300,34.668,-86.426,-31.250,18.555,38.574
1571283850.303,41.992,139.648,128.906,35.645,105.957
1571283850.307,29.785,-161.133,-105.469,33.203,51.270
1571283850.311,18.066,-767.090,-604.004,18.066,-56.152
1571283850.315,16.602,-758.789,-600.586,8.789,-64.453
1571283850.319,28.320,55.664,40.039,22.461,81.055
1571283850.323,24.902,192.871,107.910,28.320,71.777
1571283850.327,14.160,-154.785,-174.316,19.531,-24.414
1571283850.331,17.090,-125.488,-152.832,19.531,-13.672
1571283850.335,26.855,247.559,129.883,33.203,97.168
1571283850.339,29.297,262.695,131.836,42.480,89.844
1571283850.343,18.066,-59.570,-111.328,29.785,-2.930
1571283850.346,16.602,-210.449,-218.262,18.066,-10.254
1571283850.350,39.551,-190.918,-196.289,33.203,58.105
1571283850.354,54.688,-379.883,-326.172,52.246,77.148
1571283850.358,35.156,-650.391,-514.648,43.945,20.020
1571283850.362,17.578,-308.594,-267.578,25.391,6.348
1571283850.366,28.809,-7.324,-80.078,31.738,36.621
1571283850.370,39.062,188.477,69.336,47.852,107.422
1571283850.374,32.715,184.082,62.012,40.527,57.129
1571283850.378,23.926,71.777,-34.180,32.227,-10.742
1571283850.382,31.738,-15.137,-104.980,27.832,11.230
1571283850.386,47.852,58.594,-38.574,34.180,79.102
1571283850.389,32.715,226.562,93.262,31.250,80.566
1571283850.393,20.996,69.336,-46.387,22.461,-11.230
1571283850.397,34.668,-379.883,-390.137,28.809,-53.223
1571283850.401,41.504,-722.656,-609.375,35.156,26.367
1571283850.405,29.297,-529.785,-441.895,33.203,42.969
1571283850.409,25.879,-154.297,-173.828,36.621,-17.090
1571283850.413,32.715,-230.957,-255.859,41.016,-47.852
1571283850.417,34.180,-107.910,-159.180,35.156,27.344
1571283850.421,30.762,351.562,191.406,25.879,85.449
1571283850.425,15.625,402.832,218.750,13.184,33.203
1571283850.428,11.719,73.730,-32.227,12.695,-30.273
1571283850.432,22.949,-68.359,-130.371,18.555,-23.438
1571283850.436,30.762,298.340,175.781,26.367,63.965
1571283850.440,20.020,414.062,271.973,25.391,44.434
1571283850.444,8.301,-41.504,-71.777,10.742,-42.969
1571283850.448,19.531,-364.258,-293.457,12.695,-31.250
1571283850.452,30.273,-24.414,-14.648,30.762,52.734
1571283850.456,29.297,412.598,312.988,33.203,69.824
1571283850.460,28.809,-183.594,-145.996,23.926,-24.414
1571283850.464,30.762,-789.551,-588.867,21.973,-80.078
1571283850.468,39.551,-221.191,-134.766,33.203,21.484
1571283850.471,36.621,226.074,192.871,33.203,69.824
1571283850.475,27.832,73.730,63.477,32.227,11.230
1571283850.479,39.551,-107.422,-85.938,41.992,-50.293
1571283850.483,66.406,52.246,30.273,64.941,-7.812
1571283850.487,75.684,269.531,211.426,79.102,79.590
1571283850.491,70.312,-89.355,-61.523,79.590,12.207
1571283850.495,70.312,-499.023,-360.840,79.590,-35.645
1571283850.499,90.332,-366.699,-265.137,83.008,-15.137
1571283850.503,109.375,-49.316,-23.438,97.168,65.918
1571283850.507,107.422,-439.453,-310.547,98.633,31.250
1571283850.511,94.238,-505.371,-354.980,86.426,-24.414
1571283850.514,98.145,-301.758,-232.910,83.984,-34.668
1571283850.518,114.258,-283.691,-215.820,100.098,47.852
1571283850.522,103.516,-49.316,-29.785,95.215,82.520
1571283850.526,83.496,-90.332,-95.215,74.219,-21.484
1571283850.530,95.215,-211.426,-197.266,81.543,-38.574
1571283850.534,112.305,-85.938,-88.867,98.145,57.617
1571283850.538,107.422,-95.215,-89.844,98.145,90.332
1571283850.542,88.379,-397.949,-325.195,84.961,11.230
1571283850.546,70.801,-336.426,-278.320,74.219,2.441
1571283850.550,83.008,-461.914,-377.930,80.078,43.945
1571283850.553,79.590,-499.023,-390.137,75.684,93.750
1571283850.557,54.688,-7.324,-28.320,65.918,74.219
1571283850.561,52.246,-114.258,-153.809,63.965,-20.508
1571283850.565,57.617,-346.680,-332.520,62.500,-10.254
1571283850.569,63.965,4.883,-48.828,65.430,87.402
1571283850.573,57.617,89.844,-0.488,62.012,49.805
1571283850.577,43.457,-409.180,-379.395,52.734,-37.109
1571283850.581,48.828,-514.648,-451.172,46.387,-37.598
1571283850.585,63.477,-265.137,-255.371,62.500,53.223
1571283850.589,57.617,9.766,-38.574,69.336,100.098
1571283850.593,41.504,-39.062,-96.191,57.129,10.742
1571283850.596,45.410,-675.781,-589.844,50.293,-72.266
1571283850.600,55.664,-400.879,-347.168,61.523,19.043
1571283850.604,60.547,336.426,208.008,79.590,83.008
1571283850.608,49.316,195.801,80.078,75.684,17.090
1571283850.612,41.992,0.000,-58.594,65.430,-7.812
1571283850.616,55.176,229.492,116.699,69.824,25.879
1571283850.620,66.406,574.219,387.695,78.613,98.633
1571283850.624,59.570,475.098,325.195,69.336,56.152
1571283850.628,55.176,127.930,78.125,63.965,-5.859
1571283850.632,68.848,41.992,31.250,70.801,36.621
1571283850.636,83.496,110.352,97.168,82.031,87.402
1571283850.639,76.660,103.516,107.422,80.566,63.965
1571283850.643,63.477,106.445,114.746,67.871,11.719
1571283850.647,69.336,164.062,140.625,60.547,-11.230
1571283850.651,79.590,520.996,419.922,63.477,86.914
1571283850.655,76.172,317.871,282.715,69.824,108.887
1571283850.659,61.523,-189.941,-89.355,53.711,1.953
1571283850.663,53.711,41.992,90.332,36.621,-24.902
1571283850.667,62.500,278.320,263.184,48.828,44.434
1571283850.671,60.059,406.250,372.070,51.758,96.191
1571283850.675,39.551,410.645,378.906,38.086,31.738
1571283850.678,35.645,92.285,136.719,34.180,-33.203
1571283850.682,45.898,-152.832,-31.250,30.273,4.883
1571283850.686,45.898,-211.426,-44.922,20.996,80.566
1571283850.690,26.855,-16.113,108.887,16.113,57.129
1571283850.694,22.461,251.953,283.691,17.578,-2.930
1571283850.698,37.109,100.098,145.020,24.414,-17.578
1571283850.702,46.875,279.785,298.340,37.598,74.219
1571283850.706,37.109,550.781,509.277,33.691,70.801
1571283850.710,26.855,379.395,367.188,29.785,-16.602
1571283850.714,29.297,38.086,104.492,29.785,-46.387
1571283850.718,39.062,180.176,237.793,35.645,59.570
1571283850.721,37.109,584.961,547.363,40.527,135.254
1571283850.725,29.297,330.078,334.473,43.457,62.012
1571283850.729,33.691,-489.746,-292.480,38.574,-32.227
1571283850.733,33.203,-723.145,-451.660,30.273,0.977
1571283850.737,31.738,9.277,108.398,36.621,98.145
1571283850.741,18.555,307.617,301.758,31.250,81.543
1571283850.745,13.672,-67.383,-13.184,25.391,6.836
1571283850.749,29.297,-234.863,-156.250,32.715,-23.926
1571283850.753,36.621,121.094,116.699,36.133,47.852
1571283850.757,37.598,180.176,152.832,35.156,47.363
1571283850.761,34.668,-191.406,-141.602,29.297,-30.273
1571283850.764,24.414,-272.949,-213.379,12.207,-34.180
1571283850.768,30.273,108.887,74.707,20.020,69.824
1571283850.772,33.203,110.840,68.848,34.180,87.891
1571283850.776,24.902,-667.969,-524.414,19.043,-30.762
1571283850.780,26.367,-776.855,-593.262,6.836,-54.199
1571283850.784,42.480,-62.012,-65.430,33.203,53.711
1571283850.788,45.410,144.531,62.012,38.574,76.172
1571283850.792,41.016,-55.664,-96.680,35.156,3.906
1571283850.796,41.016,-65.430,-108.887,35.156,-30.273
1571283850.800,19.531,-88.867,-138.184,11.230,3.906
1571283850.803,12.695,52.734,-7.812,16.113,86.426
1571283850.807,17.090,98.145,23.926,25.391,30.762
1571283850.811,-12.207,-64.453,-120.605,-5.859,-46.875
1571283850.815,-30.762,41.504,-47.852,-33.691,19.531
1571283850.819,-43.945,61.523,-43.945,-57.129,80.566
1571283850.823,-60.547,-213.867,-250.000,-64.941,34.668
1571283850.827,-72.266,-194.336,-219.727,-75.195,2.441
1571283850.831,-102.539,39.062,-60.547,-120.117,12.207
1571283850.835,-85.449,-145.020,-211.426,-110.840,42.480
1571283850.839,-96.191,-269.043,-290.527,-111.328,29.297
1571283850.843,-150.879,-24.902,-115.723,-155.762,-29.297
1571283850.846,-156.250,-33.691,-159.668,-170.410,-46.387
1571283850.850,-152.344,70.801,-96.680,-167.969,20.996
1571283850.854,-150.391,406.250,151.367,-156.250,70.312
1571283850.858,-172.852,281.250,33.203,-177.246,3.906
1571283850.862,-168.945,-2.441,-200.684,-180.176,-48.828
1571283850.866,-126.465,-8.789,-209.473,-145.996,0.488
1571283850.870,-137.695,188.965,-46.387,-161.133,76.660
1571283850.874,-151.367,477.051,162.598,-166.992,52.734
1571283850.878,-132.324,285.645,-14.160,-147.949,-37.598
1571283850.882,-105.469,-89.355,-293.457,-133.789,-40.527
1571283850.886,-88.867,428.711,135.254,-108.398,83.496
1571283850.889,-87.402,766.602,378.906,-104.004,73.730
1571283850.893,-81.055,319.824,23.438,-102.051,-25.879
1571283850.897,-58.594,-8.301,-218.750,-77.637,-65.918
1571283850.901,-40.527,497.070,192.871,-51.758,49.316
1571283850.905,-32.715,956.543,547.852,-34.668,109.863
1571283850.909,-27.344,604.004,270.508,-32.715,-0.977
1571283850.913,-16.113,69.824,-118.652,-31.250,-55.176
1571283850.917,5.371,125.488,-44.434,-2.441,24.414
1571283850.921,22.461,433.105,208.984,23.926,93.262
1571283850.925,23.438,71.777,-66.406,16.602,22.949
1571283850.928,23.438,-288.574,-333.496,5.859,-48.340
1571283850.932,43.457,155.273,4.395,24.902,-3.906
1571283850.936,67.871,592.773,345.703,61.035,80.078
1571283850.940,62.500,473.145,270.020,71.289,36.621
1571283850.944,42.480,273.438,131.348,51.758,-28.320
1571283850.948,50.781,442.383,270.020,43.945,25.879
1571283850.952,75.195,576.660,373.047,66.895,89.844
1571283850.956,73.730,517.090,339.844,69.824,82.031
1571283850.960,62.500,133.301,58.105,62.500,9.277
1571283850.964,65.918,-244.629,-225.098,64.941,-49.316
1571283850.968,84.473,15.625,0.977,78.125,56.152
1571283850.971,86.914,-120.117,-78.613,83.496,92.285
1571283850.975,66.895,-186.523,-113.770,67.871,16.113
1571283850.979,68.359,47.852,48.340,62.988,-19.043
1571283850.983,84.473,82.520,69.824,72.754,38.574
1571283850.987,85.938,246.094,205.078,78.125,93.262
1571283850.991,60.547,383.301,307.617,63.965,59.570
1571283850.995,49.805,249.512,193.359,53.223,10.254
1571283850.999,57.617,128.418,104.004,52.246,36.133
1571283851.003,63.477,371.094,314.941,57.617,132.324
1571283851.007,66.406,280.762,242.188,65.918,81.055
1571283851.011,50.781,-156.250,-86.426,53.223,-13.672
1571283851.014,55.664,-607.422,-417.969,45.898,-24.414
1571283851.018,75.195,-519.531,-322.266,63.477,62.500
1571283851.022,64.941,192.871,215.332,58.594,94.238
1571283851.026,46.387,91.797,103.027,40.039,13.184
1571283851.030,38.574,-245.117,-157.715,33.203,-22.461
1571283851.034,47.852,81.543,95.215,41.992,45.898
1571283851.038,48.340,503.906,413.574,44.922,96.680
1571283851.042,41.504,332.031,271.484,43.945,30.273
1571283851.046,41.504,-1.953,24.902,41.016,-9.766
1571283851.050,62.988,207.031,194.824,54.199,53.711
1571283851.053,78.613,373.535,332.031,71.777,112.305
1571283851.057,65.918,100.586,142.578,59.570,65.918
1571283851.061,59.570,-498.535,-297.363,48.340,-17.578
1571283851.065,73.242,-423.340,-228.027,61.523,-6.348
1571283851.069,73.730,384.766,383.789,67.871,97.168
1571283851.073,50.293,445.312,409.180,48.828,75.684
1571283851.077,35.645,170.410,199.707,34.668,-4.395
1571283851.081,43.457,105.957,153.320,36.621,-12.695
1571283851.085,71.289,280.273,300.293,55.664,67.871
1571283851.089,72.266,402.344,399.902,58.105,69.336
1571283851.093,51.758,186.035,232.910,44.434,-7.812
1571283851.096,52.734,128.906,186.035,45.410,-24.902
1571283851.100,66.895,208.008,250.488,57.617,45.898
1571283851.104,65.430,-19.043,94.727,52.246,81.055
1571283851.108,51.758,-409.180,-187.988,47.852,-7.324
1571283851.112,44.922,-190.918,-22.949,42.969,-43.945
1571283851.116,56.152,240.234,289.062,39.551,39.551
1571283851.120,60.059,398.926,403.320,46.875,86.426
1571283851.124,50.781,299.316,323.242,44.434,10.742
1571283851.128,40.039,300.781,326.172,32.227,-12.695
1571283851.132,49.316,267.090,294.434,47.852,12.695
1571283851.136,58.105,349.609,370.605,57.129,83.984
1571283851.139,44.434,372.559,402.344,46.875,91.309
1571283851.143,38.086,207.520,272.949,46.387,3.906
1571283851.147,46.387,-77.637,50.293,42.969,-20.020
1571283851.151,58.594,-333.008,-109.375,40.527,73.242
1571283851.155,47.852,-57.129,114.258,36.133,87.402
1571283851.159,36.621,200.684,279.785,37.109,4.883
1571283851.163,53.711,-13.184,94.727,41.504,-27.832
1571283851.167,67.871,50.781,148.926,46.875,45.410
1571283851.171,50.781,437.500,440.918,42.480,91.797
1571283851.175,32.715,382.324,375.488,25.879,21.484
1571283851.178,34.180,52.246,118.164,15.625,-18.555
1571283851.182,51.270,9.277,91.309,32.227,22.949
1571283851.186,57.129,393.555,389.160,49.805,106.934
1571283851.190,37.109,471.680,433.594,39.551,83.496
1571283851.194,24.902,-41.992,37.598,30.273,3.906
1571283851.198,35.645,-485.352,-284.180,37.598,-3.418
1571283851.202,42.480,-86.426,38.086,42.969,97.656
1571283851.206,35.645,350.586,350.586,41.504,94.238
1571283851.210,32.227,-265.625,-138.672,36.621,-16.113
1571283851.214,38.086,-646.484,-415.039,28.320,-19.531
1571283851.218,47.363,-10.254,62.988,39.062,67.383
1571283851.221,40.039,293.945,268.066,40.039,91.309
1571283851.225,19.043,49.316,68.359,24.414,21.484
1571283851.229,20.996,-161.133,-102.051,16.113,-30.762
1571283851.233,34.668,28.809,37.598,23.438,30.273
1571283851.237,30.273,294.922,243.164,32.227,107.422
1571283851.241,24.902,9.766,21.973,30.273,55.664
1571283851.245,34.180,-499.023,-372.070,33.203,-41.504
1571283851.249,44.922,-355.957,-261.230,41.016,-8.789
1571283851.253,50.293,-88.867,-55.664,47.363,78.613
1571283851.257,41.504,-507.812,-370.117,40.527,26.855
1571283851.261,31.250,-524.902,-376.953,32.227,-27.344
1571283851.264,36.621,-83.008,-68.848,41.992,2.930
1571283851.268,52.734,130.859,80.566,51.270,83.008
1571283851.272,45.410,273.926,195.312,41.992,105.469
1571283851.276,21.973,262.695,175.781,31.250,32.227
1571283851.280,29.785,154.297,86.914,29.297,6.836
1571283851.284,52.246,185.059,121.582,47.363,64.941
1571283851.288,50.293,145.020,109.863,52.246,97.656
1571283851.292,35.645,-125.977,-94.238,34.180,27.832
1571283851.296,32.715,-183.105,-149.902,25.391,-33.691
1571283851.300,43.945,-390.137,-307.617,31.250,-8.789
1571283851.303,33.203,-353.027,-248.047,32.227,71.289
1571283851.307,18.066,65.918,61.523,32.227,47.363
1571283851.311,23.438,-245.605,-202.637,27.344,-42.969
1571283851.315,33.203,-373.047,-295.410,23.926,-29.785
1571283851.319,43.945,108.887,73.730,41.504,47.852
1571283851.323,34.668,399.414,285.645,43.945,45.898
1571283851.327,28.320,268.066,183.594,36.621,12.207
1571283851.331,38.574,41.992,4.395,38.574,-15.625
1571283851.335,49.316,104.492,74.219,50.293,51.270
1571283851.339,41.992,189.941,162.109,46.875,81.543
1571283851.343,32.715,-62.500,-26.855,38.574,9.766
1571283851.346,29.297,-579.102,-410.156,25.391,-34.180
1571283851.350,34.668,-335.449,-215.332,33.691,7.812
1571283851.354,41.016,325.684,276.367,48.828,51.758
1571283851.358,27.832,281.250,231.934,40.527,27.832
1571283851.362,31.250,4.395,13.184,34.668,-27.832
1571283851.366,52.246,28.320,33.203,46.875,-10.254
1571283851.370,60.547,327.637,272.949,60.547,64.453
1571283851.374,48.828,259.277,213.867,45.410,13.672
1571283851.378,36.621,-20.020,3.418,32.715,-45.898
1571283851.382,45.898,-187.988,-115.723,37.109,-20.996
1571283851.386,56.641,-12.695,43.457,49.316,68.359
1571283851.389,51.270,-16.113,58.105,51.758,82.520
1571283851.393,45.898,-475.586,-292.969,41.504,-14.160
1571283851.397,44.434,-256.348,-140.137,34.180,-43.457
1571283851.401,58.105,273.926,257.812,49.805,78.613
1571283851.405,53.223,429.688,373.535,52.246,114.258
1571283851.409,37.109,229.492,205.078,33.691,16.602
1571283851.413,41.504,179.199,160.645,34.180,-3.906
1571283851.417,61.523,288.574,244.629,51.270,57.617
1571283851.421,69.336,212.402,194.824,62.988,87.402
1571283851.425,50.781,-9.277,35.645,50.781,33.691
1571283851.428,33.203,-244.141,-156.250,31.738,-25.879
1571283851.432,39.551,-388.184,-273.926,37.598,8.789
1571283851.436,48.340,-472.168,-321.289,41.504,79.590
1571283851.440,40.527,-293.457,-188.477,33.203,55.176
1571283851.444,28.320,-50.781,-42.969,28.809,-18.066
1571283851.448,35.156,-169.922,-159.180,31.250,-26.367
1571283851.452,51.270,40.039,23.438,42.969,75.684
1571283851.456,45.410,376.953,282.227,39.062,89.355
1571283851.460,42.480,224.121,143.066,41.504,-3.906
1571283851.464,55.176,-29.785,-46.387,53.711,-11.719
1571283851.468,61.523,119.141,84.961,59.082,75.195
1571283851.471,56.152,420.410,315.918,50.781,101.562
1571283851.475,43.457,139.160,91.309,41.016,29.297
1571283851.479,43.457,-582.520,-454.102,37.598,-28.809
1571283851.483,54.688,-699.707,-521.973,39.551,17.090
1571283851.487,45.410,79.590,75.684,44.434,104.004
1571283851.491,33.691,365.234,256.836,41.016,61.035
1571283851.495,36.621,-37.598,-68.848,32.227,-27.344
1571283851.499,42.480,-6.348,-31.738,32.715,22.461
1571283851.503,46.387,453.613,317.871,43.945,103.516
1571283851.507,42.969,358.887,232.910,46.875,36.133
1571283851.511,31.250,11.719,-13.184,33.203,-9.277
1571283851.514,34.668,-5.371,-21.973,27.344,7.812
1571283851.518,41.992,327.637,235.840,38.574,80.566
1571283851.522,39.062,268.555,201.660,45.898,79.590
1571283851.526,29.785,-562.012,-412.109,41.016,-33.691
1571283851.530,25.391,-606.445,-421.387,32.715,-44.922
1571283851.534,44.434,143.555,151.367,54.688,80.078
1571283851.538,44.922,156.250,142.578,60.059,71.777
1571283851.542,16.113,-40.527,-4.883,33.691,-14.160
1571283851.546,16.113,144.043,143.555,24.414,0.488
1571283851.550,38.574,394.531,324.219,34.668,59.570
1571283851.553,43.945,456.543,375.000,42.480,83.496
1571283851.557,34.668,326.172,294.434,36.133,41.992
1571283851.561,25.879,280.273,261.230,26.367,3.906
1571283851.565,29.297,315.918,282.227,28.320,28.320
1571283851.569,41.016,340.820,325.195,36.621,107.422
1571283851.573,34.668,149.902,196.777,30.762,71.777
1571283851.577,27.832,108.398,171.875,21.973,19.531
1571283851.581,38.574,218.750,235.352,21.484,14.160
1571283851.585,52.246,-66.406,18.555,24.902,32.715
1571283851.589,45.898,-145.996,-4.883,23.438,62.012
1571283851.593,33.203,39.551,137.695,24.902,30.273
1571283851.596,38.574,-53.223,44.434,23.926,-10.742
1571283851.600,50.293,26.367,98.633,29.785,24.902
1571283851.604,43.457,273.438,291.992,32.715,68.848
1571283851.608,29.297,371.582,360.352,19.043,43.945
1571283851.612,27.344,27.344,72.266,11.719,-36.621
1571283851.616,39.551,-180.176,-69.824,21.973,17.090
1571283851.620,43.945,-44.434,53.223,31.738,91.309
1571283851.624,29.297,43.945,105.469,24.414,28.809
1571283851.628,25.879,-129.395,-43.945,14.648,-27.344
1571283851.632,40.527,-656.250,-446.289,20.020,-38.086
1571283851.636,47.363,-324.707,-163.574,35.156,50.781
1571283851.639,35.645,312.012,303.223,32.715,86.426
1571283851.643,14.160,50.293,63.965,19.043,-3.906
1571283851.647,15.625,-277.832,-186.035,16.602,-20.996
1571283851.651,32.227,-21.973,16.113,26.367,49.316
1571283851.655,29.297,276.855,233.887,29.297,65.430
1571283851.659,20.996,4.883,10.742,26.855,-11.230
1571283851.663,23.926,-361.328,-263.672,21.973,-19.043
1571283851.667,38.574,-313.477,-226.562,27.832,50.781
1571283851.671,41.504,-39.551,-30.273,35.156,62.988
1571283851.675,28.809,-360.840,-292.969,22.949,-14.160
1571283851.678,22.461,-895.020,-704.590,9.277,-90.820
1571283851.682,33.203,-386.230,-302.246,10.254,-15.137
1571283851.686,41.504,168.457,98.145,22.461,63.477
1571283851.690,28.320,74.707,9.277,22.461,12.695
1571283851.694,20.020,-66.406,-99.121,7.812,-36.133
1571283851.698,28.320,88.867,6.836,8.301,-5.859
1571283851.702,39.062,330.078,192.383,22.461,80.566
1571283851.706,33.203,250.000,148.438,20.020,86.426
1571283851.710,23.438,-132.812,-130.859,13.672,-2.930
1571283851.714,25.391,-299.805,-253.418,10.742,-20.508
1571283851.718,39.062,-133.789,-121.094,23.438,60.059
1571283851.721,35.156,-261.719,-207.520,25.879,68.848
1571283851.725,11.719,-227.539,-177.734,10.742,8.789
1571283851.729,12.207,85.938,32.715,14.160,-9.766
1571283851.733,33.203,104.980,43.457,34.180,45.898
1571283851.737,39.062,282.715,197.266,43.457,87.402
1571283851.741,22.949,465.332,339.355,29.785,47.363
1571283851.745,19.043,295.898,199.219,19.531,-20.508
1571283851.749,34.180,157.227,101.074,26.855,2.930
1571283851.753,45.410,408.691,325.195,38.086,99.609
1571283851.757,32.715,322.754,265.625,34.180,62.012
1571283851.761,22.461,-100.586,-48.340,31.250,-16.113
1571283851.764,40.527,-529.785,-367.188,32.715,-41.016
1571283851.768,45.410,-423.340,-252.930,35.645,47.363
1571283851.772,31.738,258.789,267.090,32.715,78.613
1571283851.776,25.879,326.172,284.668,30.762,0.000
1571283851.780,32.715,-1.953,28.320,35.645,-44.922
1571283851.784,47.852,197.266,193.359,40.527,38.086
1571283851.788,45.898,596.680,497.070,39.062,83.496
1571283851.792,32.715,374.023,320.801,34.668,0.977
1571283851.796,36.621,15.625,56.152,29.297,-31.250
1571283851.800,49.805,177.734,191.895,34.180,37.109
1571283851.803,49.805,352.539,333.984,44.434,100.098
1571283851.807,35.156,77.148,128.418,37.109,52.246
1571283851.811,27.832,-557.129,-353.027,21.484,-41.992
1571283851.815,38.086,-590.820,-373.535,23.438,-35.645
1571283851.819,46.387,57.129,120.117,43.457,67.871
1571283851.823,37.598,204.102,210.938,37.109,63.965
1571283851.827,23.926,-27.344,21.484,22.461,-18.555
1571283851.831,23.438,34.180,61.523,19.531,-17.578
1571283851.835,38.086,397.949,340.332,34.180,83.984
1571283851.839,34.668,442.383,375.977,36.133,89.844
1571283851.843,30.762,163.086,164.551,32.227,13.672
1571283851.846,41.504,60.547,79.102,33.203,-18.066
1571283851.850,54.688,22.949,53.223,49.316,44.922
1571283851.854,62.012,-163.086,-70.801,58.105,78.125
1571283851.858,41.992,-289.551,-165.039,41.504,10.742
1571283851.862,23.438,-139.160,-69.824,25.391,-13.184
1571283851.866,25.391,58.105,56.152,16.113,23.926
1571283851.870,35.156,-8.301,18.555,28.809,67.871
1571283851.874,29.297,-290.039,-181.152,29.785,19.043
1571283851.878,17.578,-337.891,-221.680,19.043,-28.809
1571283851.882,30.762,-178.711,-120.605,23.926,5.371
1571283851.886,45.898,144.531,119.141,34.668,99.609
1571283851.889,32.227,317.871,237.305,26.855,89.355
1571283851.893,25.391,191.406,115.234,20.508,0.000
1571283851.897,44.434,-252.441,-227.539,28.320,-30.273
1571283851.901,52.734,-291.504,-226.074,37.109,60.547
1571283851.905,35.645,168.457,129.883,31.250,105.469
1571283851.909,19.531,208.984,129.883,24.414,28.809
1571283851.913,27.344,-203.613,-205.566,26.367,-41.504
1571283851.917,40.039,-484.863,-393.066,34.180,14.160
1571283851.921,35.645,-51.758,-38.086,34.180,94.238
1571283851.925,21.484,217.773,136.230,29.785,46.387
1571283851.928,19.043,-110.840,-139.160,26.367,-16.113
1571283851.932,38.086,-234.863,-216.309,39.551,26.367
1571283851.936,46.387,274.902,200.195,52.246,131.348
1571283851.940,31.738,500.488,358.398,46.387,106.934
1571283851.944,23.926,8.789,-30.273,35.156,11.230
1571283851.948,35.645,-393.555,-319.824,29.297,0.000
1571283851.952,41.504,-104.980,-73.242,38.086,79.590
1571283851.956,31.738,306.152,234.863,43.945,80.566
1571283851.960,31.738,-182.617,-145.996,32.227,-8.789
1571283851.964,35.156,-580.078,-434.082,20.508,-34.668
1571283851.968,36.133,59.570,63.965,28.320,60.547
1571283851.971,38.574,364.746,281.738,34.180,74.219
1571283851.975,28.809,128.906,97.168,34.180,6.348
1571283851.979,28.809,34.180,28.809,28.809,-6.836
1571283851.983,41.992,281.250,218.262,33.691,51.270
1571283851.987,40.527,345.703,268.555,29.785,74.219
1571283851.991,31.738,-90.332,-55.664,23.438,-9.766
1571283851.995,31.738,-445.801,-304.688,20.996,-56.641
1571283851.999,38.086,-186.035,-103.027,24.902,-8.789
1571283852.003,47.363,243.652,220.215,31.738,85.449
1571283852.007,46.387,-180.176,-102.539,23.926,35.156
1571283852.011,32.715,-380.371,-247.070,16.113,-47.852
1571283852.014,36.621,-13.184,11.230,26.367,-24.902
1571283852.018,51.270,200.684,171.875,44.434,71.777
1571283852.022,41.992,285.156,240.234,34.180,84.473
1571283852.026,24.414,179.688,142.578,26.367,-11.230
1571283852.030,25.391,75.195,56.152,26.855,-29.297
1571283852.034,41.016,200.195,165.039,34.668,66.406
1571283852.038,44.434,173.828,157.227,42.969,84.473
1571283852.042,33.203,-222.656,-144.531,33.203,-13.184
1571283852.046,26.855,-403.320,-280.273,22.949,-46.875
1571283852.050,39.062,-482.910,-340.332,32.227,5.859
1571283852.053,46.875,-371.582,-240.234,39.062,73.730
1571283852.057,31.738,149.902,147.949,30.762,64.941
1571283852.061,31.250,94.727,65.430,31.738,-27.344
1571283852.065,46.875,-55.176,-41.992,44.434,-2.930
1571283852.069,51.758,248.535,200.195,53.223,83.984
1571283852.073,34.668,341.797,250.488,41.504,34.668
1571283852.077,28.320,38.086,12.207,28.320,-26.367
1571283852.081,41.992,-191.406,-168.457,31.250,-27.344
1571283852.085,46.875,-103.027,-86.426,41.016,60.547
1571283852.089,34.668,31.738,28.320,37.598,78.125
1571283852.093,34.180,-43.457,-42.969,30.762,15.137
1571283852.096,46.875,-615.723,-488.770,20.996,-30.762
1571283852.100,51.758,-473.633,-353.027,26.855,56.152
1571283852.104,61.523,228.027,171.875,46.875,111.328
1571283852.108,59.082,80.078,19.043,40.039,6.836
1571283852.112,49.316,-208.496,-205.078,23.438,-26.367
1571283852.116,44.434,55.664,-4.883,21.484,40.039
1571283852.120,34.180,391.113,245.605,22.461,103.027
1571283852.124,27.832,271.484,151.855,17.090,65.430
1571283852.128,20.996,-46.387,-94.727,9.277,-10.742
1571283852.132,28.809,-247.559,-244.141,16.113,-1.465
1571283852.136,43.457,-15.137,-41.016,30.762,91.797
1571283852.139,40.039,-160.645,-153.809,28.320,48.340
1571283852.143,28.320,-630.371,-502.930,17.090,-25.391
1571283852.147,38.574,-328.125,-280.762,29.297,-21.484
1571283852.151,54.688,196.777,104.004,48.828,68.359
1571283852.155,43.945,151.367,65.430,45.898,61.523
1571283852.159,26.855,-126.953,-129.883,38.574,15.137
1571283852.163,23.926,35.645,-8.789,31.250,21.484
1571283852.167,38.574,208.984,103.516,41.504,44.922
1571283852.171,39.551,307.129,192.871,51.758,83.496
1571283852.175,29.785,201.172,109.863,38.086,1.953
1571283852.178,32.715,-173.340,-176.758,28.809,-61.523
1571283852.182,46.387,-267.578,-221.680,39.551,5.371
1571283852.186,58.105,-266.602,-188.965,53.223,70.801
1571283852.190,49.805,-130.859,-77.148,50.293,36.133
1571283852.194,38.086,225.586,173.828,38.086,8.301
1571283852.198,46.387,192.871,124.512,39.062,14.648
1571283852.202,60.059,275.391,192.383,52.246,56.641
1571283852.206,48.828,494.629,367.188,42.480,49.805
1571283852.210,34.668,441.895,328.125,23.438,17.090
1571283852.214,41.992,219.238,161.133,19.043,29.785
1571283852.218,51.270,298.828,232.422,26.855,81.055
1571283852.221,40.527,532.227,415.039,28.320,74.219
1571283852.225,25.391,233.887,193.848,23.438,2.441
1571283852.229,31.738,-472.656,-334.473,22.461,-63.965
1571283852.233,41.504,-557.129,-362.793,22.461,1.465
1571283852.237,28.320,258.301,272.461,20.020,102.539
1571283852.241,12.695,496.582,415.527,19.043,42.480
1571283852.245,11.230,155.762,146.973,12.207,-21.484
1571283852.249,24.902,133.301,138.184,17.090,6.348
1571283852.253,33.691,490.723,419.922,31.250,74.707
1571283852.257,26.367,456.055,394.043,36.621,28.320
1571283852.261,17.090,74.707,105.469,29.297,-42.969
1571283852.264,23.926,31.738,74.219,27.344,-20.508
1571283852.268,31.250,474.121,421.387,44.922,97.656
1571283852.272,23.438,401.367,361.328,48.340,92.285
1571283852.276,18.555,-382.324,-222.168,36.621,-10.254
1571283852.280,20.508,-445.801,-254.883,27.832,-17.578
1571283852.284,36.133,232.422,253.418,45.898,85.449
1571283852.288,38.574,378.906,342.285,50.293,96.191
1571283852.292,23.926,16.113,52.246,30.762,-4.395
1571283852.296,24.902,-16.602,27.344,28.320,-16.602
1571283852.300,43.945,173.828,160.156,42.480,39.551
1571283852.303,46.875,235.352,208.984,43.945,83.008
1571283852.307,33.691,79.590,93.750,33.203,41.016
1571283852.311,36.133,-74.219,-31.738,32.715,-17.578
1571283852.315,53.223,10.254,29.785,38.574,21.484
1571283852.319,56.641,-34.180,2.441,42.480,86.914
1571283852.323,38.574,-262.207,-155.273,28.809,65.430
1571283852.327,30.762,-330.078,-208.008,19.043,2.930
1571283852.331,45.410,-238.281,-162.109,28.320,-11.230
1571283852.335,62.012,-146.484,-92.285,42.480,71.289
1571283852.339,49.316,-202.637,-140.137,33.203,42.969
1571283852.343,32.227,-5.371,3.418,20.508,7.812
1571283852.346,39.062,22.461,8.301,25.391,12.207
1571283852.350,56.641,54.199,28.320,38.574,48.340
1571283852.354,51.758,301.270,225.586,36.133,96.680
1571283852.358,31.250,288.086,207.031,21.973,37.109
1571283852.362,35.156,-30.273,-43.945,22.461,-29.785
1571283852.366,49.805,-196.289,-155.762,37.109,19.531
1571283852.370,43.945,-79.102,-44.922,39.062,91.797
1571283852.374,31.250,-126.465,-85.938,26.855,36.133
1571283852.378,27.832,-349.121,-266.602,21.973,-30.273
1571283852.382,36.133,-541.992,-409.668,32.715,-14.648
1571283852.386,40.527,-304.688,-218.262,40.527,49.805
1571283852.389,30.273,153.320,123.047,34.668,70.801
1571283852.393,27.832,15.137,-9.766,26.367,1.953
1571283852.397,29.297,-150.879,-138.184,15.137,8.301
1571283852.401,33.203,418.457,314.941,21.484,140.625
1571283852.405,32.715,656.738,477.539,27.344,104.492
1571283852.409,22.461,84.961,47.852,20.020,-1.465
1571283852.413,18.555,-458.496,-330.566,9.277,-7.812
1571283852.417,27.344,-229.004,-130.859,14.648,62.012
1571283852.421,28.809,259.766,235.840,20.508,85.449
1571283852.425,23.926,-54.199,-10.742,15.625,7.812
1571283852.428,29.785,-563.965,-372.559,15.625,-31.250
1571283852.432,25.391,-33.203,33.203,14.160,29.297
1571283852.436,19.531,504.395,417.969,21.484,99.121
1571283852.440,19.043,252.441,198.242,21.973,28.320
1571283852.444,17.090,-40.039,-41.016,19.531,-39.551
1571283852.448,28.320,138.672,79.102,33.691,-1.465
1571283852.452,46.875,348.145,232.422,56.152,78.125
1571283852.456,45.410,216.309,134.277,56.641,49.316
1571283852.460,41.504,-155.762,-138.184,56.641,-23.926
1571283852.464,58.594,-362.305,-279.297,71.289,-18.066
1571283852.468,79.590,-100.098,-67.383,87.891,59.082
1571283852.471,82.031,-252.930,-174.316,93.750,68.359
1571283852.475,74.707,-413.086,-286.133,91.309,-3.418
1571283852.479,81.543,-180.176,-131.836,98.633,-35.645
1571283852.483,96.680,-93.750,-73.242,112.793,33.691
1571283852.487,99.121,-33.203,-21.973,117.676,59.570
1571283852.491,91.797,71.777,61.523,117.188,17.578
1571283852.495,93.750,-142.090,-117.188,114.258,-29.297
1571283852.499,101.562,-405.762,-320.312,115.234,-1.953
1571283852.503,109.863,-88.379,-53.223,129.883,83.008
1571283852.507,100.586,-125.000,-85.449,124.023,46.387
1571283852.511,81.543,-379.883,-282.227,104.492,-12.207
1571283852.514,94.727,-592.773,-443.848,102.539,4.883
1571283852.518,104.004,-634.277,-461.914,102.539,72.266
1571283852.522,85.938,-115.723,-76.172,95.703,69.336
1571283852.526,71.777,-35.645,-49.805,85.449,8.789
1571283852.530,74.707,-356.445,-313.477,79.102,-29.297
1571283852.534,83.496,-143.066,-135.742,81.055,66.895
1571283852.538,74.219,316.895,216.309,83.984,128.418
1571283852.542,61.523,75.195,9.766,78.613,18.555
1571283852.546,61.523,-334.961,-297.852,67.871,-32.227
1571283852.550,72.754,-168.945,-157.715,69.824,37.109
1571283852.553,76.660,29.297,1.953,77.148,91.797
1571283852.557,67.871,-264.160,-219.727,68.359,37.598
1571283852.561,64.941,-819.824,-666.992,52.734,-37.598
1571283852.565,66.895,-647.461,-512.207,48.828,14.648
1571283852.569,71.777,131.348,97.168,61.523,111.816
1571283852.573,68.359,114.746,52.734,64.941,62.012
1571283852.577,59.082,-245.117,-216.797,60.547,-15.625
1571283852.581,65.430,-149.902,-139.160,61.523,-11.230
1571283852.585,77.148,246.094,168.457,69.824,82.520
1571283852.589,69.824,278.320,203.125,70.801,103.516
1571283852.593,57.617,-16.602,-11.719,63.477,23.926
1571283852.596,52.734,-63.965,-49.316,52.246,-17.090
1571283852.600,60.059,-15.137,-3.418,59.570,48.828
1571283852.604,60.547,-186.523,-107.422,58.594,84.961
1571283852.608,43.457,-654.785,-449.707,44.922,-7.324
1571283852.612,31.250,-626.465,-428.223,40.527,-53.223
1571283852.616,33.203,-118.164,-54.688,43.457,18.066
1571283852.620,35.156,170.410,157.227,52.246,75.195
1571283852.624,24.414,167.969,154.785,45.898,26.367
1571283852.628,20.020,103.027,92.773,35.645,-37.598
1571283852.632,39.062,147.949,125.488,42.480,16.113
1571283852.636,50.293,304.688,259.766,52.246,100.098
1571283852.639,32.227,306.152,262.207,40.039,48.828
1571283852.643,21.484,263.184,233.398,28.320,11.230
1571283852.647,32.227,-14.648,18.555,33.691,3.418
1571283852.651,42.480,-496.582,-322.754,40.527,21.973
1571283852.655,34.180,-293.945,-128.418,32.715,54.688
1571283852.659,29.297,125.977,166.016,27.832,11.230
1571283852.663,41.016,-101.074,-51.758,33.203,-54.199
1571283852.667,47.852,-206.055,-115.234,43.945,12.207
1571283852.671,40.527,148.438,168.945,47.852,65.918
1571283852.675,29.297,314.941,285.156,41.992,31.250
1571283852.678,28.320,100.586,117.188,41.504,2.930
1571283852.682,41.992,77.637,104.492,47.363,46.387
1571283852.686,51.758,439.941,389.160,59.082,125.977
1571283852.690,47.852,505.859,429.199,61.035,66.895
1571283852.694,41.992,-184.082,-90.820,43.945,-19.043
1571283852.698,43.457,-595.703,-376.465,39.062,10.254
1571283852.702,49.805,29.297,106.445,57.129,86.426
1571283852.706,43.457,333.984,313.965,57.617,62.988
1571283852.710,35.645,-20.020,32.227,47.852,-20.996
1571283852.714,38.086,-206.055,-106.934,41.504,-30.273
1571283852.718,45.410,178.223,187.988,44.922,59.570
1571283852.721,38.086,256.836,246.582,44.434,67.383
1571283852.725,23.926,-13.184,54.199,30.273,23.438
1571283852.729,24.902,-53.223,16.113,23.926,-2.441
1571283852.733,43.945,173.340,175.293,36.133,43.457
1571283852.737,49.805,367.188,333.496,41.504,104.004
1571283852.741,26.855,63.965,107.422,24.414,45.898
1571283852.745,18.066,-436.035,-273.926,11.719,-49.316
1571283852.749,27.832,-345.703,-188.965,14.160,0.977
1571283852.753,36.133,86.426,137.695,26.367,87.402
1571283852.757,29.785,-321.777,-179.688,21.484,22.461
1571283852.761,12.695,-514.160,-319.824,7.812,-42.969
1571283852.764,22.949,-85.938,-13.184,18.555,-14.160
1571283852.768,42.969,98.145,115.723,33.203,55.176
1571283852.772,35.156,62.012,90.820,35.645,32.227
1571283852.776,28.320,104.004,125.977,28.320,3.418
1571283852.780,40.039,-62.988,-16.602,27.344,-12.695
1571283852.784,44.922,-38.574,12.695,36.133,45.898
1571283852.788,39.551,41.992,80.078,36.621,65.430
1571283852.792,33.691,-211.426,-119.629,34.180,-19.531
1571283852.796,39.551,-403.320,-262.695,33.203,-52.734
1571283852.800,53.711,-529.297,-349.609,47.852,4.883
1571283852.803,51.270,-401.855,-237.793,48.828,58.594
1571283852.807,37.109,3.906,48.828,37.109,6.348
1571283852.811,36.133,14.160,14.160,37.109,-61.523
1571283852.815,41.504,-56.641,-40.039,41.016,-9.277
1571283852.819,43.945,189.941,151.855,42.969,54.688
1571283852.823,31.250,344.727,258.789,31.250,24.414
1571283852.827,24.414,155.762,108.887,28.809,-15.625
1571283852.831,36.133,-42.480,-41.992,32.715,-10.742
1571283852.835,45.898,57.617,52.246,39.551,65.430
1571283852.839,40.527,140.625,125.488,40.527,80.566
1571283852.843,35.645,-30.762,-0.977,36.133,39.551
1571283852.846,39.551,-542.969,-398.926,30.762,-11.230
1571283852.850,37.598,-348.145,-247.070,27.832,31.250
1571283852.854,32.227,367.676,289.062,32.715,94.727
1571283852.858,28.320,209.961,136.719,31.250,15.625
1571283852.862,21.973,-129.883,-129.883,22.461,-41.016
1571283852.866,25.391,144.043,87.402,25.879,31.738
1571283852.870,26.367,478.027,338.867,26.367,93.262
1571283852.874,9.277,271.484,179.199,21.973,28.809
1571283852.878,5.859,-18.555,-40.527,20.508,-30.273
1571283852.882,19.531,-131.836,-124.023,17.090,13.184
1571283852.886,20.508,109.863,78.613,25.879,104.980
1571283852.889,14.648,33.203,16.602,21.484,78.125
1571283852.893,11.719,-604.004,-464.844,11.719,-13.184
1571283852.897,21.973,-359.375,-273.926,18.066,-5.371
1571283852.901,45.898,191.406,121.582,41.504,63.965
1571283852.905,50.781,254.395,166.016,48.340,72.266
1571283852.909,40.039,122.559,65.918,36.621,9.277
1571283852.913,40.039,25.879,-29.785,35.645,-48.340
1571283852.917,56.641,190.918,104.980,49.805,40.527
1571283852.921,58.594,328.125,224.121,50.781,94.727
1571283852.925,38.086,280.273,186.035,39.062,37.109
1571283852.928,39.062,-90.820,-108.887,34.180,-34.180
1571283852.932,59.082,-318.848,-259.277,48.340,20.996
1571283852.936,65.918,-125.488,-83.008,54.199,101.074
1571283852.940,49.316,101.074,77.148,40.527,56.641
1571283852.944,32.227,168.945,102.539,28.809,-6.836
1571283852.948,44.922,-11.719,-46.387,31.738,3.418
1571283852.952,57.129,-148.926,-119.629,42.969,80.078
1571283852.956,36.621,116.699,101.074,33.203,74.219
1571283852.960,24.414,222.656,162.598,29.785,5.371
1571283852.964,30.762,14.160,-6.348,30.762,-6.836
1571283852.968,33.691,99.121,66.406,32.227,42.480
1571283852.971,25.391,384.766,296.875,34.668,73.242
1571283852.975,15.625,283.691,229.980,31.738,53.223
1571283852.979,19.043,-293.945,-210.938,28.809,1.465
1571283852.983,28.320,-562.500,-396.973,28.320,12.207
1571283852.987,24.902,0.488,48.340,29.297,57.617
1571283852.991,9.277,239.746,202.637,30.273,5.371
1571283852.995,2.930,-60.547,-34.180,22.461,-43.457
1571283852.999,13.184,-62.988,-19.043,20.508,20.020
1571283853.003,23.438,395.508,331.055,29.785,102.051
1571283853.007,25.391,269.531,223.633,32.227,47.852
1571283853.011,17.090,-135.254,-78.125,22.949,-22.949
1571283853.014,20.508,14.160,39.551,19.531,20.508
1571283853.018,35.156,405.273,335.938,38.574,102.539
1571283853.022,32.227,264.160,224.121,43.457,62.988
1571283853.026,26.855,-566.406,-398.926,29.785,-46.875
1571283853.030,31.250,-689.941,-476.074,24.902,-61.035
1571283853.034,45.898,76.172,103.516,34.180,46.875
1571283853.038,49.805,303.223,257.812,42.969,70.312
1571283853.042,38.574,86.914,86.914,33.203,9.277
1571283853.046,36.133,49.805,46.875,18.555,-24.902
1571283853.050,49.316,251.953,188.477,26.855,35.645
1571283853.053,52.246,314.453,235.840,34.668,76.172
1571283853.057,37.598,190.430,150.879,22.949,37.109
1571283853.061,36.133,-12.695,-9.277,14.160,-8.789
1571283853.065,48.340,-73.242,-54.688,24.414,11.230
1571283853.069,54.688,-97.168,-55.176,33.691,71.289
1571283853.073,44.434,-352.539,-233.398,22.461,26.367
1571283853.077,23.926,-36.621,12.695,15.625,17.578
1571283853.081,23.438,209.961,166.992,16.113,27.832
1571283853.085,36.621,275.879,213.867,25.391,70.312
1571283853.089,29.297,286.133,226.562,31.250,42.480
1571283853.093,8.789,206.543,163.086,15.625,-22.461
1571283853.096,12.207,106.445,83.008,6.836,-11.719
1571283853.100,26.367,131.836,104.980,19.043,49.805
1571283853.104,18.066,285.156,225.586,19.531,66.895
1571283853.108,3.906,236.328,183.594,15.625,4.395
1571283853.112,4.883,29.785,21.973,15.625,-23.926
1571283853.116,22.461,-109.375,-72.266,27.344,30.762
1571283853.120,21.484,-67.383,-14.160,33.691,85.449
1571283853.124,3.906,19.531,58.105,26.367,49.805
1571283853.128,0.488,-37.109,-2.441,23.438,-2.441
1571283853.132,18.555,-505.371,-358.887,29.297,-10.742
1571283853.136,27.832,-291.992,-167.480,35.645,51.758
1571283853.139,17.090,309.082,283.203,26.367,73.730
1571283853.143,18.555,55.176,56.641,22.949,-15.625
1571283853.147,31.738,-156.738,-104.004,31.250,-26.855
1571283853.151,39.062,281.250,250.000,38.574,82.031
1571283853.155,33.203,554.199,451.172,37.109,101.074
1571283853.159,29.297,292.480,251.465,31.738,34.180
1571283853.163,38.574,-187.500,-110.840,24.414,-29.785
1571283853.167,53.223,-210.449,-105.469,32.715,34.180
1571283853.171,46.387,219.238,241.211,41.016,107.422
1571283853.175,36.621,-67.871,8.789,32.227,28.320
1571283853.178,36.621,-638.672,-419.434,16.602,-44.922
1571283853.182,41.992,-153.320,-48.828,22.461,13.672
1571283853.186,46.387,416.504,366.211,33.203,98.633
1571283853.190,31.738,378.906,331.543,19.531,84.961
1571283853.194,18.555,180.664,173.340,3.418,19.043
1571283853.198,26.855,147.461,126.465,6.348,-18.066
1571283853.202,35.156,262.695,224.121,18.066,42.969
1571283853.206,26.367,208.984,193.848,19.531,35.645
1571283853.210,12.207,-170.898,-93.750,10.742,-38.086
1571283853.214,24.414,-305.176,-184.082,19.043,-3.906
1571283853.218,42.480,-100.098,-29.297,38.086,66.895
1571283853.221,16.602,-290.039,-170.898,8.789,50.781
1571283853.225,-13.184,-283.691,-157.715,-19.043,12.695
1571283853.229,-5.371,117.676,126.953,-11.719,21.973
1571283853.233,9.277,94.727,99.609,1.953,53.711
1571283853.237,11.719,130.371,150.391,9.277,66.895
1571283853.241,5.859,263.184,254.395,1.465,18.555
1571283853.245,0.488,184.570,170.410,-4.883,-8.789
1571283853.249,11.719,161.133,138.672,-1.953,46.875
1571283853.253,19.043,332.031,273.438,8.301,90.820
1571283853.257,9.277,193.848,175.293,11.230,57.617
1571283853.261,4.395,-55.176,-8.789,3.418,7.812
1571283853.264,20.996,-323.242,-219.238,8.301,-14.648
1571283853.268,33.203,-424.316,-272.949,19.043,49.805
1571283853.272,21.484,56.641,93.750,21.484,54.688
1571283853.276,14.160,155.273,135.742,17.090,-9.766
1571283853.280,22.461,-80.566,-55.664,17.090,-18.555
1571283853.284,35.156,142.578,125.000,28.320,62.988
1571283853.288,35.156,354.980,281.738,31.738,73.730
1571283853.292,27.832,-35.645,-12.207,25.391,-14.648
1571283853.296,35.645,-243.164,-158.691,20.508,-33.203
1571283853.300,54.688,86.426,90.332,35.645,52.734
1571283853.303,55.664,316.406,257.812,39.551,116.211
1571283853.307,35.645,43.457,45.410,23.926,42.969
1571283853.311,33.691,-589.844,-430.664,13.672,-41.016
1571283853.315,42.480,-489.258,-343.262,12.695,4.883
1571283853.319,44.434,351.074,289.551,20.020,102.539
1571283853.323,36.621,271.973,195.801,19.531,28.320
1571283853.327,21.973,-118.652,-96.680,10.254,-41.992
1571283853.331,25.879,56.641,47.363,13.672,6.348
1571283853.335,42.480,398.438,307.617,27.832,75.195
1571283853.339,38.086,377.441,296.875,27.344,54.688
1571283853.343,26.855,86.914,85.938,21.484,2.441
1571283853.346,33.203,-106.445,-56.152,25.391,-6.836
1571283853.350,44.434,11.719,40.039,34.668,49.805
1571283853.354,40.039,-99.121,-32.715,35.645,66.406
1571283853.358,21.484,-561.035,-371.582,20.020,-21.973
1571283853.362,15.625,-313.965,-184.082,15.137,-29.297
1571283853.366,30.762,131.348,124.023,29.297,29.297
1571283853.370,33.203,317.871,261.230,35.645,82.031
1571283853.374,18.066,294.434,245.117,24.414,41.504
1571283853.378,15.625,216.797,173.340,16.113,-9.277
1571283853.382,31.738,238.770,184.082,21.484,30.762
1571283853.386,41.504,372.070,297.363,30.762,99.121
1571283853.389,32.715,375.488,306.152,24.902,64.941
1571283853.393,29.297,203.613,168.457,16.602,-4.395
1571283853.397,38.574,-78.125,-49.316,23.926,-1.465
1571283853.401,48.340,-454.102,-309.082,31.250,49.316
1571283853.405,38.086,-367.676,-223.633,23.438,35.156
1571283853.409,23.438,11.719,47.852,16.113,0.488
1571283853.413,33.203,-71.777,-44.434,19.531,-15.625
1571283853.417,55.176,-85.449,-59.570,32.227,25.391
1571283853.421,47.852,246.582,205.566,29.785,83.008
1571283853.425,24.414,353.516,273.926,20.020,48.340
1571283853.428,29.297,0.488,-20.996,18.555,-30.273
1571283853.432,48.340,-111.328,-104.492,25.391,-1.953
1571283853.436,52.734,279.785,206.543,35.645,84.473
1571283853.440,39.062,357.910,258.789,31.250,42.969
1571283853.444,33.691,-318.848,-265.625,23.438,-48.828
1571283853.448,41.504,-716.309,-547.852,27.832,-40.039
1571283853.452,44.434,3.906,24.414,45.410,83.008
1571283853.456,31.738,367.676,275.391,41.992,70.312
1571283853.460,20.508,-137.207,-121.582,25.879,-28.809
1571283853.464,27.344,-295.410,-228.027,22.949,-10.254
1571283853.468,35.645,280.273,208.496,37.598,93.262
1571283853.471,25.391,562.012,415.039,37.109,119.141
1571283853.475,13.672,214.844,145.996,25.879,25.879
1571283853.479,9.277,-47.363,-53.711,20.020,-20.996
1571283853.483,21.484,209.961,150.391,35.156,61.035
1571283853.487,29.297,375.488,278.809,48.340,89.844
1571283853.491,23.926,-72.754,-58.105,34.668,2.441
1571283853.495,11.719,-467.773,-339.355,9.766,-20.508
1571283853.499,16.113,-152.832,-101.074,5.859,44.922
1571283853.503,37.598,163.086,129.395,23.438,83.496
1571283853.507,26.367,-35.156,-13.184,14.648,33.203
1571283853.511,14.648,-150.879,-106.934,2.930,-33.203
1571283853.514,30.762,-132.812,-111.328,9.766,-7.324
1571283853.518,47.363,2.441,-1.465,29.785,92.285
1571283853.522,43.945,-259.277,-190.430,29.785,61.523
1571283853.526,26.367,-328.613,-238.281,17.578,-8.301
1571283853.530,33.691,-7.812,-21.973,21.973,2.441
1571283853.534,50.293,46.387,3.418,29.785,46.875
1571283853.538,38.574,-39.551,-45.410,21.973,54.688
1571283853.542,22.461,-200.195,-154.297,9.766,15.625
1571283853.546,21.484,-217.773,-178.223,12.695,-15.137
1571283853.550,38.574,-265.137,-226.074,22.461,28.809
1571283853.553,42.969,-334.961,-259.766,24.902,66.895
1571283853.557,21.484,7.324,-1.465,19.531,23.926
1571283853.561,17.578,122.559,53.223,13.672,-0.488
1571283853.565,35.645,67.871,3.418,23.438,37.598
1571283853.569,38.574,309.082,196.777,34.668,92.773
1571283853.573,25.879,310.059,195.312,32.227,66.406
1571283853.577,19.531,61.523,8.789,29.297,17.578
1571283853.581,29.297,-2.441,-42.969,32.227,16.602
1571283853.585,43.945,47.363,2.930,46.387,78.125
1571283853.589,34.180,98.633,56.152,38.574,84.473
1571283853.593,26.367,5.371,-24.414,25.879,8.301
1571283853.596,39.551,-711.914,-610.352,26.367,-83.496
1571283853.600,45.410,-586.914,-476.562,30.273,18.066
1571283853.604,33.691,263.672,185.059,33.691,103.027
1571283853.608,22.949,144.531,54.688,24.414,32.715
1571283853.612,29.297,-129.395,-157.715,19.531,-1.953
1571283853.616,41.992,175.293,76.172,26.855,63.477
1571283853.620,42.480,561.523,365.234,30.273,129.883
1571283853.624,32.227,351.074,192.871,27.344,56.641
1571283853.628,33.691,-184.570,-215.332,29.297,-28.809
1571283853.632,49.805,-456.543,-420.410,34.180,-13.672
1571283853.636,51.758,-179.199,-202.148,35.156,65.430
1571283853.639,42.969,-264.160,-280.762,37.109,31.738
1571283853.643,39.062,-739.746,-641.113,32.227,-37.598
1571283853.647,46.875,-333.496,-332.520,26.367,6.348
1571283853.651,72.754,258.789,95.703,52.246,82.520
1571283853.655,57.129,247.559,83.496,49.805,50.781
1571283853.659,38.086,78.613,-30.762,35.156,0.977
1571283853.663,56.641,36.133,-65.918,41.504,-27.344
1571283853.667,51.758,107.422,1.465,33.203,13.184
1571283853.671,41.504,219.727,125.488,29.297,57.617
1571283853.675,34.668,129.883,81.055,25.391,-17.090
1571283853.678,32.227,-213.379,-166.992,16.602,-83.008
1571283853.682,46.875,-332.520,-222.656,26.367,-27.344
1571283853.686,43.945,-371.094,-210.449,24.902,40.527
1571283853.690,35.645,-215.820,-85.449,20.996,11.719
1571283853.694,40.039,175.781,171.387,27.832,-27.344
1571283853.698,50.293,198.242,152.344,36.133,-10.254
1571283853.702,62.012,382.812,304.688,45.410,59.082
1571283853.706,53.711,700.195,562.500,43.945,71.777
1571283853.710,42.969,605.469,479.980,34.180,5.859
1571283853.714,48.828,285.645,239.258,30.273,-21.973
1571283853.718,59.570,401.367,365.234,38.574,70.801
1571283853.721,55.664,611.816,533.691,40.527,78.125
1571283853.725,40.527,277.832,265.137,35.156,8.789
1571283853.729,42.969,-384.277,-248.047,36.133,-29.297
1571283853.733,50.781,-533.691,-347.656,42.969,31.738
1571283853.737,37.109,142.578,164.062,39.062,103.027
1571283853.741,28.320,203.125,172.852,33.203,55.664
1571283853.745,31.250,-242.676,-184.082,28.320,-17.090
1571283853.749,41.504,-108.887,-84.961,31.738,9.766
1571283853.753,51.270,337.402,250.977,39.062,77.637
1571283853.757,44.434,384.766,286.133,35.645,55.664
1571283853.761,43.457,98.633,78.125,35.156,11.719
1571283853.764,59.082,142.578,117.188,49.316,31.738
1571283853.768,63.477,585.449,461.426,65.430,118.652
1571283853.772,48.828,482.910,375.977,60.059,80.566
1571283853.776,35.156,-336.426,-235.840,40.527,-13.184
1571283853.780,34.668,-469.238,-325.684,33.203,-22.461
1571283853.784,47.363,271.973,215.332,43.457,63.965
1571283853.788,53.223,443.359,308.105,47.852,67.871
1571283853.792,41.992,221.191,124.512,43.945,9.766
1571283853.796,35.645,110.840,19.531,39.551,-5.859
1571283853.800,47.363,175.781,52.734,44.922,50.293
1571283853.803,54.688,357.422,187.500,55.176,92.773
1571283853.807,51.758,188.477,41.016,56.641,22.461
1571283853.811,46.875,36.621,-87.402,50.781,-19.043
1571283853.815,56.641,191.406,20.020,54.199,36.621
1571283853.819,67.871,82.031,-61.523,63.477,93.262
1571283853.823,50.781,-303.223,-342.773,60.059,31.250
1571283853.827,27.832,-144.531,-220.703,37.598,-1.465
1571283853.831,35.156,62.988,-100.098,37.109,21.973
1571283853.835,74.707,99.121,-82.520,78.125,82.031
1571283853.839,82.031,136.230,-53.223,83.984,83.008
1571283853.843,38.574,101.074,-106.934,41.504,26.855
1571283853.846,-0.488,14.648,-206.543,-3.418,7.812
1571283853.850,-14.648,132.324,-130.859,-22.461,56.641
1571283853.854,-24.902,286.133,-15.137,-29.297,90.820
1571283853.858,-41.016,112.305,-170.898,-42.969,7.812
1571283853.862,-52.734,-55.176,-327.148,-62.012,-44.922
1571283853.866,-46.875,-20.508,-311.035,-63.965,20.020
1571283853.870,-28.320,159.180,-163.574,-41.016,91.797
1571283853.874,-29.297,250.000,-102.539,-29.785,45.410
1571283853.878,-54.688,184.082,-184.570,-62.012,-7.812
1571283853.882,-69.824,-50.293,-375.000,-100.586,51.758
1571283853.886,-60.059,403.809,-27.344,-90.332,150.879
1571283853.889,-42.969,904.297,311.035,-56.152,101.074
1571283853.893,-36.621,646.973,81.055,-47.852,31.250
1571283853.897,-50.293,475.586,-71.289,-77.148,24.902
1571283853.901,-16.113,726.562,110.352,-42.480,56.641
1571283853.905,2.930,981.445,319.336,-10.742,95.703
1571283853.909,-28.320,776.367,158.691,-39.062,46.875
1571283853.913,-7.324,336.426,-180.664,-19.043,-4.883
1571283853.917,9.766,411.621,-95.215,-4.883,68.359
1571283853.921,5.371,944.336,327.637,-1.465,115.234
1571283853.925,10.742,645.996,92.773,10.742,17.578
1571283853.928,23.438,59.570,-342.285,9.277,-43.457
1571283853.932,37.109,624.512,123.535,15.625,41.016
1571283853.936,34.668,-952.637,554.199,20.508,105.469
1571283853.940,27.344,956.055,473.145,18.066,68.848
1571283853.944,32.715,939.453,372.559,21.973,21.973
1571283853.948,40.039,968.262,526.855,23.438,53.711
1571283853.952,47.852,996.582,684.082,34.668,111.816
1571283853.956,38.574,964.844,569.824,33.691,65.918
1571283853.960,36.621,652.344,322.266,36.621,19.531
1571283853.964,50.781,422.852,190.430,40.527,15.137
1571283853.968,63.477,664.062,404.297,47.852,104.004
1571283853.971,59.570,447.266,282.715,50.781,111.328
1571283853.975,45.898,254.395,166.016,41.016,20.508
1571283853.979,47.363,507.324,360.352,43.457,-4.883
1571283853.983,54.199,569.336,416.016,53.711,53.711
1571283853.987,56.641,590.820,469.238,57.129,81.543
1571283853.991,47.363,617.188,522.461,41.504,39.551
1571283853.995,42.969,511.719,454.102,37.109,14.648
1571283853.999,56.641,436.523,418.945,47.852,55.664
1571283854.003,64.941,633.789,609.375,50.293,121.094
1571283854.007,52.734,453.125,495.605,44.922,79.590
1571283854.011,43.457,103.516,249.023,38.086,11.230
1571283854.014,57.617,-174.805,50.781,41.016,-1.465
1571283854.018,66.895,-214.844,61.035,52.246,70.312
1571283854.022,48.828,169.434,360.840,43.945,78.613
1571283854.026,36.133,41.992,247.559,36.133,2.441
1571283854.030,46.387,-76.172,162.109,33.203,-2.930
1571283854.034,57.617,240.723,402.344,36.133,66.406
1571283854.038,53.711,587.402,663.574,42.969,93.262
1571283854.042,47.363,360.840,483.398,44.922,18.066
1571283854.046,37.598,-53.711,170.898,29.785,-39.551
1571283854.050,40.527,105.957,305.664,29.297,29.297
1571283854.053,34.668,289.062,454.590,36.621,83.008
1571283854.057,21.973,-42.480,208.008,30.273,20.020
1571283854.061,29.785,-720.215,-305.664,12.695,-62.500
1571283854.065,33.691,-539.551,-152.832,4.883,2.930
1571283854.069,34.180,337.402,497.559,19.043,96.680
1571283854.073,27.344,334.473,463.379,19.531,50.293
1571283854.077,22.461,5.859,209.473,13.184,-11.230
1571283854.081,31.738,-52.246,162.109,13.672,-5.371
1571283854.085,34.668,328.613,459.961,22.949,95.215
1571283854.089,27.344,449.219,534.668,24.414,84.473
1571283854.093,17.578,97.656,256.348,16.602,0.977
1571283854.096,20.020,64.941,226.074,12.695,0.977
1571283854.100,40.039,252.930,369.141,29.297,84.961
1571283854.104,41.016,6.836,187.500,34.668,78.613
1571283854.108,20.020,-526.855,-207.520,20.996,-23.438
1571283854.112,13.672,-368.652,-92.285,14.648,-42.480
1571283854.116,35.156,159.668,278.320,21.484,44.922
1571283854.120,47.852,347.656,404.297,35.156,83.984
1571283854.124,30.762,158.203,252.441,25.391,10.254
1571283854.128,19.043,52.246,165.039,12.695,-22.461
1571283854.132,36.621,163.086,241.699,22.949,37.109
1571283854.136,44.922,132.812,213.379,35.156,71.289
1571283854.139,25.391,-139.648,12.695,28.809,9.277
1571283854.143,15.137,-197.266,-26.367,21.973,-28.809
1571283854.147,27.832,-280.762,-102.051,21.973,-3.906
1571283854.151,46.387,-550.293,-295.898,30.762,56.641
1571283854.155,33.691,-468.750,-225.098,27.832,48.340
1571283854.159,13.184,-116.699,17.578,18.555,12.695
1571283854.163,29.785,-248.047,-122.070,28.320,-14.648
1571283854.167,41.016,-184.082,-69.336,37.109,49.805
1571283854.171,24.902,199.219,228.516,24.414,97.168
1571283854.175,16.113,131.836,165.527,20.996,23.438
1571283854.178,23.926,-239.258,-118.652,23.926,-33.691
1571283854.182,33.691,-209.473,-80.566,19.531,19.531
1571283854.186,37.109,270.020,300.293,22.461,108.887
1571283854.190,25.391,266.113,275.879,23.438,42.480
1571283854.194,22.461,-239.746,-114.746,21.973,-30.273
1571283854.198,40.039,-466.797,-276.367,32.715,1.953
1571283854.202,45.410,-207.520,-71.289,37.109,54.688
1571283854.206,37.109,113.281,169.922,37.109,40.039
1571283854.210,32.227,-333.008,-185.547,31.738,-47.852
1571283854.214,28.809,-780.273,-516.113,15.625,-75.195
1571283854.218,37.109,-72.266,47.363,23.926,40.039
1571283854.221,37.109,306.641,321.289,34.180,60.059
1571283854.225,29.297,41.016,118.652,27.832,-2.441
1571283854.229,45.410,-158.691,-30.762,24.902,-32.227
1571283854.233,52.246,25.879,106.445,38.086,15.625
1571283854.237,41.504,170.898,224.121,45.898,45.410
1571283854.241,36.621,-227.539,-62.988,44.434,-10.254
1571283854.245,35.645,-565.430,-301.758,40.527,-25.879
1571283854.249,45.410,-405.762,-180.176,37.598,12.207
1571283854.253,49.316,-206.055,-26.367,41.504,58.594
1571283854.257,38.086,-575.195,-307.129,38.574,-16.113
1571283854.261,31.738,-740.723,-430.176,27.832,-83.008
1571283854.264,32.715,-292.969,-89.844,22.461,-7.324
1571283854.268,47.852,-52.246,80.566,31.250,49.316
1571283854.272,41.016,-249.512,-60.547,28.809,3.418
1571283854.276,16.113,-247.559,-45.898,16.602,-47.852
1571283854.280,25.391,-136.719,19.531,23.926,-54.688
1571283854.284,46.387,54.688,174.316,43.945,34.668
1571283854.288,42.480,18.555,152.344,47.852,42.969
1571283854.292,26.855,-325.195,-108.887,37.598,-34.668
1571283854.296,22.949,-289.551,-84.473,26.367,-51.758
1571283854.300,42.969,-289.551,-89.844,41.504,-9.766
1571283854.303,43.457,-412.109,-157.715,44.434,27.344
1571283854.307,20.508,-251.953,-27.344,30.762,-5.371
1571283854.311,18.555,-237.305,-40.527,25.391,-60.547
1571283854.315,33.203,-208.496,-26.855,24.902,-39.062
1571283854.319,36.621,124.023,238.770,33.691,40.527
1571283854.323,20.508,289.551,348.145,27.832,4.883
1571283854.327,12.695,-21.484,95.215,22.461,-69.336
1571283854.331,27.344,-120.605,31.250,27.832,-24.902
1571283854.335,44.922,33.203,157.227,38.086,54.199
1571283854.339,34.668,-41.504,89.355,32.715,-3.906
1571283854.343,27.832,-149.902,8.789,29.297,-52.246
1571283854.346,40.039,-608.398,-335.938,27.832,-51.270
1571283854.350,44.922,-387.207,-151.367,30.273,21.973
1571283854.354,37.109,356.934,397.949,36.133,65.430
1571283854.358,25.391,173.340,223.145,29.785,-10.254
1571283854.362,27.832,-274.414,-123.047,25.879,-59.082
1571283854.366,39.062,-105.957,23.438,36.133,2.441
1571283854.370,48.828,375.488,393.555,46.875,65.918
1571283854.374,33.691,265.137,293.945,31.738,10.742
1571283854.378,14.160,-28.320,72.266,11.230,-36.133
1571283854.382,26.855,-98.633,28.320,16.602,-11.230
1571283854.386,31.250,84.473,191.406,23.926,66.895
1571283854.389,10.742,-69.824,79.102,9.766,63.477
1571283854.393,-10.742,-608.398,-340.820,-10.254,-32.715
1571283854.397,-20.020,-343.262,-145.020,-25.879,-29.785
1571283854.401,-7.324,234.863,284.180,-10.742,61.523
1571283854.405,-24.414,166.016,225.586,-12.207,27.344
1571283854.409,-46.387,-154.297,-11.230,-28.809,-43.945
1571283854.413,-55.664,-152.832,-14.648,-43.457,-34.180
1571283854.417,-56.152,70.801,149.414,-50.781,47.852
1571283854.421,-67.871,47.852,141.602,-57.129,68.848
1571283854.425,-111.816,-95.703,43.945,-96.191,21.973
1571283854.428,-117.188,-249.023,-75.195,-113.770,0.977
1571283854.432,-98.633,-289.062,-87.402,-106.445,47.852
1571283854.436,-99.609,-408.203,-154.785,-104.980,77.148
1571283854.440,-120.605,-482.910,-215.332,-125.000,7.324
1571283854.444,-138.184,-173.340,-9.277,-145.020,-23.926
1571283854.448,-121.094,-130.371,-12.695,-137.207,-3.906
1571283854.452,-96.191,40.039,111.328,-113.770,49.316
1571283854.456,-99.121,269.531,276.367,-108.398,41.504
1571283854.460,-116.211,231.934,233.398,-122.070,13.672
1571283854.464,-93.262,92.285,123.535,-115.723,17.578
1571283854.468,-66.406,283.203,293.945,-81.055,79.590
1571283854.471,-68.848,559.570,519.043,-67.383,90.332
1571283854.475,-66.895,216.309,251.465,-67.383,-3.418
1571283854.479,-46.387,-450.684,-246.582,-62.500,-53.223
1571283854.483,-16.602,-540.527,-282.227,-44.922,8.301
1571283854.487,-8.301,154.297,250.977,-23.926,61.523
1571283854.491,-9.766,386.230,387.207,-9.277,5.859
1571283854.495,0.977,63.477,124.512,-0.977,-41.016
1571283854.499,21.973,169.434,217.773,7.812,26.367
1571283854.503,34.668,691.895,620.605,23.926,118.652
1571283854.507,34.180,670.410,591.309,39.062,76.660
1571283854.511,30.273,207.031,236.816,37.109,-2.930
1571283854.514,38.574,151.855,202.148,38.574,20.996
1571283854.518,56.152,610.352,562.988,62.500,132.324
1571283854.522,53.711,528.320,492.188,66.895,106.445
1571283854.526,51.270,-439.941,-247.070,50.293,-31.250
1571283854.530,64.941,-638.184,-372.070,46.875,-25.879
1571283854.534,83.496,48.828,155.762,72.266,83.984
1571283854.538,87.402,261.230,295.898,88.867,97.656
1571283854.542,80.078,87.891,145.020,87.402,27.832
1571283854.546,83.008,31.738,80.566,82.031,-14.160
1571283854.550,102.051,284.668,265.625,91.309,55.664
1571283854.553,104.004,474.121,417.480,102.539,125.977
1571283854.557,84.473,180.176,178.711,96.680,31.738
1571283854.561,86.426,-32.227,7.324,85.938,-24.902
1571283854.565,107.910,124.512,122.559,94.238,38.574
1571283854.569,120.117,37.109,60.059,112.793,104.980
1571283854.573,106.445,-314.453,-199.219,102.051,62.012
1571283854.577,89.844,-245.605,-163.574,82.031,-4.395
1571283854.581,100.098,-102.539,-93.262,86.426,-5.859
1571283854.585,115.234,-55.664,-67.871,99.121,62.988
1571283854.589,101.074,-120.605,-113.770,95.215,75.195
1571283854.593,81.055,-230.957,-214.355,85.449,9.277
1571283854.596,95.703,-217.285,-229.004,86.426,-3.906
1571283854.600,115.234,40.039,-39.062,102.539,87.402
1571283854.604,101.562,253.906,114.258,95.215,109.863
1571283854.608,86.426,204.590,58.105,86.914,55.176
1571283854.612,86.914,-79.590,-179.199,92.285,-5.859
1571283854.616,91.797,-206.543,-270.020,91.797,39.062
1571283854.620,88.379,-143.066,-208.008,93.262,97.168
1571283854.624,76.660,-254.883,-304.199,89.844,18.066
1571283854.628,78.125,-379.395,-416.504,88.867,-27.832
1571283854.632,89.844,-664.551,-628.418,88.867,16.602
1571283854.636,89.844,-294.922,-326.172,89.844,104.492
1571283854.639,77.637,227.539,41.504,88.379,73.242
1571283854.643,79.102,-82.031,-226.074,85.938,-11.230
1571283854.647,86.426,-378.418,-445.312,84.961,-5.371
1571283854.651,92.285,107.910,-50.293,89.355,107.910
1571283854.655,92.773,524.414,252.930,85.938,124.512
1571283854.659,80.566,118.164,-84.473,74.219,-1.953
1571283854.663,77.148,-341.309,-418.457,65.918,-33.691
1571283854.667,83.984,-232.422,-305.664,72.754,58.594
1571283854.671,72.266,108.887,-45.410,74.707,84.473
1571283854.675,62.012,-182.617,-276.367,68.848,11.230
1571283854.678,60.547,-708.984,-663.574,57.129,-43.945
1571283854.682,56.152,-162.109,-231.445,55.176,41.016
1571283854.686,57.617,400.391,185.547,70.312,118.164
1571283854.690,52.734,271.484,82.520,67.871,58.105
1571283854.694,58.594,42.969,-95.215,59.082,-21.484
1571283854.698,67.383,217.285,39.062,57.617,16.113
1571283854.702,67.383,375.488,182.617,64.453,93.262
1571283854.706,54.688,186.035,59.570,62.988,50.781
1571283854.710,44.434,-98.145,-143.555,55.664,-18.066
1571283854.714,49.805,-290.039,-281.738,50.293,-21.973
1571283854.718,62.012,-76.172,-94.727,59.082,73.242
1571283854.721,54.199,-128.418,-119.629,57.129,65.430
1571283854.725,31.250,-194.336,-168.945,39.551,-6.836
1571283854.729,34.180,102.539,42.969,41.504,16.113
1571283854.733,62.500,224.609,120.605,61.523,76.172
1571283854.737,57.129,153.809,71.289,54.199,88.867
1571283854.741,36.621,212.402,122.559,39.551,57.617
1571283854.745,45.898,97.656,10.254,40.039,-11.230
1571283854.749,62.012,-32.715,-88.867,48.340,12.695
1571283854.753,66.895,139.160,68.848,55.664,86.426
1571283854.757,61.523,23.438,-10.742,54.688,50.781
1571283854.761,50.781,-392.090,-325.684,46.875,-15.625
1571283854.764,55.176,-683.105,-552.734,43.457,-24.902
1571283854.768,69.824,-645.508,-513.184,54.688,33.203
1571283854.772,51.758,-128.906,-130.371,51.270,50.293
1571283854.776,34.180,41.016,-46.875,38.574,0.000
1571283854.780,42.969,-89.355,-167.480,41.016,8.789
1571283854.784,55.176,151.367,13.672,53.711,89.844
1571283854.788,51.270,465.332,242.188,52.734,101.562
1571283854.792,36.621,242.188,50.293,41.504,14.160
1571283854.796,44.922,-228.516,-320.801,37.598,-59.570
1571283854.800,60.547,0.488,-124.023,51.270,51.270
1571283854.803,54.199,323.730,134.277,61.035,153.809
1571283854.807,38.086,49.805,-84.961,53.223,73.730
1571283854.811,33.203,-538.086,-537.109,32.715,-7.324
1571283854.815,44.922,-554.688,-536.133,29.785,57.129
1571283854.819,48.340,136.719,-19.531,50.781,123.535
1571283854.823,37.109,185.059,-21.484,52.246,43.945
1571283854.827,34.180,-153.809,-293.457,36.133,-23.926
1571283854.831,45.410,25.391,-150.879,29.785,31.738
1571283854.835,63.477,455.566,179.688,48.340,123.047
1571283854.839,56.152,386.719,117.188,54.688,84.473
1571283854.843,39.062,-33.203,-204.590,42.480,-16.602
1571283854.846,46.387,-51.758,-209.961,37.598,-9.277
1571283854.850,63.477,88.379,-89.355,47.852,84.961
1571283854.854,60.059,-137.695,-241.211,53.223,98.633
1571283854.858,46.387,-584.961,-561.035,47.363,0.000
1571283854.862,36.133,-399.902,-416.992,32.227,-22.461
1571283854.866,49.805,132.812,-32.715,39.062,61.035
1571283854.870,57.617,309.570,94.727,53.711,98.633
1571283854.874,39.551,118.164,-39.551,38.574,58.105
1571283854.878,38.574,18.066,-118.652,41.504,0.488
1571283854.882,62.012,115.723,-54.688,61.523,8.301
1571283854.886,59.082,216.797,36.133,55.664,69.824
1571283854.889,36.621,232.422,61.035,42.480,43.945
1571283854.893,28.809,119.629,-31.738,32.715,-22.949
1571283854.897,37.109,-120.605,-214.844,34.180,-16.113
1571283854.901,46.875,-415.527,-399.902,43.945,60.059
1571283854.905,32.715,-281.738,-265.137,32.715,67.383
1571283854.909,19.531,87.402,-0.977,20.020,16.113
1571283854.913,36.133,-49.805,-137.695,21.973,-19.043
1571283854.917,48.828,48.828,-46.387,35.156,66.895
1571283854.921,41.992,409.180,236.816,35.156,101.074
1571283854.925,30.273,295.898,131.348,20.508,5.371
1571283854.928,28.320,-122.559,-182.617,19.043,-34.180
1571283854.932,40.039,-126.953,-154.785,35.645,37.109
1571283854.936,39.551,358.398,241.211,41.504,122.070
1571283854.940,27.344,392.090,253.418,34.180,49.805
1571283854.944,32.715,-208.496,-196.289,29.297,-16.113
1571283854.948,43.945,-565.918,-429.199,28.809,24.414
1571283854.952,39.551,-22.461,4.883,37.109,94.238
1571283854.956,29.785,302.734,229.980,40.039,55.176
1571283854.960,23.438,-191.895,-156.738,30.273,-46.875
1571283854.964,31.738,-456.543,-343.262,22.461,-41.016
1571283854.968,60.547,53.711,54.199,46.387,71.289
1571283854.971,52.734,324.707,252.441,51.758,87.402
1571283854.975,22.949,4.883,-9.766,24.414,-0.488
1571283854.979,31.738,-223.633,-193.848,33.691,-27.344
1571283854.983,53.223,22.461,-8.789,58.594,60.059
1571283854.987,65.918,50.781,10.254,73.242,99.121
1571283854.991,59.082,-384.766,-319.824,77.148,23.926
1571283854.995,50.293,-689.941,-547.363,70.312,-26.855
1571283854.999,73.242,-382.324,-307.617,83.496,36.621
1571283855.003,88.867,-14.648,-27.344,104.004,96.191
1571283855.007,71.289,-361.328,-278.809,94.238,54.199
1571283855.011,71.289,-513.184,-389.160,82.031,-3.906
1571283855.014,95.215,-179.199,-153.320,94.238,24.902
1571283855.018,102.051,32.715,5.371,108.398,101.074
1571283855.022,82.520,14.160,-3.418,106.934,80.566
1571283855.026,67.871,-122.559,-112.305,96.191,3.906
1571283855.030,78.613,-198.242,-181.641,102.051,-4.883
1571283855.034,90.332,-89.844,-90.332,113.770,81.055
1571283855.038,84.961,-123.047,-103.027,112.305,103.027
1571283855.042,76.172,-395.508,-312.012,103.516,25.879
1571283855.046,81.543,-556.641,-448.730,93.262,-28.320
1571283855.050,93.262,-618.652,-495.117,97.168,16.602
1571283855.053,82.520,-585.938,-441.895,91.309,65.918
1571283855.057,63.477,-264.648,-200.684,76.172,13.672
1571283855.061,65.918,-171.387,-159.668,70.801,-32.227
1571283855.065,82.031,-89.355,-90.820,82.031,47.363
1571283855.069,80.078,196.289,136.719,90.332,104.980
1571283855.073,63.965,361.816,255.859,77.637,67.383
1571283855.077,59.082,115.723,53.223,71.289,-1.465
1571283855.081,55.664,-104.004,-107.910,71.289,6.348
1571283855.085,59.570,45.898,41.016,72.266,104.004
1571283855.089,46.387,16.113,30.273,66.406,79.590
1571283855.093,35.156,-206.543,-138.184,56.152,2.930
1571283855.096,53.223,-762.695,-574.707,55.664,-56.641
1571283855.100,58.594,-629.883,-435.547,67.871,24.414
1571283855.104,51.758,178.711,187.988,74.219,91.797
1571283855.108,51.270,-12.207,9.766,69.824,-8.789
1571283855.112,45.410,-257.324,-172.852,54.688,-33.691
1571283855.116,54.688,148.926,137.695,54.199,47.363
1571283855.120,59.082,394.043,315.430,61.035,57.617
1571283855.124,43.457,230.469,207.520,55.176,19.531
1571283855.128,39.062,53.223,84.961,48.828,-5.371
1571283855.132,45.898,-87.891,-20.996,53.711,18.066
1571283855.136,42.969,118.164,166.016,57.129,103.516
1571283855.139,34.180,-70.312,18.555,45.410,23.438
1571283855.143,27.344,-740.723,-483.887,32.227,-83.008
1571283855.147,27.344,-383.789,-193.848,29.297,-16.113
1571283855.151,40.527,249.512,274.414,41.992,79.102
1571283855.155,41.016,166.992,207.031,44.434,44.922
1571283855.159,27.344,-86.426,23.438,40.039,-32.715
1571283855.163,25.879,15.625,103.027,33.691,-32.227
1571283855.167,40.527,257.324,295.410,40.527,61.035
1571283855.171,37.109,340.332,374.023,40.527,93.750
1571283855.175,26.855,174.316,250.977,26.367,8.301
1571283855.178,31.738,-132.812,20.020,23.926,-24.902
1571283855.182,42.969,-212.891,-25.391,31.738,32.227
1571283855.186,40.039,-458.984,-193.359,32.227,41.992
1571283855.190,20.996,-624.512,-301.758,28.320,-10.254
1571283855.194,14.648,-298.828,-78.613,29.297,-62.500
1571283855.198,33.203,-208.984,-38.574,36.621,-24.414
1571283855.202,43.457,21.484,142.090,48.828,75.195
1571283855.206,26.855,266.113,317.871,38.086,49.805
1571283855.210,22.949,76.660,157.715,27.344,-14.648
1571283855.214,34.668,-279.297,-116.211,33.203,-14.648
1571283855.218,39.551,-121.582,14.648,41.504,52.734
1571283855.221,33.203,187.500,243.652,41.992,66.406
1571283855.225,24.414,-51.270,50.781,36.621,4.395
1571283855.229,29.297,-612.305,-381.836,22.949,-37.598
1571283855.233,41.016,-711.426,-438.965,21.973,30.762
1571283855.237,34.180,-53.711,63.965,29.297,99.121
1571283855.241,26.367,187.012,196.777,25.879,27.344
1571283855.245,26.367,-189.453,-121.582,21.484,-48.828
1571283855.249,36.133,-158.691,-93.750,25.391,17.578
1571283855.253,39.062,309.082,257.324,32.227,105.469
1571283855.257,24.902,305.664,233.398,26.367,47.363
1571283855.261,12.695,-68.359,-54.199,13.672,-18.066
1571283855.264,33.691,-55.176,-38.086,29.297,25.879
1571283855.268,50.781,159.668,126.953,46.387,98.633
1571283855.272,20.996,-20.996,-15.625,24.902,52.246
1571283855.276,11.719,-682.129,-530.762,3.418,-44.922
1571283855.280,20.508,-753.906,-559.082,0.000,-23.438
1571283855.284,24.414,84.961,96.191,18.066,104.980
1571283855.288,25.879,306.641,238.770,24.902,105.469
1571283855.292,16.113,-13.184,-13.184,13.184,5.371
1571283855.296,19.043,-30.762,-27.832,5.371,-7.324
1571283855.300,36.621,319.336,238.770,18.066,94.727
1571283855.303,36.621,400.391,292.480,25.391,108.887
1571283855.307,22.949,182.129,135.742,23.438,45.410
1571283855.311,16.113,121.582,95.215,12.695,11.719
1571283855.315,23.438,209.961,152.832,12.207,29.785
1571283855.319,32.715,160.156,140.625,25.391,107.910
1571283855.323,28.809,-264.160,-155.273,21.484,58.594
1571283855.327,26.367,-363.770,-223.145,17.578,-26.855
1571283855.331,35.645,-36.621,14.648,20.996,5.859
1571283855.335,44.922,151.855,159.180,33.691,82.031
1571283855.339,37.598,112.305,136.230,34.180,44.434
1571283855.343,29.297,117.676,134.766,31.738,-33.203
1571283855.346,37.109,78.125,99.609,35.645,-34.180
1571283855.350,52.734,203.613,213.379,48.340,48.828
1571283855.354,47.852,328.613,313.965,47.363,50.293
1571283855.358,26.855,308.105,294.434,38.086,0.977
1571283855.362,26.367,173.340,187.012,30.762,-13.672
1571283855.366,41.992,87.402,130.859,36.621,45.898
1571283855.370,46.875,102.539,165.039,47.363,84.961
1571283855.374,34.668,-12.207,77.148,37.598,-11.719
1571283855.378,27.344,-111.328,-6.836,23.926,-59.082
1571283855.382,40.527,-427.246,-236.816,20.020,-5.371
1571283855.386,39.062,-154.297,-2.441,27.344,66.406
1571283855.389,27.344,391.602,389.160,30.762,38.574
1571283855.393,28.320,165.039,187.012,26.855,-31.250
1571283855.397,39.062,5.371,64.453,27.832,-15.137
1571283855.401,45.410,345.703,332.031,35.156,57.129
1571283855.405,34.668,493.652,436.523,31.738,36.133
1571283855.409,26.855,76.172,104.492,28.320,-65.430
1571283855.413,36.621,-320.312,-185.059,31.250,-65.430
1571283855.417,52.734,-149.902,-35.156,38.574,52.246
1571283855.421,50.781,176.270,199.707,43.945,67.383
1571283855.425,42.480,-122.559,-47.852,37.109,-22.461
1571283855.428,39.062,-590.332,-396.973,24.902,-48.340
1571283855.432,44.434,-68.359,-6.836,36.621,35.156
1571283855.436,50.781,342.773,272.949,49.316,69.824
1571283855.440,40.527,124.023,100.098,45.410,16.602
1571283855.444,34.668,-2.930,-4.395,39.551,-31.738
1571283855.448,52.246,230.957,154.785,47.363,24.414
1571283855.452,65.430,458.008,312.988,62.500,89.844
1571283855.456,43.457,362.793,238.281,46.387,58.594
1571283855.460,29.785,10.254,-35.645,34.180,8.789
1571283855.464,45.898,-146.973,-169.922,39.551,6.836
1571283855.468,58.594,157.715,53.223,51.270,62.988
1571283855.471,43.945,-99.609,-142.578,52.734,53.223
1571283855.475,42.480,-349.121,-326.660,67.383,-18.066
1571283855.479,44.434,2.930,-88.867,61.523,-22.461
1571283855.483,18.555,247.559,68.848,27.344,71.289
1571283855.487,6.836,379.883,163.086,18.066,105.469
1571283855.491,-11.230,423.828,186.523,1.465,33.691
1571283855.495,-28.320,155.762,-47.363,-30.273,-31.250
1571283855.499,-16.113,55.176,-137.695,-29.297,12.695
1571283855.503,-25.879,461.914,184.570,-28.809,106.934
1571283855.507,-71.777,406.250,120.117,-66.895,51.270
1571283855.511,-89.355,154.785,-103.027,-92.285,-25.391
1571283855.514,-68.848,100.098,-164.551,-82.520,12.695
1571283855.518,-48.340,88.867,-171.387,-61.035,82.520
1571283855.522,-49.805,502.930,130.859,-61.523,55.176
1571283855.526,-65.430,612.793,178.223,-78.613,-21.484
1571283855.530,-55.176,450.684,31.738,-77.637,-16.113
1571283855.534,-20.508,707.520,252.441,-44.434,77.148
1571283855.538,-31.250,-964.355,503.906,-48.340,79.590
1571283855.542,-53.711,887.207,349.609,-66.895,-5.371
1571283855.546,-42.969,643.555,181.152,-56.641,-17.578
1571283855.550,-26.855,767.578,305.176,-40.527,65.430
1571283855.553,-17.090,821.777,373.047,-21.973,88.379
1571283855.557,-15.625,594.238,227.539,-16.113,23.438
1571283855.561,-6.836,35.645,-180.664,-11.719,-34.180
1571283855.565,5.859,97.656,-116.211,-9.766,13.184
1571283855.569,15.137,912.598,529.785,3.418,112.305
1571283855.573,15.625,944.824,535.645,20.020,59.082
1571283855.577,12.695,632.324,275.879,12.695,-9.766
1571283855.581,27.344,655.762,313.477,12.207,2.930
1571283855.585,44.922,951.172,571.777,24.414,89.844
1571283855.589,32.227,868.652,525.879,21.973,79.102
1571283855.593,14.160,525.879,281.250,11.230,5.859
1571283855.596,22.949,373.535,175.293,20.020,-29.297
1571283855.600,38.574,352.051,187.988,40.039,40.039
1571283855.604,33.203,110.840,47.852,35.156,63.965
1571283855.608,24.414,-382.812,-294.922,20.508,-23.926
1571283855.612,22.461,-179.199,-127.441,9.277,-28.809
1571283855.616,36.621,291.504,210.938,22.949,23.926
1571283855.620,45.898,392.090,304.199,35.156,55.176
1571283855.624,32.715,266.602,237.305,21.484,8.789
1571283855.628,34.180,168.457,170.898,23.438,-46.387
1571283855.632,51.758,260.254,264.648,36.621,4.395
1571283855.636,52.246,362.793,374.512,37.598,65.430
1571283855.639,30.273,317.383,357.422,20.020,28.320
1571283855.643,21.973,210.449,283.691,14.160,-20.508
1571283855.647,33.203,77.148,201.172,23.926,18.066
1571283855.651,45.410,-227.539,6.836,36.133,80.566
1571283855.655,31.250,-258.301,5.859,28.809,46.387
1571283855.659,20.020,52.734,233.398,20.996,1.953
1571283855.663,30.762,19.531,187.012,28.320,24.414
1571283855.667,35.645,52.734,206.055,28.320,83.496
1571283855.671,32.715,316.895,404.297,28.809,89.355
1571283855.675,23.926,220.703,310.547,29.297,11.719
1571283855.678,18.066,-107.910,50.293,20.508,-17.578
1571283855.682,30.273,-191.895,-12.207,26.855,22.949
1571283855.686,36.133,56.641,182.617,32.227,63.477
1571283855.690,28.809,95.215,205.566,28.809,16.113
1571283855.694,29.785,-552.734,-313.477,27.344,-75.684
1571283855.698,41.016,-812.500,-483.398,33.203,-7.812
1571283855.702,40.039,-118.164,70.801,38.574,104.004
1571283855.706,31.738,165.527,241.699,36.621,50.781
1571283855.710,23.438,-249.023,-84.961,20.996,-17.090
1571283855.714,24.414,-251.465,-67.871,13.672,48.828
1571283855.718,32.227,334.961,367.188,26.367,136.719
1571283855.721,28.320,281.250,306.641,29.785,87.402
1571283855.725,20.508,-116.699,11.230,28.320,3.906
1571283855.729,26.855,-264.160,-109.863,24.902,-34.180
1571283855.733,34.180,4.395,98.145,32.227,43.945
1571283855.737,26.855,303.223,334.961,34.180,105.957
1571283855.741,21.484,-70.801,41.504,26.855,12.695
1571283855.745,17.578,-552.734,-320.801,20.508,-52.734
1571283855.749,28.809,-382.812,-171.875,33.691,41.016
1571283855.753,34.180,71.777,170.898,42.480,110.840
1571283855.757,16.113,-281.738,-107.422,27.832,37.109
1571283855.761,9.766,-517.578,-287.109,21.973,-24.902
1571283855.764,28.809,28.320,102.539,30.273,28.809
1571283855.768,35.156,300.293,290.039,40.039,105.469
1571283855.772,12.695,194.336,204.590,34.668,46.875
1571283855.776,3.906,-43.457,20.996,25.879,-33.203
1571283855.780,18.555,-162.109,-58.594,32.715,-13.184
1571283855.784,25.879,125.977,182.129,44.434,79.102
1571283855.788,17.090,95.215,157.715,44.434,56.152
1571283855.792,5.859,-188.965,-47.363,32.715,-1.953
1571283855.796,9.766,-143.066,-13.672,21.484,-4.883
1571283855.800,36.621,-83.008,20.996,33.203,39.551
1571283855.803,33.691,-217.285,-65.918,31.738,56.152
1571283855.807,17.578,23.926,109.863,20.508,9.277
1571283855.811,30.273,148.438,167.480,26.367,-24.902
1571283855.815,44.434,65.918,93.750,31.738,11.230
1571283855.819,47.363,269.531,259.277,43.945,70.312
1571283855.823,39.551,380.859,334.473,48.340,32.227
1571283855.827,31.738,149.414,146.973,39.551,-22.461
1571283855.831,36.133,3.906,39.551,34.668,-2.441
1571283855.835,47.852,111.328,140.137,47.852,73.242
1571283855.839,33.691,28.809,83.008,38.574,49.316
1571283855.843,26.367,-225.586,-109.863,29.297,-17.578
1571283855.846,39.551,-678.223,-449.219,30.762,-43.945
1571283855.850,43.457,-394.043,-212.402,32.715,42.480
1571283855.854,33.203,348.145,335.938,34.180,83.008
1571283855.858,20.996,200.195,187.012,30.762,5.859
1571283855.862,26.367,-86.914,-41.992,27.344,-28.320
1571283855.866,38.574,177.734,154.785,25.879,36.133
1571283855.870,36.621,479.004,381.348,29.297,87.402
1571283855.874,26.855,263.184,214.355,29.297,30.273
1571283855.878,31.250,-50.781,-24.902,31.738,-23.926
1571283855.882,43.457,-188.477,-131.348,40.527,4.883
1571283855.886,38.574,-48.340,-14.648,42.969,57.129
1571283855.889,21.973,-178.711,-120.117,26.855,19.531
1571283855.893,7.324,-658.203,-481.934,12.695,-23.926
1571283855.897,16.113,-239.258,-166.504,22.461,31.738
1571283855.901,41.992,352.539,251.465,46.875,101.562
1571283855.905,37.109,343.262,228.516,48.340,82.031
1571283855.909,26.855,51.270,-9.766,31.250,-5.859
1571283855.913,37.109,-23.926,-84.961,35.156,-39.551
1571283855.917,50.293,93.262,7.812,57.129,20.508
1571283855.921,43.457,144.043,62.988,57.129,55.176
1571283855.925,23.926,8.789,-42.969,33.691,-12.695
1571283855.928,25.391,-289.551,-279.297,21.484,-57.617
1571283855.932,40.527,-290.527,-263.672,34.180,29.297
1571283855.936,43.945,-350.098,-288.086,34.668,84.961
1571283855.940,31.738,-363.281,-298.828,28.320,36.133
1571283855.944,28.320,-11.719,-62.988,29.785,-1.953
1571283855.948,44.922,-102.539,-155.762,34.668,9.766
1571283855.952,57.129,-28.320,-81.055,43.945,71.777
1571283855.956,46.875,261.230,142.578,41.016,51.758
1571283855.960,28.320,247.559,113.281,34.180,-2.441
1571283855.964,32.227,31.250,-63.965,44.922,-8.789
1571283855.968,37.598,160.156,54.688,48.828,69.824
1571283855.971,32.715,419.434,258.301,42.480,82.031
1571283855.975,26.367,140.137,43.457,38.574,10.254
1571283855.979,21.973,-475.098,-419.922,19.531,-47.852
1571283855.983,30.273,-523.926,-413.574,22.461,42.969
1571283855.987,26.367,104.980,76.660,32.715,98.145
1571283855.991,12.695,243.652,144.043,29.785,-0.977
1571283855.995,17.090,25.391,-18.066,32.227,-12.695
1571283855.999,37.598,157.715,90.820,44.922,44.434
1571283856.003,39.062,442.871,308.594,46.875,89.844
1571283856.007,21.973,211.914,132.324,31.738,23.438
1571283856.011,20.996,-82.520,-86.426,25.879,-42.480
1571283856.014,41.504,15.625,-9.766,37.109,-0.488
1571283856.018,48.828,458.984,338.379,45.410,101.074
1571283856.022,39.062,484.863,362.793,45.410,105.957
1571283856.026,33.203,-340.820,-270.508,29.297,-15.625
1571283856.030,31.738,-550.781,-408.203,19.531,-32.227
1571283856.034,44.434,286.133,237.793,38.574,94.238
1571283856.038,41.992,475.586,353.027,43.457,83.496
1571283856.042,27.832,71.777,36.621,34.180,-20.020
1571283856.046,32.715,-2.930,-20.996,32.227,-43.457
1571283856.050,44.434,320.801,227.051,38.574,49.805
1571283856.053,33.203,423.828,310.547,35.645,81.055
1571283856.057,31.250,141.602,101.562,33.203,2.930
1571283856.061,40.039,-145.508,-105.469,37.109,-43.945
1571283856.065,45.898,30.273,38.574,43.457,15.625
1571283856.069,52.246,57.617,64.941,50.293,65.430
1571283856.073,41.504,-370.117,-252.930,41.504,-10.254
1571283856.077,33.691,-250.977,-160.156,33.203,-46.875
1571283856.081,46.387,157.227,132.812,42.969,29.785
1571283856.085,58.594,232.422,174.316,47.852,81.055
1571283856.089,45.898,38.574,22.949,41.016,15.137
1571283856.093,30.762,82.031,60.059,41.016,-14.648
1571283856.096,29.297,78.613,37.598,34.180,-0.488
1571283856.100,45.898,119.141,68.359,48.828,51.270
1571283856.104,50.293,175.781,115.234,61.523,44.922
1571283856.108,36.621,56.152,11.719,42.969,-28.320
1571283856.112,38.086,-68.848,-87.402,36.133,-28.320
1571283856.116,58.105,-134.766,-129.883,57.617,39.551
1571283856.120,49.805,-120.605,-94.727,54.199,80.566
1571283856.124,26.855,-189.941,-145.020,41.504,33.203
1571283856.128,39.551,-452.148,-373.047,43.945,-42.969
1571283856.132,54.199,-715.820,-578.613,39.551,-9.277
1571283856.136,46.387,-367.188,-308.594,41.504,62.500
1571283856.139,38.574,100.586,10.254,42.969,20.020
1571283856.143,36.621,-87.402,-166.504,36.621,-31.738
1571283856.147,43.457,-172.852,-238.770,37.109,-2.441
1571283856.151,55.664,226.562,69.824,51.758,70.312
1571283856.155,49.316,369.141,169.434,56.152,45.410
1571283856.159,39.551,74.219,-58.594,46.387,-12.695
1571283856.163,45.898,-285.645,-331.055,39.551,-23.438
1571283856.167,53.711,-152.832,-210.449,49.316,57.617
1571283856.171,45.410,16.113,-72.754,44.922,85.449
1571283856.175,26.367,-277.344,-301.758,26.367,7.324
1571283856.178,32.227,-361.328,-370.117,25.879,-39.062
1571283856.182,51.270,69.336,-49.316,40.527,41.992
1571283856.186,50.293,472.168,245.605,47.852,89.355
1571283856.190,41.504,-35.645,-143.066,41.992,-3.418
1571283856.194,37.109,-536.621,-494.141,35.645,-53.223
1571283856.198,41.992,-41.016,-103.027,43.457,16.602
1571283856.202,49.316,412.598,238.770,51.270,96.680
1571283856.206,49.316,299.805,151.855,51.270,36.133
1571283856.210,38.574,-219.238,-247.070,43.457,-82.031
1571283856.214,42.480,-341.309,-308.594,44.922,-21.484
1571283856.218,51.758,200.195,136.230,52.246,134.277
1571283856.221,35.156,-11.719,-32.227,38.574,78.125
1571283856.225,24.414,-285.645,-232.910,27.344,-18.066
1571283856.229,34.180,16.602,-6.836,27.832,-2.930
1571283856.233,44.434,160.645,98.633,37.109,63.965
1571283856.237,42.969,371.582,270.996,41.016,84.473
1571283856.241,29.785,427.734,313.477,27.832,25.391
1571283856.245,29.785,305.664,211.426,28.809,-17.578
1571283856.249,46.875,199.219,132.324,42.969,16.113
1571283856.253,49.316,337.891,261.230,43.945,72.754
1571283856.257,37.598,218.750,185.059,39.062,46.387
1571283856.261,32.227,-15.137,13.184,30.273,17.578
1571283856.264,38.574,-18.555,3.418,24.414,37.598
1571283856.268,43.945,201.660,180.664,27.344,103.516
1571283856.272,41.992,479.492,397.461,29.785,96.680
1571283856.276,32.715,314.453,250.000,28.809,-1.465
1571283856.280,36.133,-212.402,-144.531,28.809,-16.602
1571283856.284,50.293,-314.941,-176.270,42.969,84.473
1571283856.288,36.133,29.785,87.891,47.852,72.754
1571283856.292,26.367,-16.113,24.902,40.527,-13.672
1571283856.296,35.645,-139.160,-79.590,34.180,-8.789
1571283856.300,46.387,178.711,162.598,43.945,90.332
1571283856.303,46.387,303.223,246.582,53.223,97.656
1571283856.307,27.344,-119.141,-77.148,40.039,4.395
1571283856.311,21.484,-687.500,-500.488,23.438,-41.016
1571283856.315,30.762,-562.988,-394.531,22.949,21.973
1571283856.319,30.273,292.969,244.141,29.297,110.352
1571283856.323,23.438,256.836,171.387,26.855,31.250
1571283856.327,18.066,-149.414,-146.973,18.555,-40.039
1571283856.331,27.344,38.086,0.000,21.484,24.414
1571283856.335,37.598,462.402,322.266,40.527,124.512
1571283856.339,28.320,407.227,264.160,37.109,93.262
1571283856.343,30.273,-164.062,-179.199,31.738,-13.184
1571283856.346,38.574,-286.133,-266.113,30.762,-10.254
1571283856.350,43.457,-29.297,-71.777,38.086,70.801
1571283856.354,43.457,-225.098,-217.773,39.062,65.918
1571283856.358,37.109,-668.457,-550.293,27.832,-19.043
1571283856.362,32.227,-529.297,-457.520,19.043,-49.805
1571283856.366,38.086,19.043,-68.848,30.273,35.645
1571283856.370,44.922,125.488,-5.859,41.016,54.199
1571283856.374,31.738,-105.957,-176.270,26.855,-3.418
1571283856.378,25.879,-60.059,-151.367,21.973,-17.090
1571283856.382,33.691,113.281,-38.574,30.273,25.391
1571283856.386,34.180,316.895,127.930,40.039,101.074
1571283856.389,16.602,262.207,80.078,27.832,42.969
1571283856.393,10.254,96.191,-57.129,15.137,-21.973
1571283856.397,21.973,-44.434,-162.598,20.996,15.625
1571283856.401,28.809,-323.242,-347.168,29.297,91.797
1571283856.405,14.160,-335.449,-335.449,22.949,66.406
1571283856.409,4.883,-93.262,-178.223,20.996,-25.391
1571283856.413,25.879,-163.086,-251.953,35.645,-29.785
1571283856.417,43.457,15.137,-96.680,49.316,76.660
1571283856.421,42.969,344.238,159.180,47.363,91.309
1571283856.425,39.062,366.211,173.340,39.551,35.156
1571283856.428,39.551,104.492,-30.762,30.273,0.488
1571283856.432,46.387,89.844,-27.344,32.715,49.805
1571283856.436,44.922,415.527,242.676,36.133,105.469
1571283856.440,37.109,532.715,336.426,32.227,73.242
1571283856.444,39.062,-45.410,-111.816,23.926,-7.324
1571283856.448,47.852,-533.203,-459.961,19.531,-12.207
1571283856.452,52.734,92.773,58.594,33.691,87.891
1571283856.456,48.828,350.586,245.117,38.574,62.012
1571283856.460,39.551,-171.387,-165.527,27.832,-62.012
1571283856.464,44.434,-234.863,-202.148,27.344,-57.129
1571283856.468,48.828,261.719,187.988,34.180,45.898
1571283856.471,37.109,536.621,404.297,28.320,72.266
1571283856.475,28.809,261.719,193.848,32.227,-2.930
1571283856.479,30.273,98.633,71.777,32.227,-15.625
1571283856.483,43.457,391.113,299.805,40.527,66.895
1571283856.487,48.828,583.008,452.148,48.340,99.121
1571283856.491,29.297,186.523,150.879,32.227,22.949
1571283856.495,27.344,-327.637,-239.746,21.973,-41.992
1571283856.499,41.992,-83.496,-41.992,25.879,36.621
1571283856.503,40.527,374.512,307.617,34.180,108.398
1571283856.507,35.645,-230.957,-157.227,35.156,-2.930
1571283856.511,27.832,-698.242,-486.816,20.020,-71.777
1571283856.514,35.156,-254.883,-143.555,21.973,9.277
1571283856.518,45.898,101.562,111.816,33.691,74.707
1571283856.522,31.250,110.840,109.863,26.367,38.086
1571283856.526,16.113,104.980,92.285,16.113,-9.766
1571283856.530,25.879,68.359,39.062,16.113,-23.926
1571283856.534,39.062,136.719,104.004,23.438,54.199
1571283856.538,34.180,14.648,29.297,27.344,50.293
1571283856.542,22.949,-297.852,-198.730,16.602,-20.996
1571283856.546,25.879,-290.527,-196.777,7.812,-19.043
1571283856.550,43.945,-230.957,-161.133,16.602,43.457
1571283856.553,40.039,-331.543,-218.262,15.625,66.406
1571283856.557,25.391,-68.848,-18.066,15.625,22.461
1571283856.561,31.738,56.641,42.969,22.949,-9.277
1571283856.565,47.363,109.375,77.148,30.273,61.035
1571283856.569,45.898,235.840,177.246,36.621,109.375
1571283856.573,27.344,96.191,55.664,27.344,20.508
1571283856.577,22.461,-142.578,-139.160,16.113,-56.641
1571283856.581,34.180,-219.238,-200.684,25.391,-22.461
1571283856.585,42.969,-166.016,-153.320,38.086,37.598
1571283856.589,29.785,-241.211,-201.660,34.668,14.160
1571283856.593,23.438,-313.477,-257.812,32.227,-24.414
1571283856.596,30.762,-699.707,-566.406,30.273,-48.828
1571283856.600,34.180,-427.246,-333.008,34.668,61.035
1571283856.604,28.809,317.383,224.609,42.480,104.492
1571283856.608,18.066,209.961,108.887,37.598,35.645
1571283856.612,16.602,-18.066,-69.824,30.762,15.625
1571283856.616,25.391,249.023,136.230,40.527,78.125
1571283856.620,23.926,478.516,310.059,38.086,94.238
1571283856.624,9.766,209.473,109.863,19.043,33.691
1571283856.628,15.137,-110.840,-117.188,18.066,6.348
1571283856.632,32.227,-142.578,-127.441,24.902,42.480
1571283856.636,34.180,81.055,64.941,20.508,111.816
1571283856.639,22.949,-23.926,-4.883,15.625,74.219
1571283856.643,10.254,-573.730,-417.480,7.324,-26.367
1571283856.647,13.184,-264.160,-169.434,5.859,15.625
1571283856.651,31.250,351.562,283.691,31.250,103.516
1571283856.655,22.461,291.016,228.027,32.715,61.035
1571283856.659,12.695,64.941,62.012,17.090,-8.301
1571283856.663,28.809,54.199,44.434,20.020,-21.973
1571283856.667,47.363,195.312,154.297,31.738,40.527
1571283856.671,40.039,222.168,198.242,27.344,62.012
1571283856.675,38.086,72.266,99.609,31.738,6.836
1571283856.678,45.410,-145.508,-64.941,37.598,-4.395
1571283856.682,39.551,-208.984,-109.863,30.762,49.316
1571283856.686,40.527,-457.031,-292.480,33.691,62.988
1571283856.690,41.992,-544.434,-355.469,41.504,16.113
1571283856.694,41.992,-209.473,-137.207,46.875,-27.344
1571283856.698,64.941,-145.020,-125.000,63.965,9.277
1571283856.702,74.707,-59.082,-55.176,78.125,66.895
1571283856.706,57.617,55.176,41.992,78.125,31.250
1571283856.710,58.594,-69.824,-56.641,80.566,-35.645
1571283856.714,68.848,-315.918,-240.723,80.078,-29.785
1571283856.718,78.613,-144.531,-74.219,100.586,79.102
1571283856.721,73.730,109.375,124.512,109.375,74.219
1571283856.725,58.105,-252.441,-161.133,98.145,-12.695
1571283856.729,71.289,-692.871,-484.375,104.492,-27.344
1571283856.733,87.402,-457.520,-285.645,110.352,42.969
1571283856.737,78.125,-38.086,30.762,98.145,66.895
1571283856.741,64.941,-156.738,-62.012,93.262,8.789
1571283856.745,73.730,-664.551,-458.496,98.145,-41.504
1571283856.749,90.332,-810.059,-552.246,104.980,12.695
1571283856.753,80.078,-140.625,-4.395,104.492,103.027
1571283856.757,66.406,77.637,126.465,97.656,32.715
1571283856.761,64.453,-295.898,-168.457,87.891,-49.316
1571283856.764,71.289,-279.785,-137.207,90.820,6.348
1571283856.768,79.102,111.328,161.133,101.074,87.402
1571283856.772,64.453,-22.461,79.102,91.309,55.176
1571283856.776,60.059,-724.121,-512.695,71.289,-43.457
1571283856.780,69.336,-845.215,-622.559,61.035,-48.828
1571283856.784,78.125,-149.414,-22.949,74.707,67.383
1571283856.788,75.684,115.234,162.598,78.125,88.379
1571283856.792,64.941,-105.957,-15.137,63.965,25.391
1571283856.796,66.895,-354.492,-214.844,62.988,-11.230
1571283856.800,74.707,-229.004,-109.375,73.730,57.617
1571283856.803,66.895,34.180,94.238,69.336,91.309
1571283856.807,55.176,-64.941,5.859,59.570,20.020
1571283856.811,60.547,-128.418,-55.664,54.688,-19.043
1571283856.815,71.777,96.191,111.816,62.012,55.176
1571283856.819,71.777,-24.902,18.555,67.871,83.984
1571283856.823,51.270,-500.000,-331.055,54.688,-13.184
1571283856.827,35.645,-397.461,-244.141,44.434,-47.363
1571283856.831,51.758,-126.465,-59.570,56.641,0.977
1571283856.835,59.082,-38.574,8.301,61.035,68.848
1571283856.839,32.715,-21.484,26.855,47.363,53.223
1571283856.843,18.066,7.324,35.645,41.504,-0.488
1571283856.846,25.879,68.848,62.500,48.340,5.371
1571283856.850,39.551,-131.348,-82.031,61.035,65.430
1571283856.854,27.832,-358.398,-227.539,52.246,48.340
1571283856.858,12.695,-134.766,-57.617,41.504,-13.184
1571283856.862,29.785,-91.797,-51.758,45.898,-26.367
1571283856.866,49.316,-56.641,-20.996,56.152,53.223
1571283856.870,50.781,13.184,47.363,51.270,93.750
1571283856.874,41.016,15.137,49.805,39.062,36.133
1571283856.878,41.504,-2.930,17.090,31.250,-16.602
1571283856.882,57.617,-346.680,-244.141,34.180,12.207
1571283856.886,58.105,-145.508,-56.641,35.645,93.262
1571283856.889,45.410,334.473,294.922,31.738,54.199
1571283856.893,43.945,79.590,71.777,33.203,-30.762
1571283856.897,54.688,-105.469,-67.871,31.738,-16.113
1571283856.901,61.035,327.148,288.574,43.457,95.703
1571283856.905,51.270,541.992,449.219,45.898,89.355
1571283856.909,45.898,102.539,106.445,32.227,-5.371
1571283856.913,53.223,-280.273,-172.363,35.156,-12.207
1571283856.917,59.570,-154.785,-58.105,47.363,66.895
1571283856.921,53.711,47.363,98.633,43.457,52.734
1571283856.925,45.898,-251.953,-134.277,33.691,-24.902
1571283856.928,43.457,-666.504,-436.035,24.902,-29.785
1571283856.932,48.340,-180.176,-67.871,29.785,39.551
1571283856.936,44.922,374.023,330.078,36.133,88.379
1571283856.940,32.227,228.516,210.449,29.297,32.227
1571283856.944,28.809,1.465,31.738,24.902,-13.184
1571283856.948,37.598,245.605,218.750,35.156,58.105
1571283856.952,42.969,487.793,409.668,49.805,110.840
1571283856.956,22.461,298.828,274.902,39.551,52.734
1571283856.960,14.648,-93.750,-13.184,24.414,-6.836
1571283856.964,31.250,-311.035,-177.734,26.367,-3.906
1571283856.968,40.039,-131.348,-23.438,37.598,82.031
1571283856.971,21.973,-430.664,-241.211,30.273,37.598
1571283856.975,4.395,-670.898,-422.363,18.555,-53.223
1571283856.979,15.625,-200.195,-79.102,24.902,-15.137
1571283856.983,35.645,117.676,143.555,41.504,85.938
1571283856.987,33.203,220.703,214.844,41.504,103.027
1571283856.991,21.973,166.504,161.133,29.297,14.160
1571283856.995,21.973,107.422,108.398,29.297,0.488
1571283856.999,34.180,55.664,62.988,33.691,56.641
1571283857.003,35.645,63.477,76.660,30.762,70.801
1571283857.007,21.973,-76.172,-20.020,23.438,26.855
1571283857.011,21.973,-412.109,-282.715,15.625,-24.414
1571283857.014,36.133,-594.238,-423.340,20.020,18.555
1571283857.018,38.574,-580.566,-398.926,24.902,86.914
1571283857.022,27.344,-468.750,-330.566,17.090,8.301
1571283857.026,22.461,-342.773,-255.859,12.695,-38.574
1571283857.030,29.297,-218.262,-177.246,16.113,12.207
1571283857.034,38.574,95.703,57.129,28.320,104.980
1571283857.038,28.809,441.406,307.129,26.855,112.793
1571283857.042,19.043,194.824,90.820,14.648,-6.836
1571283857.046,27.344,-144.531,-169.434,4.883,-41.992
1571283857.050,33.203,73.242,12.695,13.672,65.430
1571283857.053,25.879,189.941,104.492,22.949,85.938
1571283857.057,13.672,-171.387,-166.504,21.973,-7.324
1571283857.061,16.602,-775.391,-625.977,13.672,-65.430
1571283857.065,29.785,-608.398,-474.609,17.090,31.250
1571283857.069,30.762,261.230,177.246,23.438,118.164
1571283857.073,21.484,328.125,188.965,20.508,50.293
1571283857.077,31.738,-67.383,-117.676,25.879,-11.719
1571283857.081,44.922,59.570,-10.254,33.691,48.828
1571283857.085,40.527,582.031,392.090,40.527,136.719
1571283857.089,30.762,409.180,248.047,37.109,62.500
1571283857.093,20.020,-22.949,-71.777,24.414,-20.508
1571283857.096,26.367,92.773,19.043,26.855,16.602
1571283857.100,45.410,221.191,114.258,47.852,85.449
1571283857.104,44.434,-46.875,-68.848,49.805,63.477
1571283857.108,26.367,-464.355,-354.980,38.086,-12.207
1571283857.112,27.344,-273.438,-201.172,34.668,-16.602
1571283857.116,42.969,312.988,233.887,43.457,78.125
1571283857.120,35.645,432.617,321.777,42.969,93.262
1571283857.124,20.020,247.070,187.012,24.414,21.973
1571283857.128,22.949,252.930,190.918,20.020,-0.488
1571283857.132,38.086,369.629,276.855,30.273,48.828
1571283857.136,45.410,344.238,269.043,36.133,79.102
1571283857.139,34.668,217.773,190.430,26.855,30.762
1571283857.143,27.344,227.539,204.590,19.043,2.930
1571283857.147,42.480,71.289,77.637,25.391,20.508
1571283857.151,53.223,-314.941,-187.500,22.461,64.941
1571283857.155,37.109,-347.656,-178.223,5.859,39.551
1571283857.159,20.508,19.531,80.566,2.930,-16.113
1571283857.163,32.715,46.387,70.312,16.113,-12.207
1571283857.167,44.434,159.668,161.133,22.461,71.289
1571283857.171,30.273,375.977,328.613,18.555,68.848
1571283857.175,22.949,393.555,341.797,21.973,26.855
1571283857.178,31.738,52.734,60.059,20.508,-38.574
1571283857.182,43.945,-38.574,5.371,33.203,14.160
1571283857.186,48.340,331.543,313.477,45.410,88.867
1571283857.190,31.250,188.477,187.500,27.344,1.465
1571283857.194,26.367,-402.344,-263.184,15.137,-54.199
1571283857.198,35.645,-588.867,-387.695,25.391,1.953
1571283857.202,35.645,-31.738,40.527,38.574,85.938
1571283857.206,33.203,345.703,293.945,36.621,55.176
1571283857.210,34.180,-142.090,-113.770,29.785,-44.922
1571283857.214,38.574,-546.875,-431.152,26.855,-63.477
1571283857.218,42.969,-110.352,-90.332,38.086,33.691
1571283857.221,36.133,205.566,135.254,42.969,44.922
1571283857.225,32.715,82.031,22.461,39.062,-4.395
1571283857.229,40.527,18.555,-42.480,40.527,5.371
1571283857.233,48.340,299.805,150.879,48.340,63.477
1571283857.237,37.598,449.707,254.395,41.504,71.289
1571283857.241,29.785,68.848,-37.109,34.668,12.695
1571283857.245,33.691,-244.141,-288.086,26.367,-37.598
1571283857.249,42.480,22.461,-89.355,32.227,43.457
1571283857.253,54.688,335.938,144.043,47.363,99.121
1571283857.257,45.898,-57.617,-167.480,35.645,6.348
1571283857.261,45.898,-319.336,-367.676,35.156,-62.500
1571283857.264,58.594,142.578,-30.273,42.969,7.812
1571283857.268,58.594,457.520,202.637,48.340,100.098
1571283857.272,62.012,355.957,124.512,61.035,29.297
1571283857.276,58.594,213.379,8.301,53.223,-54.199
1571283857.280,36.621,285.645,55.664,20.020,-15.137
1571283857.284,26.367,473.633,217.773,16.602,88.867
1571283857.288,32.227,410.156,193.848,37.598,80.078
1571283857.292,15.137,41.992,-86.914,20.996,-29.785
1571283857.296,-6.836,16.113,-118.164,-11.230,-40.039
1571283857.300,-23.926,223.145,22.949,-43.457,51.758
1571283857.303,-39.062,15.137,-144.043,-62.012,48.828
1571283857.307,-44.434,191.895,-4.395,-63.965,15.625
1571283857.311,-37.109,585.449,261.230,-69.336,13.672
1571283857.315,-19.531,657.227,286.133,-62.012,42.480
1571283857.319,-13.184,836.914,430.664,-51.758,84.473
1571283857.323,1.465,-980.957,579.102,-26.855,59.082
1571283857.327,-11.719,904.297,484.863,-41.016,12.695
1571283857.331,-17.090,746.094,360.352,-48.828,15.137
1571283857.335,4.883,773.438,407.227,-20.508,79.590
1571283857.339,-13.184,651.855,334.961,-27.832,42.480
1571283857.343,-13.672,591.797,293.945,-26.367,-14.648
1571283857.346,25.391,172.852,-30.273,-5.859,-36.621
1571283857.350,20.020,266.113,70.801,-14.160,50.781
1571283857.354,-5.371,979.492,614.746,-20.996,97.656
1571283857.358,7.812,862.305,495.605,-3.418,24.414
1571283857.362,23.926,503.906,226.074,2.441,13.672
1571283857.366,36.133,674.316,370.605,18.555,62.012
1571283857.370,42.480,982.910,621.094,35.156,74.707
1571283857.374,27.832,766.113,473.633,18.555,20.508
1571283857.378,19.531,458.984,251.953,-8.301,-19.531
1571283857.382,32.715,339.844,179.688,-2.930,23.926
1571283857.386,44.434,437.988,290.039,21.484,74.707
1571283857.389,30.273,282.715,187.012,11.719,19.531
1571283857.393,22.461,-300.781,-239.258,-6.836,-45.898
1571283857.397,26.855,-71.777,-49.805,-1.465,-4.883
1571283857.401,36.621,486.328,369.141,21.973,77.148
1571283857.405,24.902,480.957,377.930,21.484,69.824
