timestamps,TP9,AF7,AF8,TP10,Right AUX
1571283675.300,40.527,237.793,166.016,40.527,65.918
1571283675.304,35.645,484.863,349.121,40.527,55.176
1571283675.307,41.504,194.336,117.676,37.598,-31.250
1571283675.311,49.316,-33.203,-49.316,23.438,-19.043
1571283675.315,56.641,273.926,192.383,22.461,78.125
1571283675.319,51.758,315.430,228.516,30.762,78.125
1571283675.323,35.645,-164.551,-125.488,26.855,-9.277
1571283675.327,41.504,-750.000,-552.734,27.832,-56.152
1571283675.331,53.711,-418.457,-276.367,36.133,28.320
1571283675.335,56.152,215.332,187.500,37.109,78.125
1571283675.339,50.781,-150.879,-116.211,36.621,-27.344
1571283675.343,40.527,-323.242,-234.375,34.668,-53.711
1571283675.346,46.387,40.039,38.086,43.457,13.184
1571283675.350,50.781,374.512,285.156,55.664,70.801
1571283675.354,33.203,283.691,217.773,48.340,35.156
1571283675.358,22.461,-58.105,-51.758,37.598,-49.805
1571283675.362,32.715,39.551,15.137,45.898,-4.395
1571283675.366,42.480,198.730,134.277,53.711,84.961
1571283675.370,40.527,-258.301,-209.961,38.574,38.574
1571283675.374,43.457,-726.074,-547.852,34.668,-53.711
1571283675.378,41.992,-426.270,-322.266,34.180,-54.199
1571283675.382,40.527,53.711,25.879,43.457,41.992
1571283675.386,30.273,136.719,71.289,40.039,69.824
1571283675.389,24.902,-70.801,-111.328,34.668,-5.371
1571283675.393,27.832,-171.875,-220.703,36.133,-33.691
1571283675.397,37.109,-232.422,-284.668,54.199,10.254
1571283675.401,27.832,-45.410,-130.859,59.082,62.012
1571283675.405,5.371,74.219,-46.387,42.969,19.043
1571283675.409,1.465,29.785,-89.844,38.086,-20.508
1571283675.413,20.508,-81.543,-179.199,42.480,26.855
1571283675.417,34.180,-438.477,-429.688,57.617,65.918
1571283675.421,10.254,-343.750,-334.473,46.875,36.621
1571283675.425,8.301,-45.410,-133.789,52.246,-21.484
1571283675.429,29.297,-134.277,-220.215,58.105,-9.277
1571283675.432,36.621,49.316,-57.617,47.363,85.449
1571283675.436,20.020,380.859,208.984,34.180,89.355
1571283675.440,9.766,257.812,113.281,31.738,10.742
1571283675.444,23.438,20.020,-55.664,34.180,1.465
1571283675.448,41.504,-9.766,-61.035,41.992,69.824
1571283675.452,40.527,53.223,-3.906,51.270,67.871
1571283675.456,23.438,31.250,-17.090,46.875,7.812
1571283675.460,29.785,-270.020,-247.559,44.922,-5.371
1571283675.464,44.434,-468.262,-390.137,49.805,28.320
1571283675.468,40.039,-62.012,-68.359,42.480,94.238
1571283675.471,36.621,117.676,45.898,31.250,24.902
1571283675.475,40.039,-575.195,-508.789,26.367,-90.332
1571283675.479,41.992,-763.184,-616.211,27.344,-26.855
1571283675.483,36.621,-19.531,-28.320,38.086,94.727
1571283675.487,30.762,112.305,35.156,33.691,43.457
1571283675.491,27.344,-257.812,-255.371,27.344,-47.363
1571283675.495,25.879,-262.207,-253.906,32.715,-19.043
1571283675.499,35.156,138.672,54.199,49.805,85.938
1571283675.503,34.668,208.496,104.492,55.176,83.008
1571283675.507,29.297,-231.445,-218.262,47.363,14.648
1571283675.511,34.180,-499.023,-405.762,37.109,6.348
1571283675.514,43.457,-312.500,-255.371,41.992,66.406
1571283675.518,44.434,-87.891,-82.031,46.875,93.262
1571283675.522,35.645,-506.836,-399.902,37.109,14.648
1571283675.526,33.691,-542.969,-423.828,32.227,-16.113
1571283675.530,54.199,-48.828,-72.754,47.852,25.391
1571283675.534,62.988,150.879,78.125,61.523,85.449
1571283675.538,45.410,98.145,47.363,43.457,51.758
1571283675.542,38.086,33.691,-8.789,29.297,-1.465
1571283675.546,54.688,112.305,44.434,44.922,36.621
1571283675.550,58.594,232.910,149.902,59.082,103.027
1571283675.554,42.969,-67.871,-68.359,50.293,37.109
1571283675.557,27.832,-475.098,-363.770,34.180,-40.527
1571283675.561,35.645,-326.172,-246.582,36.621,-14.648
1571283675.565,50.781,-321.777,-242.188,54.688,64.453
1571283675.569,38.086,-446.777,-319.824,52.246,62.012
1571283675.573,30.762,-92.773,-62.988,51.758,0.977
1571283675.577,36.621,-51.270,-71.289,55.664,-27.344
1571283675.581,39.062,-58.105,-81.055,49.316,41.016
1571283675.585,35.156,232.422,149.902,42.969,95.703
1571283675.589,32.227,304.199,186.035,31.250,27.344
1571283675.593,35.645,60.059,-9.277,20.996,-9.277
1571283675.596,42.969,4.883,-46.875,19.531,43.457
1571283675.600,53.223,110.840,46.875,33.691,91.309
1571283675.604,41.504,-77.637,-85.449,34.668,22.949
1571283675.608,32.227,-426.758,-347.656,28.809,-54.688
1571283675.612,48.340,-774.902,-602.539,43.457,-41.016
1571283675.616,36.621,-263.672,-194.336,36.133,63.477
1571283675.620,18.555,216.309,150.391,33.691,52.246
1571283675.624,37.109,-36.133,-55.664,55.176,-31.250
1571283675.628,50.781,-1.465,-26.367,45.898,-15.137
1571283675.632,38.086,447.266,315.430,22.949,72.754
1571283675.636,16.113,665.527,486.816,9.277,81.543
1571283675.639,2.441,382.812,294.434,4.395,11.719
1571283675.643,-12.695,179.199,159.180,-11.719,-13.184
1571283675.647,-16.602,130.371,120.605,-19.043,26.855
1571283675.651,-33.691,280.762,248.535,-22.949,73.730
1571283675.655,-49.316,24.414,57.129,-41.504,21.484
1571283675.659,-54.199,-447.266,-300.781,-72.754,-39.062
1571283675.663,-60.547,22.461,45.410,-87.891,1.953
1571283675.667,-32.227,476.562,375.488,-60.059,62.988
1571283675.671,-44.434,428.223,345.215,-71.289,30.273
1571283675.675,-57.617,195.801,166.992,-85.449,-38.574
1571283675.679,-42.480,143.555,121.094,-70.312,-30.762
1571283675.682,-32.715,373.047,301.270,-51.758,42.969
1571283675.686,-36.133,471.191,373.047,-47.363,52.734
1571283675.690,-43.457,375.977,278.320,-50.293,-20.996
1571283675.694,-29.297,111.328,45.410,-39.551,-60.547
1571283675.698,-5.371,-44.922,-74.707,-26.367,3.418
1571283675.702,6.836,19.043,0.977,-24.414,66.406
1571283675.706,7.324,223.633,148.438,-31.738,27.832
1571283675.710,14.160,434.082,271.973,-31.738,-7.812
1571283675.714,32.227,423.828,258.789,-5.371,48.340
1571283675.718,23.926,308.105,187.500,7.812,67.383
1571283675.721,-0.488,412.109,273.438,-10.254,7.324
1571283675.725,-1.953,444.824,285.156,-17.578,-12.695
1571283675.729,14.648,437.500,271.973,-9.277,44.434
1571283675.733,24.414,473.633,316.406,11.719,101.562
1571283675.737,12.695,535.645,375.488,12.695,62.988
1571283675.741,9.766,301.758,194.336,12.207,-11.230
1571283675.745,26.367,-231.445,-195.312,20.508,-15.625
1571283675.749,28.809,-206.055,-139.160,17.578,62.012
1571283675.753,11.719,383.789,311.035,13.672,78.125
1571283675.757,7.324,435.059,322.754,6.348,-7.812
1571283675.761,17.090,207.520,151.367,3.418,-13.672
1571283675.764,30.762,409.668,316.895,20.020,63.965
1571283675.768,34.668,709.473,548.828,36.621,75.684
1571283675.772,34.668,476.562,377.441,41.016,-10.742
1571283675.776,32.227,125.488,124.512,31.738,-46.387
1571283675.780,33.691,261.230,235.840,26.855,23.438
1571283675.784,34.180,636.230,526.367,31.250,91.309
1571283675.788,30.273,406.738,351.562,32.715,31.738
1571283675.792,34.180,-424.316,-263.672,23.926,-54.199
1571283675.796,46.387,-290.039,-129.395,21.973,4.883
1571283675.800,61.523,491.699,461.914,43.945,95.703
1571283675.804,50.293,522.461,472.168,35.156,60.547
1571283675.807,36.621,278.809,297.363,14.648,12.207
1571283675.811,45.898,284.180,307.617,22.461,18.555
1571283675.815,61.035,599.609,558.105,45.898,93.750
1571283675.819,51.270,620.117,581.543,46.875,77.637
1571283675.823,36.621,351.562,393.555,35.156,13.184
1571283675.827,39.062,299.805,357.422,30.762,-3.906
1571283675.831,48.340,435.059,455.566,45.898,45.410
1571283675.835,52.246,356.934,411.133,52.246,69.824
1571283675.839,37.598,-17.578,148.438,28.809,3.906
1571283675.843,28.809,-80.566,103.516,11.719,-32.715
1571283675.846,43.457,80.566,219.727,33.691,14.648
1571283675.850,56.152,-22.949,158.691,55.176,75.684
1571283675.854,35.645,-93.262,123.047,35.645,46.387
1571283675.858,25.391,143.555,287.109,29.785,-2.930
1571283675.862,41.504,247.070,340.332,40.039,27.832
1571283675.866,52.246,385.254,444.824,49.805,96.191
1571283675.870,43.457,419.434,468.750,45.898,61.035
1571283675.874,30.273,278.809,358.398,36.133,-1.465
1571283675.878,40.527,11.719,147.461,45.410,-34.180
1571283675.882,45.410,-69.336,106.934,55.176,50.781
1571283675.886,37.109,-18.066,165.527,53.711,86.426
1571283675.889,27.832,-17.090,153.809,46.875,4.883
1571283675.893,32.227,-249.023,-49.805,44.922,-45.898
1571283675.897,50.781,-528.320,-244.629,47.852,33.203
1571283675.901,47.363,-272.949,-38.086,47.363,80.078
1571283675.905,33.203,-154.297,20.508,45.410,-1.465
1571283675.909,31.738,-361.328,-159.180,33.203,-52.246
1571283675.913,37.598,-318.848,-139.160,32.227,-14.648
1571283675.917,42.480,171.875,236.816,41.992,78.613
1571283675.921,36.133,273.926,296.875,38.086,41.992
1571283675.925,24.902,-19.531,71.289,26.367,-0.977
1571283675.929,32.715,-253.418,-105.957,25.879,22.949
1571283675.932,47.852,-253.418,-101.562,40.527,50.293
1571283675.936,35.645,65.430,149.902,37.109,63.965
1571283675.940,32.227,-307.617,-144.531,32.227,4.883
1571283675.944,41.016,-833.984,-546.387,33.203,-50.293
1571283675.948,43.945,-224.609,-78.125,36.621,23.926
1571283675.952,39.062,230.957,254.395,32.227,68.848
1571283675.956,32.715,0.977,67.383,30.273,3.418
1571283675.960,43.457,-245.605,-118.164,41.504,-20.020
1571283675.964,47.852,28.320,92.285,41.992,53.223
1571283675.968,44.922,286.133,279.297,31.250,85.938
1571283675.971,32.715,62.012,104.004,17.578,15.625
1571283675.975,25.391,-276.367,-145.020,10.254,-20.508
1571283675.979,36.133,-339.844,-182.129,19.531,9.766
1571283675.983,43.457,-76.172,29.785,37.109,70.801
1571283675.987,37.109,-371.094,-185.059,32.715,39.551
1571283675.991,29.785,-458.496,-245.117,22.949,-14.160
1571283675.995,36.133,-93.750,0.488,27.832,-13.184
1571283675.999,51.758,57.617,100.586,42.969,43.945
1571283676.003,46.387,180.176,205.566,41.504,70.801
1571283676.007,32.227,172.363,180.664,31.250,3.418
1571283676.011,31.738,20.508,35.156,25.879,-51.758
1571283676.014,27.832,-38.574,-3.906,21.484,16.113
1571283676.018,19.531,116.699,124.512,19.043,66.895
1571283676.022,9.277,-55.176,-21.973,13.672,1.953
1571283676.026,16.602,-249.023,-166.992,13.184,-7.324
1571283676.030,41.504,-322.266,-220.215,27.344,35.156
1571283676.034,39.551,-280.273,-168.945,32.227,82.520
1571283676.038,25.879,217.773,210.449,34.180,67.383
1571283676.042,22.461,317.871,253.418,36.133,26.367
1571283676.046,28.809,160.156,120.605,31.250,31.250
1571283676.050,30.762,379.883,299.316,32.715,93.262
1571283676.054,23.926,599.121,465.820,37.109,85.449
1571283676.057,18.555,238.770,177.246,28.809,-21.484
1571283676.061,20.996,-19.531,-6.836,20.508,-14.160
1571283676.065,39.062,278.809,236.816,42.480,74.707
1571283676.069,40.527,306.152,262.207,54.199,82.031
1571283676.073,33.203,-133.789,-64.453,45.410,16.113
1571283676.077,37.598,-734.375,-520.996,30.762,-51.758
1571283676.081,41.504,-452.637,-288.086,36.621,26.367
1571283676.085,46.875,327.637,293.457,53.223,101.562
1571283676.089,32.715,232.422,193.359,40.527,46.875
1571283676.093,29.785,-82.031,-55.176,29.785,-16.113
1571283676.096,41.992,78.613,62.988,35.156,7.324
1571283676.100,38.086,419.434,331.543,36.621,91.797
1571283676.104,30.273,330.566,264.160,31.250,62.500
1571283676.108,30.273,-50.293,-37.598,20.996,-34.180
1571283676.112,39.551,41.016,39.551,28.320,14.648
1571283676.116,52.734,313.477,262.695,53.223,118.164
1571283676.120,49.805,-84.473,-34.180,53.223,72.754
1571283676.124,34.668,-557.617,-375.000,32.227,-3.906
1571283676.128,35.645,-307.129,-187.988,34.668,12.207
1571283676.132,52.734,28.809,52.246,59.570,82.031
1571283676.136,50.293,213.379,195.801,60.547,91.797
1571283676.139,39.551,107.422,99.121,49.805,-1.465
1571283676.143,45.898,40.527,29.297,46.875,-39.551
1571283676.147,56.641,231.445,183.105,58.594,56.641
1571283676.151,53.223,344.727,276.855,54.199,95.703
1571283676.155,43.457,291.992,236.328,42.480,36.621
1571283676.159,38.574,200.195,158.691,40.527,-4.883
1571283676.163,44.922,-12.695,-2.441,41.504,35.156
1571283676.167,49.316,-89.844,-27.832,45.410,100.098
1571283676.171,44.434,139.648,156.250,39.062,66.406
1571283676.175,41.992,193.848,166.016,26.367,-5.371
1571283676.179,46.387,-13.184,-3.418,27.344,-1.465
1571283676.182,61.035,-67.383,-16.113,47.852,74.707
1571283676.186,53.223,52.734,91.797,47.363,54.688
1571283676.190,36.133,25.879,62.988,40.039,-14.160
1571283676.194,40.527,-83.984,-37.109,38.574,-29.297
1571283676.198,50.293,20.508,41.992,46.387,26.855
1571283676.202,46.387,369.629,321.777,50.293,76.660
1571283676.206,37.109,312.988,267.090,40.527,7.812
1571283676.210,30.762,-140.625,-83.008,27.344,-43.945
1571283676.214,35.645,-332.520,-211.426,27.832,0.000
1571283676.218,36.621,36.133,84.473,34.180,56.152
1571283676.221,33.691,235.352,228.027,36.133,17.090
1571283676.225,32.715,-155.273,-72.754,26.367,-30.762
1571283676.229,39.551,-195.312,-88.867,31.250,18.066
1571283676.233,51.270,253.418,260.742,52.246,90.820
1571283676.237,47.363,360.840,336.426,49.805,63.965
1571283676.241,41.992,-156.250,-61.035,40.039,-29.297
1571283676.245,46.387,-292.969,-153.320,27.832,-19.531
1571283676.249,61.523,314.453,309.082,40.039,93.750
1571283676.253,57.129,379.395,341.797,50.781,66.895
1571283676.257,33.691,-64.453,14.160,34.668,9.766
1571283676.261,29.785,-393.066,-227.539,29.297,-6.836
1571283676.264,45.410,-123.047,-27.832,48.828,37.109
1571283676.268,50.781,150.391,164.551,61.523,82.520
1571283676.272,37.109,-462.402,-309.570,50.293,3.418
1571283676.276,31.738,-606.934,-413.574,40.039,-21.973
1571283676.280,52.734,-18.555,16.602,58.105,76.172
1571283676.284,65.918,131.348,107.422,72.754,104.492
1571283676.288,52.734,-107.422,-75.195,60.059,16.602
1571283676.292,52.246,-188.965,-126.953,60.547,-23.438
1571283676.296,66.406,-144.531,-91.797,74.219,9.277
1571283676.300,69.824,-102.539,-37.598,78.125,80.078
1571283676.304,60.059,-315.430,-183.594,73.242,43.457
1571283676.307,57.617,-662.109,-458.496,68.359,-50.293
1571283676.311,70.312,-583.008,-410.156,68.359,-26.855
1571283676.315,85.449,-508.789,-363.770,80.566,47.363
1571283676.319,77.637,-614.258,-436.035,80.078,37.598
1571283676.323,61.523,-255.859,-161.621,74.219,0.977
1571283676.327,63.965,-166.504,-121.582,76.172,-21.973
1571283676.331,75.195,-97.168,-60.547,84.961,57.129
1571283676.335,75.195,165.039,145.508,87.402,97.168
1571283676.339,62.500,176.758,137.207,74.707,26.367
1571283676.343,70.312,-105.957,-91.797,73.730,-22.949
1571283676.346,87.402,-171.875,-135.254,76.172,30.273
1571283676.350,83.984,-0.977,15.137,79.590,111.816
1571283676.354,66.406,-164.062,-100.586,81.055,59.570
1571283676.358,63.477,-549.316,-382.324,76.172,-18.555
1571283676.362,66.895,-575.195,-399.902,72.266,-3.906
1571283676.366,66.895,-80.566,-31.738,80.566,67.871
1571283676.370,55.664,236.816,197.754,78.125,74.219
1571283676.374,50.781,-154.785,-120.117,68.359,-5.371
1571283676.378,58.594,-760.254,-575.195,66.895,-51.758
1571283676.382,58.594,-223.145,-131.348,70.801,85.938
1571283676.386,47.852,269.043,216.309,68.848,109.863
1571283676.389,39.551,-49.805,-50.781,55.664,17.090
1571283676.393,46.387,-289.062,-233.887,51.758,-15.625
1571283676.397,58.594,-305.176,-245.605,64.941,36.133
1571283676.401,58.594,-165.039,-125.488,69.824,73.730
1571283676.405,51.758,-439.941,-336.914,62.988,11.230
1571283676.409,51.270,-907.227,-704.102,55.176,-47.852
1571283676.413,57.129,-558.105,-428.711,57.129,5.859
1571283676.417,65.430,-52.246,-59.570,63.965,80.566
1571283676.421,58.105,-72.754,-93.750,55.664,27.832
1571283676.425,51.270,-227.051,-218.262,50.781,-26.367
1571283676.429,61.035,-125.000,-161.621,48.340,-10.254
1571283676.432,68.359,58.594,-21.973,52.246,69.824
1571283676.436,56.641,3.418,-60.059,46.875,54.199
1571283676.440,46.387,-132.812,-165.527,35.645,-2.930
1571283676.444,49.805,-307.617,-302.734,36.133,5.859
1571283676.448,56.641,-408.203,-371.582,46.875,52.246
1571283676.452,49.316,-619.141,-511.719,45.410,52.734
1571283676.456,26.855,-593.750,-486.816,30.762,-1.953
1571283676.460,26.367,-268.555,-269.531,30.273,-19.531
1571283676.464,41.016,-99.121,-162.109,40.039,57.129
1571283676.468,43.945,-28.320,-103.027,47.852,99.121
1571283676.471,33.691,-26.855,-92.285,37.109,63.965
1571283676.475,35.156,-81.055,-158.691,25.879,-6.836
1571283676.479,44.434,-172.852,-242.188,31.738,1.465
1571283676.483,41.504,19.043,-73.730,39.551,87.402
1571283676.487,37.109,143.555,21.484,41.504,55.664
1571283676.491,33.691,-135.742,-192.383,38.086,-9.766
1571283676.495,40.039,-636.230,-564.453,37.109,-10.742
1571283676.499,43.945,-585.938,-491.699,41.016,85.449
1571283676.503,28.320,40.039,-19.043,34.668,107.422
1571283676.507,26.367,77.148,-30.273,31.738,8.789
1571283676.511,34.180,-213.867,-255.371,33.691,-25.879
1571283676.514,45.898,-25.879,-95.215,47.363,58.105
1571283676.518,43.457,362.793,209.473,57.617,100.586
1571283676.522,30.273,229.492,105.957,46.387,40.039
1571283676.526,32.227,-185.059,-210.938,33.203,-20.508
1571283676.530,46.387,-97.168,-128.906,36.133,29.785
1571283676.534,43.457,317.383,193.359,37.109,97.168
1571283676.538,30.762,129.395,50.293,37.109,49.316
1571283676.542,29.297,-648.438,-519.043,38.574,-29.785
1571283676.546,30.762,-586.426,-446.289,39.062,-4.395
1571283676.550,34.668,214.844,156.738,47.363,91.797
1571283676.554,32.715,217.285,132.812,38.574,40.039
1571283676.557,23.926,-105.957,-111.816,20.508,-32.227
1571283676.561,28.320,62.988,24.414,25.879,14.648
1571283676.565,41.992,404.785,282.227,41.504,97.656
1571283676.569,32.227,413.574,291.504,33.691,101.562
1571283676.573,24.902,124.023,74.219,21.973,22.949
1571283676.577,36.621,1.465,-27.344,17.578,-27.832
1571283676.581,53.223,19.043,-7.812,37.109,31.250
1571283676.585,48.340,-63.965,-47.363,41.504,74.707
1571283676.589,27.832,-256.348,-177.734,24.902,20.020
1571283676.593,23.438,-312.012,-232.910,17.090,-42.969
1571283676.596,44.922,44.922,25.391,30.273,20.020
1571283676.600,65.430,-49.805,-43.945,52.734,63.477
1571283676.604,49.805,-384.277,-287.109,45.898,-16.113
1571283676.608,37.109,-134.277,-102.051,36.621,-42.480
1571283676.612,48.828,55.664,18.066,51.270,6.348
1571283676.616,38.086,189.453,119.629,46.875,74.707
1571283676.620,27.344,368.652,264.648,41.016,86.426
1571283676.624,36.133,324.707,210.938,51.758,14.160
1571283676.628,19.043,84.961,-1.953,24.902,-31.738
1571283676.632,-2.930,-38.574,-88.867,2.930,32.227
1571283676.636,-6.836,-41.992,-63.965,0.488,69.824
1571283676.639,-13.672,-36.621,-54.688,-6.836,21.484
1571283676.643,-16.602,-127.930,-151.855,-17.578,-24.414
1571283676.647,-19.043,-332.031,-305.176,-35.156,34.668
1571283676.651,-35.645,75.684,19.043,-52.246,104.980
1571283676.655,-24.414,385.254,224.609,-39.551,53.223
1571283676.659,-34.668,68.359,-47.852,-52.734,-31.738
1571283676.663,-39.551,4.883,-101.562,-51.758,-14.648
1571283676.667,-45.898,460.449,261.719,-42.969,85.449
1571283676.671,-65.918,581.055,347.656,-55.176,53.711
1571283676.675,-48.828,293.457,127.441,-45.410,-5.859
1571283676.679,-24.414,67.871,-39.551,-30.273,10.742
1571283676.682,-30.273,160.156,36.621,-31.250,76.172
1571283676.686,-44.922,441.895,250.977,-32.715,87.891
1571283676.690,-43.457,92.285,-33.691,-31.250,-6.348
1571283676.694,-20.996,-426.270,-420.898,-27.832,-40.039
1571283676.698,4.395,159.180,48.828,-18.066,79.102
1571283676.702,8.301,715.820,457.520,-20.020,104.004
1571283676.706,7.324,515.625,296.387,-14.648,14.160
1571283676.710,15.625,398.438,212.891,-8.301,-9.277
1571283676.714,35.156,666.992,417.480,12.207,51.758
1571283676.718,38.574,806.641,532.227,30.762,89.844
1571283676.721,20.996,595.215,383.789,22.461,32.227
1571283676.725,25.879,242.676,128.906,21.973,-20.996
1571283676.729,46.875,154.785,80.078,40.527,17.578
1571283676.733,53.711,429.688,307.617,58.105,88.379
1571283676.737,36.133,46.875,21.973,45.410,9.766
1571283676.741,19.043,-222.656,-173.828,29.297,-82.520
1571283676.745,36.621,198.730,140.137,39.062,-31.738
1571283676.749,52.246,504.883,375.000,43.457,89.844
1571283676.753,38.086,427.246,320.801,28.809,84.473
1571283676.757,21.973,264.648,190.918,12.695,-21.484
1571283676.761,33.203,302.734,215.332,18.066,-26.367
1571283676.764,47.852,464.844,359.375,37.598,82.520
1571283676.768,45.410,658.691,527.344,43.945,121.094
1571283676.772,41.992,331.543,279.785,47.852,27.832
1571283676.776,36.621,59.570,85.449,37.598,-9.277
1571283676.780,57.617,-61.523,0.000,45.898,36.621
1571283676.784,66.895,-157.715,-44.434,55.176,86.426
1571283676.788,46.875,244.141,263.672,41.504,61.035
1571283676.792,45.410,260.254,238.281,37.109,-11.230
1571283676.796,57.617,145.996,155.273,41.016,23.926
1571283676.800,49.316,373.047,343.750,37.598,92.285
1571283676.804,31.250,517.090,448.242,28.809,56.152
1571283676.807,23.438,101.074,133.789,20.996,-20.020
1571283676.811,10.254,-180.176,-67.871,1.953,-13.672
1571283676.815,30.762,258.789,275.391,19.043,91.309
1571283676.819,27.344,417.969,396.484,25.391,117.188
1571283676.823,10.254,18.066,93.262,16.602,24.902
1571283676.827,29.297,-504.395,-288.086,22.461,-19.531
1571283676.831,45.898,-227.539,-64.941,30.762,59.082
1571283676.835,42.480,413.086,398.926,39.551,83.984
1571283676.839,30.762,266.602,263.672,35.645,12.207
1571283676.843,24.414,21.484,71.777,15.625,-12.207
1571283676.846,40.039,261.230,246.094,34.668,52.246
1571283676.850,48.828,568.848,473.145,45.410,112.305
1571283676.854,35.645,410.645,347.656,23.438,64.453
1571283676.858,33.691,51.758,67.871,21.973,-17.090
1571283676.862,38.574,93.750,98.145,25.391,11.719
1571283676.866,38.086,292.480,264.160,30.762,116.699
1571283676.870,38.574,-174.316,-87.891,25.391,54.688
1571283676.874,30.762,-688.965,-463.379,10.742,-41.016
1571283676.878,28.320,-250.488,-127.930,7.324,10.742
1571283676.882,40.039,312.988,270.508,21.484,104.492
1571283676.886,39.551,355.469,290.527,25.879,94.727
1571283676.889,26.367,185.059,167.969,15.137,24.414
1571283676.893,25.879,144.531,131.348,13.672,0.000
1571283676.897,43.457,248.047,210.938,32.227,73.730
1571283676.901,49.805,284.180,251.953,42.480,122.559
1571283676.905,30.273,129.883,127.441,24.414,40.039
1571283676.909,15.625,-52.734,-27.832,9.277,-30.762
1571283676.913,24.414,-167.969,-102.051,18.066,42.480
1571283676.917,34.668,-408.203,-251.465,28.320,107.422
1571283676.921,24.414,-551.270,-352.539,25.879,23.926
1571283676.925,24.414,-318.848,-192.871,25.391,-21.973
1571283676.929,33.203,-209.473,-136.719,19.531,15.625
1571283676.932,28.320,4.395,28.809,19.531,104.492
1571283676.936,13.184,273.926,227.539,6.836,89.355
1571283676.940,5.859,71.289,50.293,-5.371,-17.578
1571283676.944,10.254,-102.051,-69.336,-4.883,10.742
1571283676.948,21.484,32.715,38.086,5.371,82.031
1571283676.952,18.555,243.164,198.242,11.719,87.402
1571283676.956,13.184,169.434,141.113,5.859,30.762
1571283676.960,24.414,-289.551,-221.191,4.395,-32.227
1571283676.964,35.156,-451.172,-319.336,16.602,40.527
1571283676.968,34.668,-41.016,6.836,21.484,106.934
1571283676.971,21.973,99.121,83.008,13.672,25.879
1571283676.975,21.484,-454.102,-355.957,16.602,-67.383
1571283676.979,37.109,-614.258,-461.426,26.367,-10.254
1571283676.983,43.457,41.992,39.551,38.574,93.262
1571283676.987,36.133,271.973,185.059,33.691,53.223
1571283676.991,23.926,-306.641,-266.113,13.672,-47.852
1571283676.995,24.414,-481.934,-389.160,14.160,-39.551
1571283676.999,35.645,127.930,77.637,34.180,68.848
1571283677.003,35.156,228.516,138.184,41.504,45.410
1571283677.007,34.668,-247.070,-223.145,43.945,-48.340
1571283677.011,42.480,-514.648,-412.598,43.457,-53.223
1571283677.014,49.316,-94.238,-83.984,42.969,41.504
1571283677.018,45.410,225.098,150.879,43.457,73.242
1571283677.022,27.344,-337.402,-270.508,26.367,-7.812
1571283677.026,22.461,-464.844,-355.469,15.137,-48.340
1571283677.030,43.457,138.672,92.285,29.297,42.480
1571283677.034,53.223,308.594,215.820,45.898,103.027
1571283677.038,33.691,113.281,65.918,39.062,20.508
1571283677.042,30.762,110.352,59.082,33.691,-28.320
1571283677.046,49.805,181.152,103.516,42.480,4.883
1571283677.050,52.246,338.867,245.117,50.293,84.473
1571283677.054,46.875,180.664,145.020,46.875,56.152
1571283677.057,41.016,-291.504,-217.285,34.180,-62.012
1571283677.061,43.945,-154.297,-108.398,28.320,-38.574
1571283677.065,53.711,-79.102,-43.457,30.273,53.223
1571283677.069,39.062,-242.676,-141.602,22.949,55.664
1571283677.073,24.414,64.941,94.727,21.484,1.953
1571283677.077,35.645,48.340,58.594,27.344,-30.273
1571283677.081,54.688,114.746,119.629,42.969,47.363
1571283677.085,48.340,439.941,374.023,44.434,82.520
1571283677.089,28.809,343.262,285.645,34.668,4.883
1571283677.093,31.738,51.758,71.289,34.180,-3.418
1571283677.096,48.340,180.176,179.199,43.457,55.176
1571283677.100,52.734,197.266,195.312,46.875,58.594
1571283677.104,42.480,59.570,111.816,42.969,9.766
1571283677.108,46.387,-77.148,7.324,40.039,-51.758
1571283677.112,55.664,-530.762,-337.891,30.762,-54.688
1571283677.116,49.316,-207.031,-61.035,29.297,44.922
1571283677.120,39.062,382.812,373.047,27.832,49.316
1571283677.124,35.156,128.906,154.297,18.555,-27.832
1571283677.128,39.551,-59.570,12.207,18.066,-27.832
1571283677.132,46.387,343.750,332.520,33.203,67.383
1571283677.136,42.480,614.258,536.133,35.156,92.773
1571283677.139,28.809,287.109,274.902,19.043,6.348
1571283677.143,35.156,44.434,94.238,22.461,-15.137
1571283677.147,44.922,105.957,147.949,40.527,58.594
1571283677.151,40.527,215.332,249.023,47.363,124.512
1571283677.155,41.016,-286.621,-144.531,49.805,8.789
1571283677.159,47.363,-815.918,-539.551,47.852,-74.219
1571283677.163,57.129,-153.320,-13.672,52.734,62.012
1571283677.167,54.688,390.625,356.445,45.898,111.816
1571283677.171,37.109,188.477,174.316,26.367,28.809
1571283677.175,27.344,-50.293,-9.277,24.902,-26.367
1571283677.179,36.621,91.797,88.867,30.273,15.137
1571283677.182,51.270,229.492,181.152,42.480,70.312
1571283677.186,41.504,78.125,70.312,40.527,36.621
1571283677.190,24.414,-8.301,14.648,24.414,2.441
1571283677.194,31.738,-109.863,-60.059,23.926,30.273
1571283677.198,44.434,-80.078,-20.996,40.527,112.793
1571283677.202,41.504,-346.191,-207.031,40.039,89.355
1571283677.206,22.949,-439.941,-265.625,25.879,21.484
1571283677.210,25.391,-51.758,6.348,20.508,10.742
1571283677.214,47.852,62.500,74.219,35.156,66.895
1571283677.218,49.805,174.805,171.875,45.898,109.375
1571283677.221,40.039,213.867,199.707,44.434,47.852
1571283677.225,48.340,91.797,93.750,50.293,0.977
1571283677.229,45.898,-27.832,-8.301,44.922,31.738
1571283677.233,28.809,2.930,5.371,29.297,66.406
1571283677.237,28.320,104.004,67.871,32.227,53.711
1571283677.241,35.645,-117.676,-121.582,46.875,20.020
1571283677.245,50.293,-671.387,-563.965,55.664,-14.648
1571283677.249,63.965,-754.883,-600.586,64.941,42.480
1571283677.253,55.176,-142.090,-111.328,72.754,87.891
1571283677.257,55.664,14.648,-18.066,75.684,29.297
1571283677.261,59.082,-200.195,-180.176,71.289,26.855
1571283677.264,69.824,-73.730,-66.406,86.914,88.867
1571283677.268,77.148,206.543,153.809,101.074,91.797
1571283677.272,62.988,63.965,47.363,91.797,26.855
1571283677.276,74.219,-314.453,-239.746,95.215,-22.461
1571283677.280,103.027,-163.574,-105.957,110.352,61.035
1571283677.284,105.957,244.629,211.426,120.605,119.141
1571283677.288,99.121,-148.438,-89.844,114.746,10.742
1571283677.292,92.285,-675.781,-448.242,92.773,-29.785
1571283677.296,88.379,-437.500,-238.281,84.473,26.855
1571283677.300,93.262,19.043,109.375,98.633,63.965
1571283677.304,82.520,-15.625,95.703,97.168,43.945
1571283677.307,70.312,-592.773,-331.055,74.707,-23.438
1571283677.311,71.289,-505.859,-267.090,69.336,-12.695
1571283677.315,81.543,-43.457,70.801,85.938,76.660
1571283677.319,72.266,-126.465,6.836,79.102,66.406
1571283677.323,55.664,-207.520,-51.758,65.918,6.348
1571283677.327,61.035,-121.094,-4.395,62.012,-4.883
1571283677.331,77.148,91.797,145.508,73.242,63.477
1571283677.335,72.754,-48.340,42.969,76.660,73.730
1571283677.339,50.781,-387.695,-198.730,54.199,17.090
1571283677.343,42.969,-362.305,-193.359,38.086,-18.555
1571283677.346,54.199,-52.246,18.066,50.781,38.574
1571283677.350,63.477,-127.441,-34.668,59.570,100.586
1571283677.354,50.781,-453.613,-277.832,44.922,27.344
1571283677.358,40.039,-273.438,-154.297,39.551,-23.438
1571283677.362,55.176,-187.012,-119.629,50.781,-6.348
1571283677.366,67.871,-64.453,-21.484,71.777,67.383
1571283677.370,53.223,86.426,104.004,66.406,72.266
1571283677.374,42.480,-175.781,-116.211,56.152,-22.949
1571283677.378,52.246,-367.676,-266.113,61.035,-33.691
1571283677.382,66.406,-259.277,-172.852,68.359,57.617
1571283677.386,55.176,-281.250,-186.523,59.082,47.852
1571283677.389,38.574,-243.652,-167.480,43.457,-14.648
1571283677.393,45.410,-282.227,-224.609,45.898,-21.973
1571283677.397,57.129,-224.121,-191.406,51.270,44.922
1571283677.401,51.270,143.555,90.332,46.387,86.426
1571283677.405,38.086,245.605,154.785,42.969,35.156
1571283677.409,41.992,-110.840,-134.277,40.527,-7.812
1571283677.413,52.734,-524.902,-431.152,47.852,27.832
1571283677.417,47.852,-152.832,-129.395,54.688,80.078
1571283677.421,39.551,139.160,63.965,44.922,21.484
1571283677.425,37.109,-183.594,-199.219,31.250,-45.410
1571283677.429,46.387,-399.902,-360.352,36.133,-10.254
1571283677.432,57.129,-186.523,-187.012,50.293,62.500
1571283677.436,49.316,-111.816,-126.465,48.828,48.828
1571283677.440,38.574,-290.039,-257.812,37.598,0.488
1571283677.444,42.969,-235.840,-229.980,36.621,-15.625
1571283677.448,54.199,186.035,82.031,49.316,58.105
1571283677.452,50.781,453.125,277.832,58.105,59.082
1571283677.456,45.898,-170.898,-190.918,46.875,-33.203
1571283677.460,45.410,-586.426,-481.445,29.297,-42.969
1571283677.464,51.758,52.734,8.301,43.457,50.781
1571283677.468,52.734,373.047,233.398,57.617,77.637
1571283677.471,40.527,158.203,65.918,55.176,0.000
1571283677.475,34.180,-188.477,-192.383,44.434,-52.734
1571283677.479,35.645,-169.434,-165.039,45.410,6.836
1571283677.483,44.922,167.969,98.633,65.430,79.102
1571283677.487,41.504,-219.727,-189.453,54.199,28.320
1571283677.491,24.414,-425.293,-339.355,32.715,-49.805
1571283677.495,37.598,6.348,-28.809,44.434,-18.066
1571283677.499,51.270,181.152,106.445,50.781,83.008
1571283677.503,39.062,236.816,154.785,38.086,69.336
1571283677.507,26.367,236.816,145.508,33.203,-13.672
1571283677.511,30.273,226.562,133.789,32.715,5.371
1571283677.514,43.945,310.547,207.520,45.410,89.355
1571283677.518,39.062,357.910,255.371,43.945,80.078
1571283677.522,31.250,73.730,48.340,32.715,16.113
1571283677.526,30.762,-259.766,-204.590,21.484,-18.066
1571283677.530,39.062,-357.422,-274.414,21.484,26.855
1571283677.534,39.551,-241.211,-173.340,28.809,74.219
1571283677.538,23.438,92.773,69.336,22.949,28.320
1571283677.542,25.879,-27.344,-50.293,20.508,-26.855
1571283677.546,41.016,-424.805,-355.957,26.855,-4.883
1571283677.550,37.598,-210.449,-171.875,35.156,74.707
1571283677.554,20.996,169.434,102.539,30.762,43.945
1571283677.557,21.973,36.133,-17.578,27.344,-4.883
1571283677.561,41.992,-91.309,-115.234,38.086,22.949
1571283677.565,51.758,88.867,17.090,53.711,58.105
1571283677.569,39.062,6.348,-40.527,52.246,32.227
1571283677.573,29.297,-354.980,-295.410,42.969,-16.602
1571283677.577,33.691,-811.035,-662.598,33.203,-49.316
1571283677.581,42.480,-529.297,-431.152,39.062,39.062
1571283677.585,39.551,217.285,144.043,44.922,99.121
1571283677.589,24.902,143.555,59.082,37.109,35.156
1571283677.593,18.555,-162.598,-179.199,23.926,-17.578
1571283677.596,26.367,36.133,-25.879,29.297,35.645
1571283677.600,34.668,265.137,160.645,48.340,110.840
1571283677.604,24.414,83.496,29.297,42.969,52.246
1571283677.608,22.949,-101.074,-112.305,28.809,-8.301
1571283677.612,40.527,22.461,-24.902,35.645,28.320
1571283677.616,56.641,146.484,79.590,52.246,103.516
1571283677.620,46.875,-254.883,-215.332,41.016,52.734
1571283677.624,31.250,-714.844,-549.805,28.809,-36.133
1571283677.628,41.992,-286.621,-220.703,35.156,22.461
1571283677.632,58.594,300.293,201.172,49.316,116.699
1571283677.636,43.945,275.391,166.016,43.945,81.055
1571283677.639,30.273,55.176,1.465,25.391,-0.488
1571283677.643,34.668,66.406,10.742,9.766,-7.812
1571283677.647,41.016,194.824,118.164,14.648,63.477
1571283677.651,44.922,279.785,209.961,25.879,93.262
1571283677.655,23.438,62.988,55.664,10.254,20.020
1571283677.659,16.602,-236.328,-176.758,5.859,-35.156
1571283677.663,37.598,-250.488,-186.523,23.438,12.695
1571283677.667,36.621,-407.715,-280.762,22.949,73.242
1571283677.671,15.625,-392.090,-260.254,3.906,14.648
1571283677.675,7.324,-93.262,-63.477,-4.883,-43.457
1571283677.679,19.531,-42.480,-46.387,2.930,-0.977
1571283677.682,31.250,203.613,155.762,20.020,99.609
1571283677.686,20.996,447.754,342.773,20.508,69.824
1571283677.690,11.230,316.895,239.746,15.625,-4.395
1571283677.694,23.926,97.168,77.148,18.555,2.930
1571283677.698,42.480,169.434,145.020,36.133,69.824
1571283677.702,33.203,372.559,306.641,31.738,72.754
1571283677.706,23.438,250.977,208.984,24.414,-10.742
1571283677.710,32.715,-347.656,-247.070,26.367,-60.547
1571283677.714,40.527,-606.445,-405.762,28.320,28.320
1571283677.718,38.086,-74.707,26.367,31.250,104.492
1571283677.721,29.785,201.172,205.078,28.809,34.180
1571283677.725,31.250,-147.949,-83.984,32.715,-39.551
1571283677.729,39.062,-135.254,-59.082,32.715,29.297
1571283677.733,47.852,398.438,349.121,40.039,105.957
1571283677.737,40.039,331.055,276.855,36.133,21.484
1571283677.741,31.738,-38.574,-0.977,22.949,-38.574
1571283677.745,41.016,-98.145,-45.410,19.043,-13.184
1571283677.749,50.293,206.543,186.035,25.391,64.453
1571283677.753,39.551,256.836,226.562,25.879,55.664
1571283677.757,26.855,-138.184,-71.289,16.602,-7.812
1571283677.761,34.668,-425.293,-287.598,19.531,-11.719
1571283677.764,45.410,-158.691,-78.125,32.227,65.918
1571283677.768,45.410,81.055,93.750,39.551,76.172
1571283677.772,36.133,-526.855,-376.465,29.785,-28.809
1571283677.776,27.344,-666.016,-478.027,16.113,-71.777
1571283677.780,33.691,-45.898,-20.996,29.785,15.625
1571283677.784,37.598,187.500,143.555,36.621,78.125
1571283677.788,26.367,36.621,20.996,23.926,9.277
1571283677.792,18.066,48.828,22.461,14.648,-20.020
1571283677.796,38.574,266.113,179.688,34.668,50.781
1571283677.800,47.852,361.816,250.977,50.293,88.379
1571283677.804,23.926,49.805,18.066,30.273,21.484
1571283677.807,10.254,-234.375,-184.082,17.578,-18.066
1571283677.811,23.926,-110.840,-100.098,21.484,-12.695
1571283677.815,38.086,-9.277,-22.949,37.109,63.477
1571283677.819,23.926,-10.254,-15.137,32.227,67.383
1571283677.823,14.648,145.020,82.031,27.344,-21.484
1571283677.827,34.180,-52.734,-90.332,41.016,-48.340
1571283677.831,49.805,-179.199,-172.363,53.223,9.277
1571283677.835,40.527,101.562,52.734,45.410,36.621
1571283677.839,15.137,323.242,204.102,18.555,3.906
1571283677.843,21.973,186.523,77.637,16.602,-30.762
1571283677.846,76.172,145.508,51.758,67.383,5.859
1571283677.850,72.266,322.754,208.008,68.359,87.891
1571283677.854,5.859,207.520,110.352,1.465,37.598
1571283677.858,8.789,66.406,-14.160,3.906,-20.020
1571283677.862,31.738,-228.027,-238.281,15.625,10.742
1571283677.866,7.324,48.828,-22.461,-9.766,66.406
1571283677.870,-18.555,548.828,315.430,-21.484,20.020
1571283677.874,-22.949,363.770,136.719,-29.297,-27.344
1571283677.878,-6.348,306.641,77.148,-32.227,-6.348
1571283677.882,-29.297,645.996,324.707,-55.176,71.289
1571283677.886,-61.035,762.695,407.715,-76.660,77.637
1571283677.889,-60.059,607.910,288.086,-73.730,13.672
1571283677.893,-63.965,580.078,260.742,-83.984,12.695
1571283677.897,-54.688,677.734,332.520,-72.754,77.148
1571283677.901,-43.945,920.410,528.320,-52.734,129.395
1571283677.905,-37.598,621.094,294.434,-48.340,35.645
1571283677.909,-33.203,-10.742,-186.523,-52.734,-62.012
1571283677.913,-13.672,459.473,187.988,-29.785,20.996
1571283677.917,-2.441,-998.535,614.258,-6.348,98.633
1571283677.921,-12.207,817.383,462.402,-6.348,27.832
1571283677.925,-7.324,639.648,325.195,-8.301,-8.301
1571283677.929,21.973,750.488,415.039,6.348,14.648
1571283677.932,33.691,887.695,532.715,22.461,69.824
1571283677.936,23.438,779.785,476.074,23.438,55.176
1571283677.940,20.508,465.820,256.348,23.438,-6.836
1571283677.944,26.855,285.645,129.395,21.973,6.348
1571283677.948,37.109,261.719,115.723,32.227,42.480
1571283677.952,22.949,-26.367,-69.336,24.414,41.016
1571283677.956,4.395,-64.941,-72.266,4.883,-9.277
1571283677.960,20.020,199.219,100.098,13.184,-59.082
1571283677.964,48.340,255.859,137.695,37.598,0.488
1571283677.968,53.711,388.672,268.066,44.922,62.012
1571283677.971,34.668,481.445,348.633,32.715,8.789
1571283677.975,36.133,352.051,245.117,24.902,-36.133
1571283677.979,51.270,246.582,176.270,35.156,12.695
1571283677.983,61.523,333.496,267.578,49.805,56.641
1571283677.987,44.922,414.551,344.238,36.133,27.832
1571283677.991,25.391,105.469,112.793,19.531,-22.949
1571283677.995,43.457,-480.957,-329.102,24.902,-41.992
1571283677.999,55.176,-418.457,-238.281,32.715,67.383
1571283678.003,39.062,292.480,312.500,36.133,124.023
1571283678.007,24.414,454.590,395.020,27.832,53.711
1571283678.011,28.809,214.355,199.707,23.438,25.879
1571283678.014,32.227,335.449,306.152,28.320,94.238
1571283678.018,32.715,500.977,431.641,38.086,97.168
1571283678.022,24.902,229.004,216.797,34.668,-8.789
1571283678.026,18.066,42.969,93.750,24.414,6.348
1571283678.030,30.273,276.367,280.762,32.227,99.121
1571283678.034,31.738,501.953,448.730,33.691,102.539
1571283678.038,34.180,237.793,262.695,40.039,52.734
1571283678.042,36.621,-472.168,-249.023,37.598,18.066
1571283678.046,27.344,-410.156,-182.617,18.066,58.105
1571283678.050,33.203,331.055,365.234,30.273,118.164
1571283678.054,37.109,215.332,268.066,38.086,69.824
1571283678.057,37.109,-139.648,11.230,25.391,-0.977
1571283678.061,47.363,17.090,129.395,27.832,11.230
1571283678.065,49.316,331.543,369.629,37.598,88.379
1571283678.069,43.457,253.906,312.012,36.133,60.547
1571283678.073,36.621,-20.996,119.141,28.809,-2.441
1571283678.077,40.039,-17.090,126.465,29.785,-1.465
1571283678.081,57.129,268.555,338.379,40.527,73.242
1571283678.085,62.988,44.434,178.223,50.293,95.215
1571283678.089,47.363,-542.480,-241.211,41.016,5.859
1571283678.093,41.504,-440.918,-166.016,31.738,-47.363
1571283678.096,60.059,-100.586,71.777,49.316,11.230
1571283678.100,66.406,-20.508,139.648,59.570,74.219
1571283678.104,51.758,-130.859,61.035,45.410,22.949
1571283678.108,41.992,-152.832,39.551,32.227,0.488
1571283678.112,48.828,-156.738,26.367,38.574,23.438
1571283678.116,51.758,56.641,195.801,42.969,78.125
1571283678.120,32.227,201.660,308.594,28.809,71.289
1571283678.124,20.508,121.094,233.398,23.926,10.254
1571283678.128,25.391,-11.719,120.117,24.414,8.789
1571283678.132,37.109,-23.926,119.141,35.156,79.102
1571283678.136,40.527,-162.598,17.578,39.062,50.293
1571283678.139,29.785,-267.090,-58.105,34.668,-12.207
1571283678.143,29.297,-264.648,-74.219,31.250,-12.207
1571283678.147,36.133,-597.656,-337.891,26.855,12.207
1571283678.151,28.809,-339.355,-123.535,35.156,62.500
1571283678.155,24.902,126.953,204.590,40.039,43.945
1571283678.159,27.344,-107.422,-16.602,20.508,-16.113
1571283678.163,41.504,-229.492,-118.652,29.785,-2.930
1571283678.167,49.316,-2.930,71.777,46.387,57.129
1571283678.171,32.715,156.738,200.195,36.621,50.293
1571283678.175,27.344,16.113,80.566,29.297,3.418
1571283678.179,43.457,-172.852,-61.035,35.156,27.832
1571283678.182,52.734,-103.516,4.883,47.852,78.125
1571283678.186,37.598,34.180,111.328,41.504,41.504
1571283678.190,33.203,-392.578,-222.168,32.715,-53.223
1571283678.194,43.945,-769.043,-488.770,32.227,-41.992
1571283678.198,49.805,9.277,120.117,42.480,97.168
1571283678.202,41.016,538.086,486.816,41.016,125.000
1571283678.206,34.668,199.219,202.637,37.598,11.230
1571283678.210,32.227,-53.711,5.859,33.691,-39.062
1571283678.214,36.133,230.469,228.516,35.156,47.852
1571283678.218,41.016,486.816,433.594,44.434,103.516
1571283678.221,36.133,82.520,122.070,45.410,-5.371
1571283678.225,34.668,-402.344,-229.980,40.527,-58.105
1571283678.229,37.598,-238.770,-87.402,41.016,30.762
1571283678.233,31.738,176.270,219.727,38.086,93.262
1571283678.237,24.902,-271.484,-129.883,25.879,3.418
1571283678.241,20.020,-592.285,-362.793,14.160,-83.496
1571283678.245,30.273,2.441,88.379,23.438,8.789
1571283678.249,44.922,295.898,289.551,46.387,89.844
1571283678.253,34.180,173.828,183.105,37.598,28.809
1571283678.257,21.484,134.766,150.879,21.484,-17.090
1571283678.261,36.133,146.973,145.508,29.297,-7.324
1571283678.264,46.387,225.098,206.055,39.551,60.059
1571283678.268,33.203,275.879,251.953,38.086,62.012
1571283678.272,29.785,51.270,87.891,33.691,21.973
1571283678.276,38.086,-225.586,-122.559,27.832,2.441
1571283678.280,50.293,-370.605,-228.516,34.668,42.480
1571283678.284,52.246,-375.000,-211.426,39.551,74.219
1571283678.288,31.738,-14.160,54.199,29.297,30.762
1571283678.292,30.762,130.859,132.324,24.902,6.348
1571283678.296,52.246,27.344,41.992,37.109,25.391
1571283678.300,52.246,153.320,144.043,41.992,60.547
1571283678.304,30.762,282.715,242.188,29.297,28.320
1571283678.307,26.855,118.164,113.281,24.414,-10.742
1571283678.311,34.180,-83.008,-44.922,24.902,0.488
1571283678.315,37.598,163.086,151.855,38.086,78.613
1571283678.319,30.273,206.543,189.941,41.992,81.543
1571283678.323,25.879,-227.051,-140.137,37.109,-12.695
1571283678.327,31.250,-768.066,-541.992,30.762,-48.828
1571283678.331,34.180,-487.793,-310.059,25.391,49.316
1571283678.335,31.738,190.430,190.918,34.180,103.516
1571283678.339,21.973,-54.688,-18.555,33.203,31.738
1571283678.343,21.973,-271.484,-185.547,30.273,-3.418
1571283678.346,36.133,139.160,121.582,32.715,67.871
1571283678.350,41.016,518.555,398.926,36.133,121.094
1571283678.354,28.809,212.402,149.414,30.762,18.555
1571283678.358,20.020,-182.617,-146.973,18.555,-53.711
1571283678.362,26.367,-4.395,-0.977,22.949,25.391
1571283678.366,34.180,187.500,152.344,39.062,95.703
1571283678.370,31.250,-203.613,-132.324,35.645,57.129
1571283678.374,23.926,-686.035,-479.492,23.438,-9.277
1571283678.378,30.273,-342.285,-219.238,23.438,5.371
1571283678.382,46.875,229.004,197.754,40.527,98.633
1571283678.386,38.574,279.297,225.586,40.039,86.426
1571283678.389,29.297,-52.246,-26.855,29.785,-4.395
1571283678.393,41.504,-213.379,-144.531,28.320,-16.113
1571283678.397,65.918,29.297,43.945,47.852,59.082
1571283678.401,63.965,171.875,154.785,56.641,83.496
1571283678.405,29.297,146.973,138.672,39.062,51.270
1571283678.409,25.879,41.504,26.855,29.785,1.953
1571283678.413,51.270,-140.625,-128.906,50.781,29.785
1571283678.417,59.570,-446.777,-335.449,62.500,90.820
1571283678.421,40.527,-498.535,-371.094,51.758,28.809
1571283678.425,44.922,-171.387,-146.484,60.547,-7.812
1571283678.429,64.453,-187.988,-184.570,68.848,9.277
1571283678.432,69.824,-82.031,-89.355,81.543,81.055
1571283678.436,60.059,148.926,103.516,84.473,77.148
1571283678.440,49.805,67.871,41.992,73.730,24.902
1571283678.444,70.312,-180.664,-149.902,83.008,16.113
1571283678.448,85.938,-281.738,-204.102,92.773,72.266
1571283678.452,77.637,-165.039,-91.309,87.402,73.730
1571283678.456,65.430,-141.113,-67.871,83.984,4.883
1571283678.460,72.266,-621.094,-429.199,77.637,-17.578
1571283678.464,83.496,-784.668,-524.414,83.984,51.270
1571283678.468,78.125,-289.062,-140.625,92.285,76.172
1571283678.471,84.473,-108.398,-22.949,97.656,25.391
1571283678.475,91.797,-491.699,-324.707,92.285,1.953
1571283678.479,91.309,-687.988,-471.680,83.984,14.160
1571283678.483,89.355,-207.031,-89.844,88.379,62.012
1571283678.487,82.520,-76.172,18.066,87.891,45.898
1571283678.491,77.148,-381.348,-208.496,78.125,-16.602
1571283678.495,80.566,-494.629,-297.363,76.660,-26.855
1571283678.499,83.984,-137.207,-12.695,87.891,67.383
1571283678.503,73.730,-12.207,80.078,86.426,88.867
1571283678.507,65.918,-467.285,-283.203,76.660,-5.859
1571283678.511,68.359,-747.070,-494.141,64.941,-22.949
1571283678.514,70.801,-566.406,-352.539,64.453,48.340
1571283678.518,64.453,-406.738,-231.934,71.289,43.945
1571283678.522,54.199,-802.246,-587.402,65.430,-41.504
1571283678.526,46.387,-832.031,-603.027,51.758,-58.594
1571283678.530,57.617,-226.074,-108.398,63.965,33.203
1571283678.534,64.453,-92.285,-37.109,74.707,49.316
1571283678.538,47.852,-265.625,-166.992,63.965,-3.418
1571283678.542,41.504,-198.242,-121.582,54.199,-8.301
1571283678.546,56.152,-79.590,-58.105,62.012,11.719
1571283678.550,60.059,40.527,41.504,70.312,69.336
1571283678.554,50.293,-176.758,-103.516,66.895,37.598
1571283678.557,45.898,-449.707,-300.781,55.176,-11.719
1571283678.561,52.734,-462.891,-316.406,53.223,4.395
1571283678.565,64.941,-482.910,-325.684,65.918,59.082
1571283678.569,53.223,-566.895,-381.348,56.152,18.066
1571283678.573,34.180,-272.949,-161.133,42.969,-29.297
1571283678.577,47.363,-52.246,-15.625,44.922,-10.742
1571283678.581,64.941,45.898,55.176,54.199,58.594
1571283678.585,57.617,211.426,186.035,53.711,63.965
1571283678.589,40.527,195.312,166.992,43.945,-11.719
1571283678.593,46.387,34.668,41.992,41.504,-26.855
1571283678.596,65.918,0.000,20.020,50.781,22.461
1571283678.600,63.477,24.902,56.641,54.199,65.918
1571283678.604,48.828,-82.520,-16.113,43.457,15.137
1571283678.608,43.457,-182.617,-105.957,35.156,-43.457
1571283678.612,57.617,-514.648,-359.863,38.574,-7.324
1571283678.616,55.664,-252.441,-134.277,40.039,93.750
1571283678.620,37.109,140.137,145.508,29.297,64.941
1571283678.624,30.273,-99.609,-65.918,20.996,-19.531
1571283678.628,39.062,-192.383,-145.508,23.926,-11.719
1571283678.632,50.781,198.242,151.367,37.109,72.266
1571283678.636,35.156,448.730,335.449,31.250,81.055
1571283678.639,21.484,125.977,80.078,29.785,-14.160
1571283678.643,40.527,-129.883,-115.234,43.945,-42.969
1571283678.647,44.434,-90.332,-79.102,46.387,35.645
1571283678.651,0.000,111.816,81.543,9.766,81.055
1571283678.655,-25.391,-147.461,-127.930,-23.438,0.000
1571283678.659,-29.785,-672.363,-528.320,-38.574,-55.176
1571283678.663,-43.945,-156.738,-137.207,-55.664,33.691
1571283678.667,-44.434,492.188,329.590,-49.316,120.117
1571283678.671,-51.270,468.750,292.969,-53.711,87.891
1571283678.675,-62.988,106.445,0.977,-72.266,3.418
1571283678.679,-64.453,138.184,10.254,-75.684,1.465
1571283678.682,-59.082,478.516,269.531,-67.383,77.148
1571283678.686,-53.223,434.570,233.887,-61.035,42.480
1571283678.690,-56.641,330.566,155.273,-69.824,-0.488
1571283678.694,-41.504,207.031,44.922,-61.523,2.441
1571283678.698,-7.324,135.742,-12.207,-25.391,43.457
1571283678.702,-11.230,-99.121,-168.945,-27.344,39.062
1571283678.706,-23.926,-101.562,-155.273,-31.738,7.812
1571283678.710,-12.695,317.871,128.418,-25.391,5.859
1571283678.714,1.953,445.312,200.195,-22.949,61.523
1571283678.718,1.953,565.430,303.711,-18.066,106.445
1571283678.721,-9.766,600.098,326.172,-20.020,38.574
1571283678.725,-7.812,513.184,257.812,-17.578,10.254
1571283678.729,4.395,432.617,202.148,-12.207,59.082
1571283678.733,7.812,461.914,247.559,5.859,103.027
1571283678.737,-3.418,511.719,298.340,6.836,49.805
1571283678.741,2.930,199.707,60.547,8.301,-13.672
1571283678.745,20.996,-275.391,-283.203,18.555,-1.953
1571283678.749,20.020,-360.352,-313.965,16.602,45.410
1571283678.753,6.836,174.316,105.469,11.719,72.754
1571283678.757,12.207,422.363,269.531,20.996,34.668
1571283678.761,19.043,177.734,68.359,13.672,-0.977
1571283678.764,21.973,168.945,77.637,9.277,50.781
1571283678.768,24.414,491.699,341.309,16.602,83.984
1571283678.772,18.066,455.078,310.547,12.695,27.832
1571283678.776,19.531,72.754,10.742,8.789,-34.180
1571283678.780,36.133,129.395,67.871,20.020,22.949
1571283678.784,40.039,475.586,350.098,27.344,89.355
1571283678.788,39.551,270.996,202.637,35.156,35.156
1571283678.792,46.387,-599.121,-445.801,41.504,-58.594
1571283678.796,43.945,-581.055,-402.344,36.133,-7.812
1571283678.800,42.480,238.281,219.238,41.016,83.008
1571283678.804,41.992,276.855,231.934,46.387,52.734
1571283678.807,39.551,-73.730,-37.598,47.363,-30.273
1571283678.811,31.738,-4.395,12.695,40.039,-26.367
1571283678.815,34.180,388.184,315.430,42.969,80.078
1571283678.819,23.438,406.738,329.102,39.551,81.055
1571283678.823,12.695,145.020,134.766,22.461,13.672
1571283678.827,24.414,67.383,74.707,15.625,-12.695
1571283678.831,40.527,286.621,247.559,30.762,56.152
1571283678.835,46.387,55.176,84.961,43.945,65.918
1571283678.839,30.273,-406.250,-240.234,30.762,-5.859
1571283678.843,31.738,-252.930,-116.211,25.879,0.977
1571283678.846,44.922,8.789,63.965,34.668,67.383
1571283678.850,37.598,143.066,164.062,25.391,100.098
1571283678.854,30.762,23.438,67.871,21.973,19.531
1571283678.858,28.809,-22.461,16.113,18.555,-54.688
1571283678.862,40.527,48.340,62.012,18.066,-8.301
1571283678.866,50.781,179.688,177.246,36.133,62.012
1571283678.870,31.738,201.172,205.566,29.297,39.062
1571283678.874,20.020,193.359,192.871,15.137,10.742
1571283678.878,41.504,92.773,100.098,29.785,-0.977
1571283678.882,56.152,49.316,86.426,46.387,74.707
1571283678.886,42.480,-15.625,54.688,36.133,77.637
1571283678.889,27.832,-53.223,20.020,24.414,-4.395
1571283678.893,34.668,-23.926,28.809,25.879,6.836
1571283678.897,62.012,-312.988,-181.641,41.992,58.105
1571283678.901,58.594,-325.684,-160.156,54.688,50.293
1571283678.905,35.156,11.719,90.820,42.480,8.301
1571283678.909,44.434,-125.488,-47.363,31.250,-36.133
1571283678.913,59.570,-129.395,-52.246,39.551,11.230
1571283678.917,56.152,316.406,292.969,48.828,81.543
1571283678.921,48.828,373.047,320.801,49.805,26.855
1571283678.925,36.621,62.500,77.637,31.250,-26.855
1571283678.929,46.387,-126.465,-60.547,33.691,8.789
1571283678.932,60.059,-46.387,16.113,49.316,60.059
1571283678.936,41.504,119.141,155.273,35.156,37.598
1571283678.940,37.598,-212.402,-101.074,31.250,-34.668
1571283678.944,55.664,-601.562,-381.836,40.039,-43.945
1571283678.948,58.594,58.105,134.277,42.969,54.199
1571283678.952,42.480,561.035,493.652,39.062,72.754
1571283678.956,20.020,198.730,204.102,21.484,-15.137
1571283678.960,9.277,-4.883,53.711,7.324,-33.691
1571283678.964,21.484,420.410,372.559,17.578,53.711
1571283678.968,20.996,611.816,508.301,22.461,78.125
1571283678.971,5.859,359.375,323.730,14.648,16.602
1571283678.975,11.230,-11.230,54.199,12.695,-30.273
1571283678.979,32.227,-64.453,33.691,23.926,20.020
1571283678.983,38.574,120.605,186.523,32.715,70.312
1571283678.987,19.043,-238.281,-79.102,23.926,17.090
1571283678.991,0.488,-283.691,-104.492,13.184,-8.301
1571283678.995,18.555,246.094,263.672,22.461,21.484
1571283678.999,39.062,466.797,408.691,37.109,73.730
1571283679.003,22.949,449.707,394.043,21.973,61.035
1571283679.007,12.207,486.816,416.504,13.672,25.391
1571283679.011,29.297,408.691,331.055,20.996,0.000
1571283679.014,47.852,324.707,276.367,30.762,61.035
1571283679.018,44.922,420.898,371.094,37.109,80.566
1571283679.022,35.645,158.691,171.875,34.668,0.977
1571283679.026,37.109,-61.523,12.695,28.809,-19.531
1571283679.030,56.641,-113.281,-25.391,40.039,26.855
1571283679.034,59.082,-237.305,-99.121,49.805,56.641
1571283679.038,36.133,58.105,126.465,37.598,17.578
1571283679.042,25.879,209.473,207.520,30.273,-7.812
1571283679.046,41.504,182.129,179.688,43.457,37.109
1571283679.050,51.758,379.395,341.309,55.664,84.473
1571283679.054,32.715,494.629,431.152,41.504,45.898
1571283679.057,23.926,330.566,311.523,29.785,23.438
1571283679.061,38.574,156.738,178.223,39.062,31.250
1571283679.065,47.363,328.125,314.941,54.688,81.055
1571283679.069,39.551,220.703,234.375,57.617,42.969
1571283679.073,27.344,-292.480,-144.043,42.480,-31.250
1571283679.077,34.668,-829.590,-565.918,33.203,-59.570
1571283679.081,51.270,-574.219,-355.469,45.410,23.438
1571283679.085,38.086,158.691,197.266,43.457,81.543
1571283679.089,20.508,28.809,52.246,27.344,4.883
1571283679.093,24.902,-203.613,-131.836,25.391,-15.625
1571283679.096,39.062,111.816,103.027,35.645,54.688
1571283679.100,40.039,405.762,319.336,40.527,93.750
1571283679.104,29.297,224.609,186.035,29.785,45.898
1571283679.108,30.273,-89.844,-51.758,29.297,-21.973
1571283679.112,41.992,-10.742,9.766,35.645,9.277
1571283679.116,56.641,233.887,214.355,49.805,112.305
1571283679.120,49.805,-114.258,-47.363,45.410,62.500
1571283679.124,38.574,-639.648,-438.965,27.344,-19.531
1571283679.128,41.992,-449.707,-295.898,31.738,4.883
1571283679.132,42.480,122.070,122.070,38.574,96.680
1571283679.136,27.832,314.453,256.348,33.203,98.633
1571283679.139,14.160,99.609,83.008,28.809,10.254
1571283679.143,14.160,83.008,63.965,26.855,-12.207
1571283679.147,24.414,286.621,225.098,37.109,66.895
1571283679.151,18.555,352.051,287.109,37.109,91.309
1571283679.155,9.277,198.242,176.270,27.832,17.090
1571283679.159,20.020,112.793,114.258,33.691,-9.766
1571283679.163,41.504,71.289,95.215,46.875,53.223
1571283679.167,44.434,-293.457,-153.320,49.316,73.242
1571283679.171,26.367,-440.430,-243.164,36.621,0.000
1571283679.175,24.902,-58.594,37.109,35.156,-6.348
1571283679.179,35.156,23.926,61.035,37.598,19.531
1571283679.182,36.133,28.809,59.082,40.527,67.871
1571283679.186,25.879,74.707,108.887,35.156,70.801
1571283679.190,16.113,0.488,35.156,21.484,-18.066
1571283679.194,29.297,-158.203,-104.492,27.344,-55.176
1571283679.198,42.480,-33.203,10.254,43.945,30.273
1571283679.202,34.180,274.414,256.836,38.574,63.477
1571283679.206,24.414,262.695,236.816,29.785,2.930
1571283679.210,33.691,-211.426,-123.047,27.832,-5.371
1571283679.214,40.039,-354.004,-204.590,27.344,73.242
1571283679.218,25.391,137.207,170.410,22.461,88.867
1571283679.221,13.672,261.719,243.652,11.719,35.156
1571283679.225,20.020,-151.855,-83.496,6.836,-15.625
1571283679.229,34.180,-245.605,-146.484,15.137,20.508
1571283679.233,37.598,227.539,219.727,28.809,87.891
1571283679.237,29.785,261.230,233.887,30.273,49.316
1571283679.241,25.879,-96.680,-37.109,22.949,5.371
1571283679.245,32.715,-144.043,-70.801,24.414,24.414
1571283679.249,34.180,285.156,253.906,30.273,109.863
1571283679.253,18.555,261.230,215.820,28.320,61.523
1571283679.257,8.789,-236.816,-163.574,18.555,-10.254
1571283679.261,20.020,-539.062,-387.207,17.090,-0.977
1571283679.264,25.879,-335.449,-227.539,23.926,48.828
1571283679.268,21.484,13.672,37.598,24.414,86.426
1571283679.272,20.996,-554.688,-408.691,16.602,-1.953
1571283679.276,18.555,-742.188,-545.898,4.883,-28.320
1571283679.280,30.762,-75.684,-49.805,22.949,57.617
1571283679.284,33.203,170.898,125.488,31.738,109.863
1571283679.288,20.508,-10.742,-12.207,21.484,43.457
1571283679.292,17.090,-85.449,-67.383,15.137,-26.367
1571283679.296,30.273,-11.719,-6.348,21.973,32.715
1571283679.300,37.109,-64.941,-36.133,33.203,65.918
1571283679.304,22.949,-240.723,-148.926,28.320,12.207
1571283679.307,21.484,-490.234,-329.590,21.973,-40.039
1571283679.311,30.762,-333.496,-206.543,18.555,-2.441
1571283679.315,38.574,-133.301,-47.363,30.273,78.613
1571283679.319,39.062,-344.238,-193.359,34.180,41.992
1571283679.323,28.809,-172.363,-64.453,24.902,-26.855
1571283679.327,31.250,11.719,49.316,26.367,-27.832
1571283679.331,39.062,144.043,156.250,34.180,62.012
1571283679.335,40.039,367.676,336.426,40.039,93.750
1571283679.339,41.016,325.195,292.969,49.805,1.953
1571283679.343,30.273,60.547,86.426,35.645,-37.109
1571283679.346,26.855,39.062,76.172,31.250,34.668
1571283679.350,31.738,80.566,110.840,43.457,82.520
1571283679.354,28.320,-83.496,-22.949,47.363,54.688
1571283679.358,25.879,-410.645,-300.293,45.898,-30.762
1571283679.362,35.645,-783.691,-590.820,48.828,-29.785
1571283679.366,43.457,-425.781,-301.270,63.477,63.965
1571283679.370,43.457,99.609,76.172,67.871,36.133
1571283679.374,51.758,-84.473,-85.449,72.754,-22.461
1571283679.378,68.359,-204.102,-169.922,85.449,1.465
1571283679.382,76.172,146.484,105.957,93.750,64.453
1571283679.386,73.730,273.438,200.195,98.145,48.340
1571283679.389,71.289,-72.754,-60.547,94.727,-20.508
1571283679.393,78.613,-336.426,-269.531,84.961,-52.734
1571283679.397,104.980,-345.703,-274.902,106.934,10.742
1571283679.401,110.352,-181.641,-123.535,116.211,70.312
1571283679.405,90.332,-348.145,-250.977,90.820,26.367
1571283679.409,89.355,-952.148,-708.984,79.590,-39.551
1571283679.413,106.445,-656.250,-447.754,98.633,25.879
1571283679.417,104.004,49.805,72.266,104.980,102.051
1571283679.421,80.566,-24.414,-15.625,82.031,30.762
1571283679.425,69.336,-196.289,-150.879,73.242,13.184
1571283679.429,77.148,126.953,77.637,78.125,95.703
1571283679.432,84.473,415.527,273.926,84.473,143.555
1571283679.436,69.824,155.762,65.918,74.707,56.152
1571283679.440,50.781,-98.145,-114.258,60.059,-3.418
1571283679.444,53.223,-248.047,-225.586,62.012,25.879
1571283679.448,68.359,-256.348,-217.773,76.660,92.773
1571283679.452,64.941,-509.766,-393.066,74.219,74.219
1571283679.456,44.434,-605.469,-458.984,52.734,24.414
1571283679.460,41.992,-176.758,-164.551,46.875,20.508
1571283679.464,62.500,-39.551,-85.938,62.012,71.777
1571283679.468,62.012,49.316,7.812,63.477,130.859
1571283679.471,39.551,97.656,44.922,49.805,46.387
1571283679.475,38.574,24.414,-22.461,48.340,-17.090
1571283679.479,51.758,48.340,9.766,57.617,60.059
1571283679.483,58.105,217.773,156.738,62.988,110.840
1571283679.487,52.246,281.250,210.449,60.547,45.410
1571283679.491,47.852,-59.082,-35.645,51.270,-13.184
1571283679.495,55.664,-431.641,-288.086,45.410,14.160
1571283679.499,62.500,-214.844,-97.168,52.246,72.754
1571283679.503,53.711,194.824,216.797,53.223,59.570
1571283679.507,47.363,205.078,212.402,47.852,-4.395
1571283679.511,53.223,-195.312,-88.867,43.457,-17.578
1571283679.514,59.082,-169.922,-36.133,46.387,65.918
1571283679.518,49.805,385.742,399.414,47.852,101.074
1571283679.522,44.922,185.059,231.445,44.434,13.184
1571283679.526,42.480,-278.809,-118.164,40.039,-46.875
1571283679.530,48.340,-15.137,105.957,47.363,42.480
1571283679.534,53.711,361.816,393.555,58.594,89.355
1571283679.538,44.922,114.746,206.543,52.246,29.297
1571283679.542,45.898,-679.688,-395.996,39.551,-47.852
1571283679.546,50.781,-740.234,-418.457,39.062,-34.668
1571283679.550,52.734,0.488,153.809,50.293,53.223
1571283679.554,42.969,79.590,191.406,49.805,30.762
1571283679.557,32.715,-270.508,-84.473,35.645,-42.969
1571283679.561,33.203,-104.004,38.574,32.715,3.418
1571283679.565,35.156,244.629,286.133,45.898,71.289
1571283679.569,40.527,145.508,199.219,60.059,48.828
1571283679.573,37.109,-115.723,2.441,47.852,-2.441
1571283679.577,23.926,-280.762,-143.066,23.438,-29.785
1571283679.581,32.715,-138.672,-30.273,33.203,60.547
1571283679.585,44.922,-229.004,-79.102,41.992,82.031
1571283679.589,32.227,-876.465,-576.660,22.949,-24.414
1571283679.593,25.879,-825.684,-528.320,8.789,-59.082
1571283679.596,41.504,-296.875,-125.977,20.996,30.762
1571283679.600,42.969,-136.230,-26.367,32.715,66.895
1571283679.604,25.879,-358.398,-217.285,20.508,-28.809
1571283679.608,27.832,-489.258,-339.355,11.230,-56.641
1571283679.612,42.969,-289.062,-210.449,22.949,28.809
1571283679.616,41.016,-39.062,-31.738,24.414,99.609
1571283679.620,27.344,-32.715,-37.598,17.090,51.270
1571283679.624,26.855,-132.324,-128.906,18.066,-8.789
1571283679.628,42.480,-226.074,-210.449,20.020,-2.930
1571283679.632,49.805,-281.250,-237.793,24.902,51.270
1571283679.636,40.527,-395.508,-301.270,28.320,30.762
1571283679.639,26.855,-526.855,-388.672,21.973,-21.484
1571283679.643,33.691,-576.172,-430.664,21.484,-20.508
1571283679.647,47.852,-733.398,-544.434,34.668,10.742
1571283679.651,33.203,-436.523,-300.293,30.273,38.086
1571283679.655,15.137,80.078,75.684,20.996,17.578
1571283679.659,20.996,-62.500,-70.312,23.438,-32.715
1571283679.663,35.156,-60.547,-73.730,32.227,12.695
1571283679.667,32.227,356.445,256.348,37.109,79.590
1571283679.671,17.578,440.918,315.918,26.367,46.387
1571283679.675,11.230,160.156,98.145,15.625,-1.953
1571283679.679,21.484,-147.949,-130.859,16.113,-12.695
1571283679.682,27.344,-90.332,-62.500,24.902,47.363
1571283679.686,16.113,84.961,83.496,25.391,41.504
1571283679.690,11.230,-115.234,-79.102,17.090,-24.414
1571283679.694,24.414,-297.363,-219.727,17.578,-26.855
1571283679.698,37.109,163.574,137.207,21.484,56.641
1571283679.702,31.738,582.520,449.707,25.391,76.172
1571283679.706,23.926,34.668,32.227,23.926,-7.324
1571283679.710,27.832,-373.047,-254.883,16.602,-20.996
1571283679.714,38.574,166.016,152.832,34.668,41.016
1571283679.718,39.062,487.793,384.277,42.969,83.008
1571283679.721,29.297,308.105,244.629,34.668,23.926
1571283679.725,32.227,-9.766,5.859,37.109,-17.090
1571283679.729,40.527,1.953,23.926,42.969,57.617
1571283679.733,51.270,285.645,237.793,59.570,90.820
1571283679.737,39.551,-126.953,-74.219,50.293,10.742
1571283679.741,6.348,-403.809,-277.344,12.695,-40.039
1571283679.745,16.602,124.512,98.145,12.207,14.648
1571283679.749,36.133,249.512,166.992,24.902,63.965
1571283679.753,27.344,158.203,100.586,18.555,34.180
1571283679.757,16.113,210.449,136.230,6.836,-18.555
1571283679.761,22.461,237.305,135.254,3.906,-12.207
1571283679.764,43.457,312.012,185.059,24.414,57.617
1571283679.768,46.387,374.512,240.723,38.086,64.941
1571283679.772,38.086,71.289,1.465,33.691,-12.207
1571283679.776,26.367,-167.969,-193.359,16.113,-44.922
1571283679.780,34.180,-148.438,-181.641,18.555,18.066
1571283679.784,35.156,-214.355,-217.773,23.438,62.012
1571283679.788,-6.348,125.000,40.039,-6.836,41.504
1571283679.792,-23.926,339.844,162.598,-30.273,13.184
1571283679.796,-14.160,307.617,111.816,-29.785,34.180
1571283679.800,-18.555,567.871,320.801,-30.762,106.934
1571283679.804,-47.852,733.887,432.617,-54.199,74.707
1571283679.807,-59.570,306.152,80.078,-62.500,-5.371
1571283679.811,-52.734,90.332,-89.355,-60.059,8.301
1571283679.815,-46.387,532.715,257.324,-55.664,98.145
1571283679.819,-37.109,585.938,298.340,-45.410,88.379
1571283679.823,-40.527,222.168,29.297,-46.387,17.090
1571283679.827,-51.758,-226.562,-298.828,-72.754,-15.625
1571283679.831,-45.898,-73.242,-166.504,-73.242,22.949
1571283679.835,-38.086,672.363,412.598,-51.758,78.125
1571283679.839,-23.926,708.008,438.965,-32.227,52.734
1571283679.843,-4.883,509.766,275.391,-19.043,17.578
1571283679.846,11.230,799.316,524.414,-3.906,79.590
1571283679.850,18.555,-957.031,744.629,14.648,109.375
1571283679.854,6.348,859.863,572.754,10.254,43.457
1571283679.858,0.977,595.703,374.512,-1.465,7.324
1571283679.862,16.602,516.113,340.820,6.836,41.504
1571283679.866,26.367,562.500,401.367,30.762,93.262
1571283679.870,15.625,219.727,165.527,22.949,43.945
1571283679.874,14.648,-366.699,-255.371,4.395,-49.316
1571283679.878,22.949,-77.148,-23.438,9.277,-23.438
1571283679.882,33.203,551.758,454.590,29.297,88.867
1571283679.886,28.320,608.887,495.117,32.715,83.496
1571283679.889,17.578,341.309,293.457,23.926,-2.930
1571283679.893,26.855,246.094,218.750,26.855,-33.203
1571283679.897,43.457,399.902,343.262,37.109,51.270
1571283679.901,48.340,434.570,383.301,43.945,81.543
1571283679.905,42.969,191.406,198.242,44.434,-11.719
1571283679.909,39.062,15.625,63.477,33.203,-56.152
1571283679.913,54.688,-15.137,51.758,37.598,30.762
1571283679.917,71.289,-414.551,-234.863,48.828,48.828
1571283679.921,47.363,-634.766,-386.230,35.645,-11.230
1571283679.925,27.832,-278.809,-137.695,23.926,-38.086
1571283679.929,40.527,-194.336,-116.699,26.855,-29.785
1571283679.932,46.875,34.668,66.406,35.645,77.637
1571283679.936,38.086,353.027,311.523,36.621,93.750
1571283679.940,33.691,283.203,231.934,31.250,25.879
1571283679.944,44.434,-21.484,-17.578,33.691,-3.418
1571283679.948,47.363,18.555,29.297,39.551,61.035
1571283679.952,35.645,277.344,233.887,34.180,96.191
1571283679.956,26.367,122.559,101.562,29.297,8.789
1571283679.960,28.320,-487.793,-369.629,23.438,-37.109
1571283679.964,40.039,-668.945,-479.492,31.250,39.062
1571283679.968,31.738,-45.898,7.324,36.133,89.844
1571283679.971,16.602,105.469,87.891,25.391,15.625
1571283679.975,20.996,-374.512,-299.316,19.531,-55.176
1571283679.979,31.738,-369.141,-276.855,28.320,12.207
1571283679.983,33.691,228.516,188.477,39.551,99.609
1571283679.987,21.484,267.090,198.242,30.273,41.016
1571283679.991,15.137,-73.242,-59.082,19.531,-15.625
1571283679.995,25.391,-60.059,-37.598,25.879,24.902
1571283679.999,32.227,311.523,249.023,36.621,90.332
1571283680.003,26.855,325.195,255.859,39.062,47.852
1571283680.007,26.855,-79.590,-35.156,32.227,-5.371
1571283680.011,37.109,-331.055,-206.055,26.367,20.020
1571283680.014,42.969,2.441,47.852,27.832,75.195
1571283680.018,36.621,240.723,215.332,26.367,48.828
1571283680.022,28.320,-359.375,-225.098,15.625,-19.531
1571283680.026,20.020,-519.043,-325.684,8.301,-42.480
1571283680.030,31.250,-45.898,29.297,28.320,32.227
1571283680.034,46.875,63.965,110.352,45.898,70.801
1571283680.038,38.574,79.102,124.512,33.691,23.438
1571283680.042,28.320,258.789,247.559,14.648,19.531
1571283680.046,37.109,439.453,359.863,23.438,58.594
1571283680.050,47.852,471.191,385.254,38.574,82.520
1571283680.054,41.016,101.074,119.629,37.598,3.906
1571283680.057,33.203,-245.605,-114.258,32.227,-35.156
1571283680.061,36.621,-83.008,24.414,26.855,11.719
1571283680.065,41.992,75.684,148.438,26.855,85.449
1571283680.069,30.762,-178.711,-32.227,24.902,52.734
1571283680.073,13.672,-80.566,37.598,19.043,-27.832
1571283680.077,23.438,90.820,142.090,24.414,-21.484
1571283680.081,35.156,206.543,231.445,35.645,66.406
1571283680.085,29.297,385.254,372.070,33.691,88.379
1571283680.089,18.066,173.828,198.730,21.973,-11.230
1571283680.093,20.508,-124.023,-34.180,21.973,-55.664
1571283680.096,40.039,19.043,81.055,45.898,30.762
1571283680.100,36.133,84.473,133.301,45.898,77.637
1571283680.104,15.137,-31.738,44.922,22.949,39.551
1571283680.108,22.461,-95.703,-27.832,18.066,-19.531
1571283680.112,38.086,-485.352,-331.543,32.715,-19.531
1571283680.116,35.645,-249.512,-122.559,38.574,76.172
1571283680.120,44.434,250.000,234.863,54.199,38.086
1571283680.124,45.898,-43.945,-15.137,48.340,-48.340
1571283680.128,29.785,-126.953,-76.172,21.973,5.371
1571283680.132,34.180,310.059,259.277,26.855,97.168
1571283680.136,35.645,508.789,410.645,30.273,93.262
1571283680.139,26.855,198.242,168.945,25.391,11.719
1571283680.143,41.992,-174.316,-119.141,34.180,-25.391
1571283680.147,58.105,-177.734,-114.258,46.387,52.734
1571283680.151,50.781,61.523,77.148,46.875,109.375
1571283680.155,42.969,-283.691,-200.195,42.480,20.996
1571283680.159,35.156,-779.297,-580.566,22.461,-41.016
1571283680.163,43.457,-207.520,-136.719,28.320,56.152
1571283680.167,46.387,369.141,277.344,43.457,103.027
1571283680.171,25.391,168.945,115.723,29.297,28.320
1571283680.175,18.555,-20.020,-20.020,23.438,-11.230
1571283680.179,26.855,162.109,109.375,33.691,27.832
1571283680.182,42.480,492.188,372.070,52.246,128.906
1571283680.186,35.156,481.445,376.953,48.340,116.211
1571283680.190,23.438,258.301,207.031,36.621,34.180
1571283680.194,41.504,-7.812,7.812,46.875,13.184
1571283680.198,53.223,-10.254,37.109,52.734,87.402
1571283680.202,41.504,-283.203,-144.043,43.945,61.035
1571283680.206,30.762,-476.074,-273.438,37.109,-18.555
1571283680.210,44.434,3.906,76.660,41.016,0.000
1571283680.214,57.617,240.234,229.980,53.223,68.359
1571283680.218,41.016,345.215,313.477,40.039,105.469
1571283680.221,24.414,375.488,335.449,21.484,46.387
1571283680.225,25.879,298.828,263.184,22.461,3.906
1571283680.229,35.645,178.711,166.504,30.762,33.203
1571283680.233,35.156,287.598,271.973,34.668,94.238
1571283680.237,26.367,371.094,344.727,30.762,59.082
1571283680.241,26.855,-38.574,18.555,24.902,-39.551
1571283680.245,38.574,-512.207,-325.195,30.273,-23.438
1571283680.249,41.016,-562.988,-322.266,36.133,59.082
1571283680.253,28.809,-56.641,63.965,30.273,58.594
1571283680.257,23.438,-45.410,26.367,26.855,-28.320
1571283680.261,25.391,-430.176,-280.762,23.926,-66.406
1571283680.264,30.762,-121.582,-26.367,27.344,32.715
1571283680.268,22.461,313.477,294.922,23.926,70.312
1571283680.272,12.695,178.711,167.969,13.672,-9.766
1571283680.276,18.066,-153.320,-90.332,9.277,-46.387
1571283680.280,27.344,24.902,56.641,22.949,40.039
1571283680.284,26.855,311.035,266.602,28.320,65.430
1571283680.288,18.555,-20.996,7.812,15.137,-3.906
1571283680.292,20.996,-742.676,-554.688,8.301,-61.523
1571283680.296,28.809,-677.734,-486.328,12.695,-9.277
1571283680.300,39.551,75.195,92.285,30.762,82.520
1571283680.304,35.645,58.105,43.457,31.250,27.832
1571283680.307,19.531,-278.809,-219.238,13.184,-22.949
1571283680.311,25.391,-151.855,-132.324,16.113,11.719
1571283680.315,40.039,113.770,64.453,32.227,93.262
1571283680.319,32.715,-25.391,-57.617,28.809,35.156
1571283680.323,28.320,-351.562,-308.594,26.367,-62.988
1571283680.327,31.738,-249.512,-217.773,24.902,-6.836
1571283680.331,39.062,114.746,48.340,27.344,71.289
1571283680.335,43.945,-170.410,-170.898,26.855,33.203
1571283680.339,31.738,-688.477,-536.621,15.137,-24.414
1571283680.343,27.344,-471.680,-367.676,12.695,-24.902
1571283680.346,43.457,-113.281,-118.164,24.414,17.090
1571283680.350,45.410,-122.559,-119.629,31.250,45.410
1571283680.354,24.902,-310.547,-245.117,18.066,-2.930
1571283680.358,15.137,-212.402,-176.270,8.789,-31.738
1571283680.362,24.902,-83.984,-94.238,15.137,-0.977
1571283680.366,28.809,101.074,65.430,26.367,70.312
1571283680.370,21.484,-62.500,-51.758,21.973,6.348
1571283680.374,16.602,-375.488,-281.250,11.230,-66.895
1571283680.378,27.344,-267.578,-187.500,21.484,-21.484
1571283680.382,40.527,-29.785,10.742,38.574,81.055
1571283680.386,35.645,-23.926,29.297,34.180,86.426
1571283680.389,23.438,-150.879,-72.266,23.926,2.441
1571283680.393,29.297,-62.012,-7.324,23.926,19.531
1571283680.397,49.805,-229.980,-125.488,35.156,87.891
1571283680.401,48.828,-133.301,-37.109,37.598,85.449
1571283680.405,25.391,217.773,215.820,25.391,41.504
1571283680.409,19.531,-62.500,-31.250,19.043,-21.484
1571283680.413,33.691,-74.707,-43.945,30.273,37.109
1571283680.417,42.480,309.082,241.699,48.340,92.285
1571283680.421,38.574,237.305,163.574,49.805,12.207
1571283680.425,37.598,-74.219,-73.242,40.039,-11.719
1571283680.429,57.129,-267.578,-211.426,56.152,31.738
1571283680.432,72.266,-193.359,-133.301,77.637,84.473
1571283680.436,62.012,-180.176,-95.703,75.195,42.480
1571283680.440,60.059,-610.352,-436.523,75.195,-47.363
1571283680.444,78.125,-845.703,-632.324,83.008,-32.227
1571283680.448,92.285,-164.062,-63.965,98.145,92.285
1571283680.452,95.215,145.508,156.738,108.887,78.613
1571283680.456,83.984,-76.660,-12.695,99.121,29.785
1571283680.460,84.473,-114.746,-34.668,90.332,30.762
1571283680.464,100.098,125.488,140.625,102.051,68.848
1571283680.468,100.586,270.508,267.578,112.793,92.285
1571283680.471,83.496,-16.113,54.199,101.562,15.137
1571283680.475,82.031,-408.691,-247.070,98.145,-15.137
1571283680.479,86.426,-404.297,-242.676,97.656,49.316
1571283680.483,92.285,-106.934,-27.344,97.656,92.285
1571283680.487,84.961,-557.617,-377.930,91.309,15.137
1571283680.491,69.824,-806.152,-559.570,74.219,-49.805
1571283680.495,77.637,-264.648,-158.203,80.078,15.137
1571283680.499,85.938,49.805,70.312,98.145,111.328
1571283680.503,69.824,-14.648,11.719,89.355,75.195
1571283680.507,56.152,-82.031,-52.734,74.219,7.812
1571283680.511,63.477,-111.328,-100.098,80.078,2.441
1571283680.514,73.730,-21.973,-32.715,90.820,89.355
1571283680.518,62.988,98.633,64.941,79.102,109.863
1571283680.522,49.316,-187.988,-164.062,64.941,16.113
1571283680.526,50.293,-555.664,-446.777,62.012,-30.762
1571283680.530,66.406,-595.215,-460.449,66.406,36.133
1571283680.534,64.941,-545.898,-392.578,64.453,94.238
1571283680.538,38.574,-134.277,-72.754,47.852,86.426
1571283680.542,41.016,-109.375,-93.750,44.434,21.973
1571283680.546,59.570,-184.570,-156.738,54.199,40.527
1571283680.550,65.430,149.902,109.375,63.965,97.656
1571283680.554,54.199,327.148,242.676,57.129,61.035
1571283680.557,46.387,192.383,137.695,43.945,12.695
1571283680.561,56.152,-0.488,-10.742,46.387,10.254
1571283680.565,58.105,256.836,209.961,54.199,90.820
1571283680.569,42.969,188.477,159.180,46.875,43.945
1571283680.573,29.785,-317.871,-214.355,34.180,-41.992
1571283680.577,32.227,-497.559,-331.543,30.273,-20.508
1571283680.581,43.945,-119.141,-37.598,41.504,56.152
1571283680.585,37.598,391.602,347.168,41.504,83.496
1571283680.589,29.785,227.539,211.426,34.180,16.602
1571283680.593,35.645,-279.297,-166.504,23.438,-29.297
1571283680.596,45.898,-233.398,-123.047,28.320,11.719
1571283680.600,41.504,113.281,150.879,42.480,68.848
1571283680.604,23.926,70.801,118.652,29.785,21.973
1571283680.608,21.973,-182.129,-83.008,17.090,-46.387
1571283680.612,28.320,-2.441,54.688,20.020,10.742
1571283680.616,36.621,179.199,200.684,35.156,85.938
1571283680.620,35.156,-242.676,-113.281,36.133,24.414
1571283680.624,21.484,-724.121,-466.309,14.648,-38.086
1571283680.628,18.066,-433.105,-255.371,7.812,-8.789
1571283680.632,30.273,124.023,142.578,25.391,70.801
1571283680.636,27.344,145.996,146.973,20.996,61.035
1571283680.639,28.320,-145.020,-83.496,23.926,-32.227
1571283680.643,42.480,-264.160,-191.895,35.156,-74.219
1571283680.647,44.434,-50.293,-26.855,36.133,27.832
1571283680.651,37.109,91.309,87.402,26.855,87.402
1571283680.655,33.203,-203.613,-133.789,18.066,15.137
1571283680.659,31.250,-352.539,-240.234,17.578,-23.926
1571283680.663,44.434,-355.469,-233.887,27.344,20.020
1571283680.667,47.852,-718.262,-502.441,24.414,37.598
1571283680.671,21.484,-820.312,-562.012,2.441,-8.789
1571283680.675,16.113,-424.805,-285.156,0.977,-22.949
1571283680.679,36.133,-302.734,-250.000,18.066,14.648
1571283680.682,39.062,-212.402,-198.730,30.762,62.988
1571283680.686,18.555,-40.527,-78.125,22.461,46.387
1571283680.690,13.672,-58.594,-107.422,14.648,17.578
1571283680.694,28.809,-247.559,-262.207,21.973,21.484
1571283680.698,38.574,-227.539,-231.934,29.297,63.965
1571283680.702,28.320,-15.625,-48.340,23.926,65.430
1571283680.706,17.090,-13.672,-37.598,19.531,15.625
1571283680.710,28.320,-518.555,-424.805,13.672,-40.039
1571283680.714,42.480,-783.203,-591.309,17.090,20.996
1571283680.718,30.273,-298.340,-190.430,20.508,82.520
1571283680.721,12.207,3.418,20.020,15.625,27.832
1571283680.725,13.184,-272.461,-208.984,11.230,-22.461
1571283680.729,29.785,-279.785,-202.148,20.996,19.531
1571283680.733,39.062,262.207,229.004,34.180,84.961
1571283680.737,26.855,378.418,319.336,25.879,48.340
1571283680.741,18.066,80.566,92.773,17.578,-22.461
1571283680.745,25.879,66.895,90.332,16.602,5.859
1571283680.749,31.738,453.125,397.949,24.414,93.262
1571283680.753,25.879,567.383,500.488,26.367,82.031
1571283680.757,23.438,203.125,244.141,23.926,14.648
1571283680.761,26.367,-166.504,-20.996,25.391,-17.090
1571283680.764,29.785,134.277,238.281,34.180,76.660
1571283680.768,26.855,412.109,463.867,35.645,97.656
1571283680.772,19.043,-132.812,64.941,25.391,9.277
1571283680.776,21.484,-277.832,-32.227,20.020,-31.738
1571283680.780,35.156,356.934,448.730,38.086,45.898
1571283680.784,36.133,567.871,607.422,43.457,84.473
1571283680.788,19.531,361.816,456.543,32.715,13.184
1571283680.792,16.113,333.496,442.383,26.855,-16.602
1571283680.796,32.227,478.027,547.363,31.738,37.109
1571283680.800,41.992,599.121,645.508,43.945,102.051
1571283680.804,33.691,259.277,391.602,46.387,31.738
1571283680.807,19.043,-169.922,71.289,31.250,-44.434
1571283680.811,22.949,-64.941,150.879,14.648,-6.836
1571283680.815,43.945,85.449,261.719,29.297,74.219
1571283680.819,41.504,-190.430,55.664,32.715,27.832
1571283680.823,30.273,-127.930,95.703,18.555,-19.531
1571283680.827,42.480,-34.668,130.859,23.438,-2.441
1571283680.831,53.223,163.574,270.020,33.691,75.684
1571283680.835,48.828,377.441,424.805,36.133,85.938
1571283680.839,40.527,388.672,414.551,28.320,28.809
1571283680.843,46.387,206.543,254.395,25.879,-2.930
1571283680.846,59.082,144.043,200.195,40.039,42.480
1571283680.850,58.105,175.293,237.305,44.434,103.027
1571283680.854,45.410,14.648,112.793,37.598,45.898
1571283680.858,39.062,-69.336,28.320,32.227,4.883
1571283680.862,51.270,-304.688,-164.062,40.039,29.785
1571283680.866,59.082,-64.941,26.855,47.852,89.355
1571283680.870,49.316,354.980,330.566,38.086,75.684
1571283680.874,46.875,-31.738,11.719,32.715,-7.324
1571283680.878,61.035,-346.191,-214.355,31.250,12.695
1571283680.882,63.477,6.836,63.965,42.480,89.355
1571283680.886,63.965,339.844,298.340,68.359,69.824
1571283680.889,51.270,246.094,208.496,56.641,12.695
1571283680.893,13.184,72.754,48.828,3.418,-15.137
1571283680.897,-5.371,164.062,123.535,-16.602,67.383
1571283680.901,-18.066,382.812,314.941,-20.508,116.699
1571283680.905,-32.715,135.742,123.535,-42.969,22.949
1571283680.909,-49.805,-315.430,-220.215,-68.848,-20.996
1571283680.913,-45.410,206.543,162.109,-65.918,63.477
1571283680.917,-36.133,862.305,626.953,-52.246,130.371
1571283680.921,-43.457,695.801,469.238,-57.129,47.363
1571283680.925,-50.293,380.371,205.078,-65.430,-32.227
1571283680.929,-60.059,575.684,339.355,-74.219,22.949
1571283680.932,-63.477,943.359,619.629,-72.266,121.094
1571283680.936,-60.547,766.602,467.773,-67.871,73.242
1571283680.940,-64.453,495.605,255.371,-73.242,0.488
1571283680.944,-31.738,459.473,213.379,-51.758,25.391
1571283680.948,-1.465,522.461,256.348,-13.672,83.984
1571283680.952,-20.996,193.359,9.766,-23.926,27.344
1571283680.956,-36.621,-2.441,-135.254,-42.480,-36.621
1571283680.960,-21.973,462.402,199.707,-32.715,-14.160
1571283680.964,11.230,676.270,348.633,-1.465,52.734
1571283680.968,18.555,755.371,430.664,14.648,85.449
1571283680.971,1.465,711.914,403.809,6.836,15.625
1571283680.975,0.488,580.566,298.828,4.883,-20.996
1571283680.979,23.926,512.207,256.836,21.973,28.809
1571283680.983,32.715,607.910,361.328,33.203,86.914
1571283680.987,19.531,613.770,375.488,24.902,37.598
1571283680.991,22.949,172.852,34.180,19.043,-45.898
1571283680.995,41.992,-315.918,-318.359,25.879,-24.902
1571283680.999,54.199,-374.023,-321.289,45.898,48.828
1571283681.003,33.691,-4.883,-33.691,36.133,23.438
1571283681.007,12.695,216.309,112.793,7.324,-4.883
1571283681.011,24.902,105.957,19.043,6.348,14.160
1571283681.014,38.086,194.336,93.262,23.926,64.453
1571283681.018,31.250,445.312,290.039,19.043,72.754
1571283681.022,27.832,227.051,112.793,13.184,-12.695
1571283681.026,34.180,-190.918,-207.520,15.137,-56.641
1571283681.030,39.062,-91.309,-112.793,17.578,30.273
1571283681.034,34.180,315.430,205.566,23.926,106.445
1571283681.038,24.414,54.199,6.836,20.996,35.156
1571283681.042,19.531,-752.441,-659.180,7.324,-60.547
1571283681.046,21.973,-741.211,-637.695,-0.488,-11.719
1571283681.050,28.809,-160.645,-131.348,11.230,74.707
1571283681.054,17.578,-169.922,-154.785,10.742,22.949
1571283681.057,4.883,-353.027,-300.781,0.000,-39.551
1571283681.061,18.066,-125.488,-124.512,3.906,12.695
1571283681.065,31.738,246.094,156.738,13.672,75.684
1571283681.069,22.461,199.707,119.141,13.184,52.734
1571283681.073,17.090,-21.484,-40.039,14.160,5.371
1571283681.077,21.484,-19.043,-43.945,12.695,-18.555
1571283681.081,24.414,262.695,176.270,19.531,47.363
1571283681.085,22.949,123.047,93.750,23.926,69.336
1571283681.089,17.090,-519.043,-367.188,14.160,-23.438
1571283681.093,12.695,-385.742,-247.559,6.348,-55.664
1571283681.096,28.320,187.500,180.664,24.902,27.832
1571283681.100,31.250,375.977,324.219,29.785,79.102
1571283681.104,23.438,314.453,286.133,20.996,37.109
1571283681.108,28.320,102.051,117.188,24.902,-19.531
1571283681.112,37.109,104.980,118.164,28.320,10.742
1571283681.116,41.992,342.773,308.594,35.645,80.566
1571283681.120,31.738,299.805,276.855,28.320,40.039
1571283681.124,35.645,172.852,174.805,28.809,-18.555
1571283681.128,54.199,133.301,137.207,42.480,3.418
1571283681.132,62.012,51.758,92.285,49.805,76.660
1571283681.136,54.199,-33.203,47.363,47.363,62.988
1571283681.139,41.016,31.738,90.332,34.180,2.930
1571283681.143,42.480,56.641,88.867,32.715,18.555
1571283681.147,56.152,-234.375,-126.465,47.363,50.293
1571283681.151,38.086,-125.977,-16.113,45.898,59.570
1571283681.155,22.461,102.539,143.555,41.016,0.000
1571283681.159,30.762,-86.914,-16.113,34.180,-31.250
1571283681.163,43.457,-66.406,17.578,34.668,65.918
1571283681.167,42.969,228.027,250.000,38.574,106.934
1571283681.171,29.297,266.113,267.578,35.156,17.090
1571283681.175,34.668,-41.504,26.367,32.715,-34.668
1571283681.179,49.805,-169.434,-52.734,40.039,35.156
1571283681.182,34.668,2.930,99.121,33.203,114.258
1571283681.186,16.602,278.809,306.152,27.832,92.285
1571283681.190,22.949,-58.105,28.809,27.832,-4.395
1571283681.194,26.855,-574.219,-354.980,20.020,-15.137
1571283681.198,23.438,70.312,152.344,23.438,120.605
1571283681.202,17.090,473.633,418.457,28.809,105.469
1571283681.206,10.742,136.719,148.438,33.203,14.648
1571283681.210,17.090,-37.598,15.137,33.691,-3.418
1571283681.214,37.109,297.852,266.602,42.969,78.613
1571283681.218,44.922,452.637,388.184,43.457,116.211
1571283681.221,36.621,105.957,125.977,33.203,28.809
1571283681.225,37.598,-307.129,-183.594,26.855,-26.855
1571283681.229,44.434,-285.645,-158.691,33.203,38.574
1571283681.233,48.340,122.559,147.949,51.758,88.379
1571283681.237,39.551,-298.340,-174.316,41.504,6.348
1571283681.241,20.508,-534.180,-337.402,14.648,-22.461
1571283681.245,23.438,60.547,87.891,20.020,40.039
1571283681.249,35.645,301.270,249.023,41.992,95.703
1571283681.253,26.855,206.055,180.664,35.645,65.918
1571283681.257,9.277,146.484,131.348,13.672,14.160
1571283681.261,17.578,212.402,181.641,14.160,41.016
1571283681.264,36.621,327.148,275.391,30.273,109.375
1571283681.268,26.855,267.578,234.863,30.273,75.195
1571283681.272,10.742,-68.848,-3.906,21.484,2.441
1571283681.276,13.672,-360.840,-220.215,10.742,-24.902
1571283681.280,33.203,-381.348,-226.562,20.508,32.227
1571283681.284,37.598,-466.797,-271.973,24.902,48.340
1571283681.288,17.578,-236.816,-96.191,15.625,-3.906
1571283681.292,23.438,-27.344,30.273,20.508,-23.438
1571283681.296,36.133,32.227,68.359,29.297,45.898
1571283681.300,30.273,304.688,285.156,32.227,112.793
1571283681.304,24.414,409.180,348.145,27.344,53.223
1571283681.307,32.227,148.926,137.695,21.484,-20.020
1571283681.311,52.246,-20.996,18.555,23.926,13.184
1571283681.315,59.570,207.520,203.613,34.668,84.473
1571283681.319,52.246,74.707,95.215,32.227,30.762
1571283681.323,44.434,-349.121,-215.820,30.273,-52.734
1571283681.327,56.152,-777.832,-580.078,32.715,-89.844
1571283681.331,68.359,-732.422,-523.438,45.410,-10.742
1571283681.335,53.711,-179.688,-68.359,42.969,29.297
1571283681.339,40.527,-148.926,-82.031,27.832,-31.738
1571283681.343,47.852,-265.625,-183.105,24.902,-25.879
1571283681.346,56.641,96.191,79.590,21.484,49.805
1571283681.350,52.246,420.898,308.594,27.832,75.684
1571283681.354,41.504,124.023,75.684,29.785,-4.883
1571283681.358,34.668,-225.098,-184.082,12.695,-48.828
1571283681.362,41.016,-53.711,-50.781,16.113,13.184
1571283681.366,47.363,49.805,30.762,34.180,62.500
1571283681.370,38.574,-381.836,-292.969,25.391,5.371
1571283681.374,25.391,-874.512,-646.484,15.625,-56.152
1571283681.378,23.926,-575.195,-417.969,10.742,-31.250
1571283681.382,30.273,86.426,57.617,21.484,67.871
1571283681.386,17.090,153.320,92.773,20.020,58.105
1571283681.389,3.418,-251.953,-217.285,5.371,-36.133
1571283681.393,9.277,-259.766,-225.098,7.812,-37.109
1571283681.397,19.531,91.797,40.039,23.438,40.039
1571283681.401,16.602,201.172,134.277,26.367,63.965
1571283681.405,9.277,79.590,47.852,14.648,8.301
1571283681.409,16.602,-17.578,-33.203,19.531,-32.227
1571283681.413,38.574,-61.523,-54.688,40.527,20.508
1571283681.417,43.457,-367.188,-250.488,41.504,66.895
1571283681.421,29.785,-487.305,-317.871,31.738,13.672
1571283681.425,39.551,-132.324,-63.477,30.273,-18.066
1571283681.429,72.266,-37.598,-16.113,59.570,8.301
1571283681.432,73.242,57.617,64.453,73.730,66.895
1571283681.436,46.875,249.512,210.449,55.664,59.570
1571283681.440,45.410,205.566,150.391,52.246,14.648
1571283681.444,75.684,-33.203,-61.035,54.199,10.254
1571283681.448,91.797,-19.531,-43.945,61.035,76.660
1571283681.452,81.543,163.574,104.980,61.035,68.848
1571283681.456,79.102,52.734,13.184,63.477,-16.602
1571283681.460,92.773,-456.543,-365.723,77.148,-35.156
1571283681.464,104.492,-794.922,-579.102,87.891,31.250
1571283681.468,92.773,-354.980,-216.309,90.332,57.129
1571283681.471,86.426,-88.379,-36.133,95.703,-1.465
1571283681.475,87.891,-326.172,-232.422,92.773,-34.668
1571283681.479,87.891,-222.656,-141.113,101.562,47.363
1571283681.483,81.055,227.051,203.613,104.004,117.676
1571283681.487,65.430,209.473,175.293,91.797,55.664
1571283681.491,61.035,-253.418,-185.059,84.961,-36.621
1571283681.495,78.125,-311.035,-212.891,89.355,12.695
1571283681.499,81.543,102.539,104.004,94.727,109.375
1571283681.503,65.430,-95.703,-59.570,83.496,45.898
1571283681.507,54.199,-645.508,-461.426,67.871,-29.785
1571283681.511,64.453,-777.344,-541.016,69.824,-8.789
1571283681.514,78.125,-375.977,-213.867,81.055,84.473
1571283681.518,66.895,-1.465,74.707,80.078,111.328
1571283681.522,51.270,-485.352,-292.969,73.242,25.879
1571283681.526,49.316,-646.484,-405.762,62.988,-8.301
1571283681.530,56.641,-70.312,25.879,73.242,80.078
1571283681.534,53.711,134.277,164.551,83.984,121.094
1571283681.538,42.480,-93.750,-22.949,71.777,39.062
1571283681.542,41.992,-182.617,-97.656,56.152,0.977
1571283681.546,60.547,-57.617,-13.184,61.035,52.246
1571283681.550,68.848,-35.156,1.953,64.941,79.590
1571283681.554,56.152,-351.562,-221.191,56.152,32.715
1571283681.557,52.246,-671.387,-452.148,45.410,-8.789
1571283681.561,62.012,-639.160,-436.035,48.828,8.789
1571283681.565,75.684,-511.719,-334.473,61.035,80.078
1571283681.569,66.406,-674.805,-451.172,54.199,45.898
1571283681.573,47.852,-478.516,-311.035,44.434,-11.719
1571283681.577,57.617,-236.816,-163.574,47.363,-7.324
1571283681.581,71.777,-145.508,-106.445,60.547,53.223
1571283681.585,61.523,-17.090,-3.906,58.594,57.129
1571283681.589,45.898,-1.465,3.418,46.387,-0.488
1571283681.593,49.805,-86.426,-66.895,40.527,0.488
1571283681.596,63.477,-58.594,-42.480,50.293,63.477
1571283681.600,59.082,-106.445,-71.777,53.711,60.547
1571283681.604,38.574,-272.949,-177.246,34.668,24.414
1571283681.608,35.645,-330.566,-220.215,26.367,1.465
1571283681.612,51.270,-591.797,-424.316,33.691,14.648
1571283681.616,47.363,-492.188,-312.012,31.738,80.078
1571283681.620,29.785,40.039,90.332,21.484,47.852
1571283681.624,27.344,20.508,40.527,15.137,-14.648
1571283681.628,34.180,-41.992,-13.184,15.137,17.578
1571283681.632,37.109,394.043,333.984,24.902,115.723
1571283681.636,23.926,572.754,464.844,28.320,97.656
1571283681.639,13.184,198.242,175.781,19.043,3.906
1571283681.643,21.484,-97.168,-42.480,12.695,-31.250
1571283681.647,38.574,-116.211,-39.062,31.738,31.250
1571283681.651,33.203,-33.203,43.945,38.574,44.434
1571283681.655,23.926,-208.984,-86.914,32.715,-8.301
1571283681.659,27.832,-647.461,-419.434,29.297,-31.738
1571283681.663,34.180,-150.391,-34.180,34.668,61.523
1571283681.667,36.133,524.414,463.867,45.898,130.859
1571283681.671,27.832,310.059,286.133,43.945,50.781
1571283681.675,26.367,-45.410,27.832,38.574,-5.859
1571283681.679,40.039,129.395,162.598,51.758,21.973
1571283681.682,47.363,458.008,420.898,64.941,96.191
1571283681.686,33.203,379.883,369.629,49.316,67.871
1571283681.690,21.973,173.828,213.867,31.250,5.859
1571283681.694,34.668,-7.812,74.219,39.062,14.160
1571283681.698,44.922,70.801,148.926,52.246,78.125
1571283681.702,41.992,-180.176,-25.879,47.363,52.734
1571283681.706,29.785,-494.629,-260.254,32.715,-31.250
1571283681.710,31.250,-102.051,17.090,31.738,-26.855
1571283681.714,53.223,176.270,197.266,51.270,56.641
1571283681.718,49.316,271.973,263.672,48.828,91.797
1571283681.721,30.762,281.738,263.184,36.133,23.926
1571283681.725,36.133,112.793,107.422,35.645,-46.387
1571283681.729,52.246,-48.828,-10.254,44.922,9.277
1571283681.733,52.734,45.410,77.148,48.828,55.176
1571283681.737,37.598,222.168,209.473,37.109,25.391
1571283681.741,33.691,-19.043,16.602,30.273,-25.391
1571283681.745,49.316,-343.750,-220.215,36.621,8.789
1571283681.749,55.664,-411.133,-243.164,43.457,61.035
1571283681.753,36.621,-24.414,55.664,31.738,37.109
1571283681.757,29.297,211.426,202.148,20.996,-3.906
1571283681.761,41.992,13.672,25.879,22.949,-22.461
1571283681.764,51.758,198.730,182.617,27.832,64.941
1571283681.768,40.039,447.266,371.094,25.391,59.570
1571283681.772,21.973,291.504,248.535,24.414,-12.207
1571283681.776,27.344,31.738,57.129,28.320,-26.367
1571283681.780,46.875,195.312,197.754,35.156,57.129
1571283681.784,45.410,448.730,395.996,41.992,103.027
1571283681.788,34.180,9.277,52.246,44.434,-11.719
1571283681.792,24.902,-580.078,-373.535,32.227,-58.105
1571283681.796,26.855,-335.449,-168.945,27.344,33.203
1571283681.800,32.715,317.871,307.617,36.133,76.172
1571283681.804,27.344,240.234,232.422,36.133,0.977
1571283681.807,23.926,-176.270,-71.289,31.738,-41.504
1571283681.811,30.273,-28.809,46.875,26.367,13.184
1571283681.815,39.551,400.391,365.234,37.109,77.637
1571283681.819,33.691,323.730,306.641,37.598,36.133
1571283681.823,23.438,-58.105,22.949,21.973,-57.129
1571283681.827,24.414,-74.707,15.137,18.066,-53.711
1571283681.831,36.621,265.137,279.297,28.809,47.363
1571283681.835,32.227,160.645,210.449,33.691,60.547
1571283681.839,16.602,-188.965,-35.645,24.414,1.465
1571283681.843,19.531,-142.578,0.000,17.578,5.371
1571283681.846,36.133,248.535,278.320,34.180,78.613
1571283681.850,42.969,231.934,250.488,37.598,83.008
1571283681.854,26.855,-355.469,-198.242,17.578,-39.551
1571283681.858,20.020,-303.223,-158.203,7.324,-73.242
1571283681.862,41.016,5.371,58.594,20.020,6.836
1571283681.866,46.387,150.391,162.598,29.297,58.105
1571283681.870,33.203,59.082,90.820,27.344,-3.906
1571283681.874,23.926,15.137,56.641,23.438,-29.785
1571283681.878,34.180,74.707,86.914,31.250,15.137
1571283681.882,49.805,41.016,57.617,42.969,65.430
1571283681.886,39.551,-178.711,-93.750,30.273,37.598
1571283681.889,22.461,-317.871,-194.336,15.137,-19.531
1571283681.893,40.527,-166.016,-91.797,27.832,0.977
1571283681.897,64.453,-385.254,-263.184,51.270,52.246
1571283681.901,34.668,-424.316,-283.691,38.574,32.715
1571283681.905,6.836,25.391,46.875,26.367,22.949
1571283681.909,10.742,-60.547,-69.824,27.344,4.883
1571283681.913,24.414,-97.168,-126.465,38.574,44.922
1571283681.917,23.926,287.109,164.062,46.875,114.746
1571283681.921,8.789,296.875,151.855,37.109,44.922
1571283681.925,5.859,-97.656,-151.367,28.320,-31.738
1571283681.929,17.578,-305.664,-280.762,35.645,19.531
1571283681.932,23.926,-85.449,-80.078,39.062,116.699
1571283681.936,8.789,-23.438,-35.156,26.855,58.594
1571283681.940,7.812,-362.305,-300.293,19.043,-8.789
1571283681.944,21.484,-709.961,-565.918,16.602,-9.766
1571283681.948,26.367,-201.172,-180.664,27.832,57.617
1571283681.952,22.949,272.949,157.227,30.762,69.824
1571283681.956,17.090,-32.227,-92.285,21.484,-10.254
1571283681.960,20.020,-175.781,-207.031,18.066,-16.602
1571283681.964,27.344,266.113,131.348,27.832,92.285
1571283681.968,25.391,477.051,284.180,29.297,105.957
1571283681.971,18.066,120.605,2.441,21.973,-7.324
1571283681.975,20.996,-353.516,-346.680,23.926,-55.664
1571283681.979,35.156,-269.531,-255.371,36.133,36.133
1571283681.983,40.039,279.297,170.410,46.387,122.070
1571283681.987,29.785,-150.391,-160.645,34.180,35.645
1571283681.991,20.996,-504.883,-413.086,12.207,-21.484
1571283681.995,32.227,98.633,39.551,18.555,51.270
1571283681.999,42.480,380.371,242.676,35.156,112.305
1571283682.003,35.645,267.090,162.598,29.297,72.754
1571283682.007,25.391,186.523,98.633,15.137,-4.395
1571283682.011,28.320,43.945,-19.043,15.137,-13.184
1571283682.014,39.551,-29.785,-50.781,34.180,63.965
1571283682.018,31.738,120.117,79.590,36.621,55.176
1571283682.022,18.066,-115.234,-106.445,17.090,-31.250
1571283682.026,19.531,-298.340,-242.676,12.695,-44.922
1571283682.030,38.574,-180.664,-146.973,25.879,26.855
1571283682.034,35.156,-281.738,-206.543,26.367,47.852
1571283682.038,9.277,-59.570,-33.203,16.602,-1.465
1571283682.042,15.625,125.977,70.801,22.461,-33.691
1571283682.046,38.574,157.227,84.961,33.691,30.762
1571283682.050,45.410,355.957,243.164,41.504,83.984
1571283682.054,40.527,362.793,224.609,42.969,-7.324
1571283682.057,36.621,152.832,60.059,28.320,-62.012
1571283682.061,35.645,104.492,30.273,21.973,1.465
1571283682.065,30.762,404.297,264.648,24.414,93.262
1571283682.069,23.926,404.785,258.789,22.949,61.523
1571283682.073,31.250,-23.926,-75.195,32.715,-33.691
1571283682.077,53.711,-543.945,-464.844,40.039,-50.781
1571283682.081,49.805,-381.348,-336.426,25.879,17.578
1571283682.085,13.184,325.195,168.945,-6.836,40.527
1571283682.089,-2.441,331.055,139.648,-13.184,-5.371
1571283682.093,7.812,65.918,-81.543,-8.301,-47.852
1571283682.096,0.000,310.547,100.586,-19.531,14.160
1571283682.100,-23.438,766.602,449.219,-38.574,91.797
1571283682.104,-34.668,603.516,300.293,-57.129,19.043
1571283682.108,-36.621,329.102,75.684,-61.523,-20.996
1571283682.112,-47.852,540.039,219.238,-73.242,46.387
1571283682.116,-50.293,701.660,325.684,-75.684,90.332
1571283682.120,-48.828,330.566,39.551,-74.219,16.602
1571283682.124,-54.199,-236.816,-374.023,-92.285,-34.668
1571283682.128,-49.316,178.711,-45.898,-94.238,43.945
1571283682.132,-38.574,912.109,500.488,-69.824,107.910
1571283682.136,-40.527,867.188,448.242,-62.012,55.176
1571283682.139,-40.039,581.543,225.098,-63.965,-10.254
1571283682.143,-16.602,609.375,240.234,-44.434,-24.414
1571283682.147,-0.977,894.531,472.168,-21.973,65.918
1571283682.151,-11.230,868.652,450.684,-21.484,53.223
1571283682.155,-23.438,636.719,273.926,-27.832,-23.926
1571283682.159,-12.207,619.141,274.902,-18.066,-24.902
1571283682.163,13.184,529.785,225.586,4.395,36.133
1571283682.167,12.695,514.160,250.488,2.441,84.473
1571283682.171,-6.836,563.477,305.176,-14.648,30.273
1571283682.175,-9.277,444.336,208.984,-20.020,-30.273
1571283682.179,16.113,502.930,263.672,-0.488,41.016
1571283682.182,28.809,237.305,94.238,12.695,101.562
1571283682.186,4.395,1.953,-62.988,-5.859,13.184
1571283682.190,-6.348,223.633,109.375,-12.207,-34.668
1571283682.194,9.277,205.566,89.355,-7.812,6.348
1571283682.198,21.973,378.906,238.281,5.859,105.469
1571283682.202,11.230,641.602,448.242,7.812,106.934
1571283682.206,6.836,513.184,337.891,4.883,13.672
1571283682.210,25.879,-44.922,-89.844,9.277,-26.367
1571283682.214,36.621,-394.531,-310.547,10.742,57.129
1571283682.218,32.227,67.383,62.988,21.484,94.238
1571283682.221,26.367,317.383,223.633,23.926,21.484
1571283682.225,32.715,67.383,22.461,17.090,-11.719
1571283682.229,49.805,84.473,43.945,31.738,44.434
1571283682.233,45.898,460.449,339.355,43.945,96.680
1571283682.237,37.598,230.469,159.668,41.992,10.254
1571283682.241,35.156,-212.402,-162.109,36.621,-38.574
1571283682.245,39.551,-91.797,-62.500,42.480,15.137
1571283682.249,50.293,339.355,267.578,49.316,104.492
1571283682.253,39.551,447.754,345.215,40.527,88.867
1571283682.257,25.879,-33.691,-31.250,31.738,-4.395
1571283682.261,36.621,-350.098,-260.742,26.855,7.324
1571283682.264,45.898,-127.441,-81.543,34.180,69.336
1571283682.268,34.180,148.926,125.000,37.109,62.988
1571283682.272,25.391,-381.348,-281.738,32.227,-4.883
1571283682.276,26.367,-717.285,-541.016,26.855,-52.734
1571283682.280,43.457,-53.223,-35.645,41.504,41.016
1571283682.284,49.316,195.312,136.230,52.246,78.125
1571283682.288,25.391,-53.223,-69.336,38.086,-12.695
1571283682.292,20.508,-78.125,-86.914,24.414,-14.648
1571283682.296,37.109,68.359,21.973,30.762,65.430
1571283682.300,33.203,200.684,125.000,36.133,89.355
1571283682.304,27.832,-37.598,-44.434,35.645,22.949
1571283682.307,27.344,-330.566,-250.000,27.832,-15.137
1571283682.311,35.645,-229.004,-176.270,28.809,3.906
1571283682.315,43.945,-69.336,-50.781,40.039,70.801
1571283682.319,30.762,-302.734,-210.449,28.809,49.805
1571283682.323,21.973,-203.613,-139.160,20.508,-18.555
1571283682.327,31.250,139.648,101.074,29.297,28.320
1571283682.331,38.086,305.664,221.680,31.738,112.305
1571283682.335,37.598,331.055,240.723,32.715,82.031
1571283682.339,23.438,250.977,177.734,17.578,0.977
1571283682.343,18.555,129.883,81.055,3.906,-4.883
1571283682.346,29.297,237.793,178.711,13.672,97.168
1571283682.350,25.391,291.992,235.840,15.137,133.789
1571283682.354,16.113,7.812,20.996,12.207,38.574
1571283682.358,16.602,-243.652,-162.109,8.301,-4.883
1571283682.362,34.668,-581.543,-410.645,16.602,20.996
1571283682.366,31.738,-361.328,-222.168,17.578,73.242
1571283682.370,8.301,177.734,178.223,6.836,41.992
1571283682.374,12.695,54.688,62.988,8.789,-7.812
1571283682.378,29.297,-51.270,-16.113,20.020,26.367
1571283682.382,34.668,338.379,291.016,31.250,104.004
1571283682.386,27.344,453.125,368.652,28.809,65.918
1571283682.389,18.555,51.758,59.082,15.137,-12.695
1571283682.393,24.414,-129.395,-73.730,13.184,-5.859
1571283682.397,42.480,-37.109,5.371,24.902,69.336
1571283682.401,33.203,47.852,77.148,27.832,67.383
1571283682.405,20.020,-270.996,-173.828,22.949,-21.973
1571283682.409,30.273,-727.051,-505.859,14.648,-21.973
1571283682.413,41.504,-266.602,-147.461,24.414,48.828
1571283682.417,40.527,284.180,247.070,36.621,76.172
1571283682.421,37.109,32.715,40.527,40.039,-14.648
1571283682.425,36.133,-288.086,-203.125,30.273,-78.125
1571283682.429,35.156,-90.332,-60.547,20.996,-19.531
1571283682.432,33.691,251.465,204.590,29.785,72.266
1571283682.436,33.691,200.195,172.363,28.809,44.922
1571283682.440,26.367,-78.125,-47.852,16.113,-41.016
1571283682.444,29.785,-223.145,-161.133,16.602,-11.719
1571283682.448,52.734,-168.945,-104.980,47.852,63.965
1571283682.452,47.852,-530.273,-371.582,49.805,12.207
1571283682.456,21.973,-762.695,-538.086,22.461,-52.734
1571283682.460,16.602,-312.012,-222.168,13.672,-47.363
1571283682.464,31.738,-154.785,-137.695,25.391,3.906
1571283682.468,23.926,-27.832,-23.926,28.320,67.871
1571283682.471,16.113,70.312,40.039,23.438,-2.441
1571283682.475,25.879,-65.918,-95.703,22.461,-80.566
1571283682.479,41.992,33.691,-10.742,32.715,28.809
1571283682.483,43.945,169.922,101.074,39.551,66.895
1571283682.487,25.879,184.570,113.770,27.344,0.488
1571283682.491,27.832,-106.934,-112.793,22.461,-62.500
1571283682.495,39.551,-437.988,-347.656,29.297,-25.391
1571283682.499,43.457,-391.113,-269.531,30.273,78.613
1571283682.503,34.668,-43.457,-6.348,22.461,38.086
1571283682.507,35.156,181.152,136.719,25.879,-17.090
1571283682.511,43.457,77.637,41.992,26.367,-6.348
1571283682.514,41.992,260.742,190.430,26.855,68.848
1571283682.518,36.133,472.656,357.422,27.832,74.707
1571283682.522,39.062,181.641,137.695,34.180,-9.277
1571283682.526,48.828,-54.199,-37.598,32.715,-37.109
1571283682.530,61.523,176.270,147.461,41.992,51.758
1571283682.534,52.734,444.824,350.586,45.410,59.570
1571283682.538,39.062,84.473,88.867,36.621,-13.184
1571283682.542,41.504,-193.359,-96.191,35.645,-11.719
1571283682.546,50.293,107.910,132.812,43.945,46.387
1571283682.550,52.246,445.312,384.277,53.711,82.031
1571283682.554,43.457,426.270,370.605,45.410,41.992
1571283682.557,37.109,-341.797,-208.008,27.344,-35.645
1571283682.561,36.133,-540.039,-333.984,21.484,0.000
1571283682.565,48.828,271.484,286.621,43.945,107.422
1571283682.569,49.316,353.516,328.125,53.711,71.777
1571283682.573,28.320,31.250,72.754,33.691,-9.766
1571283682.577,33.691,-85.449,-31.250,31.250,-31.250
1571283682.581,44.922,82.031,98.145,42.969,49.805
1571283682.585,41.992,-9.277,26.367,42.969,40.527
1571283682.589,30.762,-520.996,-343.750,33.691,-23.926
1571283682.593,31.738,-311.035,-178.711,25.879,-11.719
1571283682.596,50.781,289.062,251.465,39.062,66.895
1571283682.600,50.293,442.383,358.398,45.410,95.703
1571283682.604,36.133,252.441,214.355,37.109,19.043
1571283682.608,32.227,195.801,167.480,29.297,-22.949
1571283682.612,48.340,270.020,219.238,36.133,25.879
1571283682.616,52.246,411.621,348.633,44.922,100.586
1571283682.620,40.039,353.516,314.941,45.898,49.805
1571283682.624,43.457,248.047,229.492,40.527,-0.488
1571283682.628,50.781,217.285,193.359,41.504,18.555
1571283682.632,50.781,142.090,144.531,53.711,84.961
1571283682.636,46.387,-27.832,34.180,53.223,88.379
1571283682.639,33.203,-60.547,-5.371,38.086,14.648
1571283682.643,36.621,5.371,10.742,34.180,2.930
1571283682.647,51.270,-195.801,-132.324,41.016,65.430
1571283682.651,44.434,-115.723,-41.504,38.086,77.637
1571283682.655,32.715,111.328,120.605,38.574,15.625
1571283682.659,33.691,-54.199,-19.531,38.086,-3.906
1571283682.663,45.898,39.551,55.176,44.434,76.172
1571283682.667,48.828,371.094,314.941,48.828,120.117
1571283682.671,41.504,314.453,268.066,47.852,49.805
1571283682.675,43.457,-98.145,-57.129,44.434,-30.762
1571283682.679,50.781,-293.945,-187.012,46.387,23.438
1571283682.682,49.316,-128.906,-27.832,51.758,106.934
1571283682.686,37.598,-44.922,40.039,46.875,48.340
1571283682.690,35.645,-356.934,-203.125,42.480,-17.090
1571283682.694,47.363,-715.820,-463.867,37.109,-12.695
1571283682.698,50.293,-131.348,0.000,45.410,71.777
1571283682.702,44.922,390.137,378.906,53.223,88.867
1571283682.706,43.945,184.570,209.473,44.922,28.320
1571283682.710,48.340,8.301,76.660,42.969,3.906
1571283682.714,58.105,300.781,304.199,55.664,77.637
1571283682.718,57.617,393.066,374.023,64.453,68.359
1571283682.721,41.016,101.562,169.922,54.688,-0.488
1571283682.725,37.598,-292.969,-116.211,34.668,-28.320
1571283682.729,45.410,-308.594,-122.070,43.945,13.672
1571283682.733,44.922,167.969,256.348,61.523,91.309
1571283682.737,35.156,-247.559,-62.012,47.852,21.973
1571283682.741,24.902,-661.621,-371.582,23.438,-51.270
1571283682.745,31.250,-176.758,-11.719,32.715,2.930
1571283682.749,34.180,21.973,136.230,46.387,85.938
1571283682.753,20.020,-8.301,123.535,34.668,64.941
1571283682.757,16.602,29.785,138.672,24.414,1.465
1571283682.761,25.391,121.582,190.430,22.949,27.344
1571283682.764,29.297,208.008,248.047,28.809,98.145
1571283682.768,20.996,149.414,199.219,22.949,65.430
1571283682.772,18.555,-260.742,-115.234,19.043,-34.180
1571283682.776,22.461,-511.230,-303.223,13.184,-39.062
1571283682.780,37.109,-361.328,-182.617,21.973,62.988
1571283682.784,35.645,-520.996,-295.898,24.902,68.359
1571283682.788,12.207,-395.996,-202.637,6.836,3.418
1571283682.792,16.113,-191.406,-84.473,8.789,-21.973
1571283682.796,36.621,-167.480,-81.055,26.367,37.109
1571283682.800,31.250,1.953,48.828,26.855,80.078
1571283682.804,11.230,-100.586,-52.734,19.043,0.977
1571283682.807,18.066,-373.535,-278.320,26.855,-61.035
1571283682.811,39.062,-389.648,-302.734,33.691,-15.625
1571283682.815,50.781,-103.027,-91.309,46.875,72.754
1571283682.819,50.781,-149.902,-131.348,58.594,44.922
1571283682.823,42.969,-567.871,-426.270,49.316,-37.109
1571283682.827,59.570,-922.852,-796.387,58.105,-83.008
1571283682.831,68.848,-706.543,-627.930,71.289,3.906
1571283682.835,55.664,-57.129,-27.344,69.824,69.824
1571283682.839,52.734,-90.332,-80.078,71.777,-0.488
1571283682.843,61.035,-370.117,-299.316,64.941,-30.762
1571283682.846,74.707,-71.289,-64.453,72.754,49.805
1571283682.850,74.707,277.344,194.336,89.844,85.938
1571283682.854,66.895,93.750,46.387,84.473,23.438
1571283682.858,72.754,-349.609,-292.969,75.684,-44.434
1571283682.862,87.891,-372.559,-282.227,78.125,10.254
1571283682.866,96.191,-58.105,-3.906,84.961,88.867
1571283682.870,95.703,-245.605,-126.953,82.520,52.734
1571283682.874,85.449,-729.980,-471.191,70.312,-5.371
1571283682.878,84.473,-423.828,-235.352,71.777,11.230
1571283682.882,92.285,195.312,203.613,87.402,74.219
1571283682.886,76.172,184.082,169.434,80.078,41.016
1571283682.889,61.035,-26.367,6.836,63.477,-14.648
1571283682.893,68.848,109.375,102.051,62.012,13.184
1571283682.897,82.520,346.191,274.902,76.660,79.102
1571283682.901,73.730,328.613,277.832,78.613,79.102
1571283682.905,58.105,125.488,137.695,65.430,13.184
1571283682.909,67.383,41.992,67.871,67.871,-9.766
1571283682.913,80.566,21.484,54.688,76.660,55.664
1571283682.917,70.801,-367.188,-222.168,71.777,63.965
1571283682.921,51.758,-588.867,-371.582,57.129,-12.695
1571283682.925,46.875,-215.820,-100.586,48.340,-35.156
1571283682.929,62.988,-43.457,-0.488,61.035,11.230
1571283682.932,67.871,77.148,94.727,66.406,76.172
1571283682.936,48.828,185.547,179.688,50.293,38.574
1571283682.940,44.922,194.824,175.781,43.945,2.930
1571283682.944,62.988,40.039,39.062,54.688,4.883
1571283682.948,66.895,65.430,69.824,64.453,57.617
1571283682.952,52.246,227.539,205.078,52.246,59.082
1571283682.956,41.016,133.789,125.000,42.969,-7.324
1571283682.960,53.711,-291.504,-206.055,45.410,-19.531
1571283682.964,64.453,-595.703,-412.598,44.922,50.293
1571283682.968,49.316,-38.574,35.156,41.504,112.305
1571283682.971,42.480,160.156,146.484,41.992,46.875
1571283682.975,39.062,-263.672,-204.102,34.668,-16.113
1571283682.979,48.340,-96.680,-68.848,39.062,58.105
1571283682.983,57.129,204.590,153.320,47.852,86.914
1571283682.987,45.898,70.801,36.133,40.527,-8.789
1571283682.991,39.551,-219.238,-185.547,30.762,-56.641
1571283682.995,50.293,-134.766,-114.258,34.180,22.949
1571283682.999,58.105,277.344,192.383,49.805,101.562
1571283683.003,44.434,332.520,223.145,49.316,61.523
1571283683.007,41.504,-106.445,-112.305,47.363,-10.742
1571283683.011,48.340,-460.938,-372.559,41.992,-11.719
1571283683.014,43.945,-66.406,-56.152,39.551,82.031
1571283683.018,33.203,230.957,159.180,41.504,83.008
1571283683.022,23.926,-175.293,-160.156,29.297,-18.066
1571283683.026,24.414,-268.066,-230.469,17.578,-24.902
1571283683.030,34.668,16.113,-12.207,29.785,67.871
1571283683.034,33.203,115.723,65.430,35.645,86.914
1571283683.038,20.508,-410.156,-333.984,26.367,-28.809
1571283683.042,15.625,-593.262,-463.867,13.672,-79.102
1571283683.046,26.367,-27.344,-34.180,25.391,38.086
1571283683.050,27.344,270.996,192.871,41.992,106.445
1571283683.054,16.602,-0.977,-6.348,33.203,25.879
1571283683.057,13.184,-293.457,-212.891,20.508,-19.043
1571283683.061,24.902,-84.961,-51.270,23.926,33.691
1571283683.065,39.062,31.250,31.250,34.668,66.406
1571283683.069,32.715,-312.012,-204.102,32.227,20.996
1571283683.073,16.113,-125.000,-46.875,20.020,0.977
1571283683.077,21.973,143.555,122.070,19.531,4.883
1571283683.081,45.898,218.750,176.270,35.645,60.059
1571283683.085,43.945,209.961,187.500,31.738,64.453
1571283683.089,23.438,84.961,98.633,14.160,3.906
1571283683.093,22.461,-36.621,-10.254,11.719,-41.016
1571283683.096,40.039,-1.465,15.137,26.855,21.484
1571283683.100,41.016,-37.598,-7.812,31.738,38.086
1571283683.104,28.809,-256.836,-175.293,24.414,-18.066
1571283683.108,34.180,-372.070,-266.602,23.438,-53.711
1571283683.112,48.828,-561.035,-401.367,30.273,-7.812
1571283683.116,46.875,-368.164,-232.422,33.203,58.594
1571283683.120,38.574,162.598,165.039,31.250,37.109
1571283683.124,38.574,69.336,67.383,33.203,-5.371
1571283683.128,45.898,-134.277,-98.633,43.945,-7.812
1571283683.132,47.363,216.309,184.082,52.246,75.195
1571283683.136,38.574,344.727,269.043,49.316,43.457
1571283683.139,35.156,-86.426,-73.242,43.945,-51.758
1571283683.143,42.969,-407.227,-310.059,45.898,-41.992
1571283683.147,48.828,-258.789,-182.617,60.547,52.734
1571283683.151,39.551,-60.547,-33.691,51.270,75.195
1571283683.155,39.062,-397.949,-305.664,40.527,-7.812
1571283683.159,46.387,-823.730,-623.535,40.527,-30.762
1571283683.163,43.945,-320.801,-246.094,38.086,52.734
1571283683.167,39.062,294.922,187.012,49.316,90.332
1571283683.171,27.344,145.996,55.664,44.434,29.297
1571283683.175,23.438,-79.102,-117.188,32.227,-8.301
1571283683.179,29.785,136.230,41.992,31.738,45.410
1571283683.182,33.691,423.340,257.812,35.645,107.910
1571283683.186,27.832,226.074,109.375,33.691,41.504
1571283683.190,22.949,62.012,-6.836,25.879,1.465
1571283683.194,27.832,-23.438,-76.660,30.273,20.020
1571283683.198,32.227,-11.719,-52.246,40.039,78.613
1571283683.202,23.926,-239.746,-197.754,34.668,72.754
1571283683.206,16.113,-491.699,-384.766,22.949,-9.766
1571283683.210,37.109,-53.223,-76.172,36.621,-5.371
1571283683.214,57.129,208.984,99.609,52.246,55.176
1571283683.218,35.645,198.242,93.262,32.227,50.293
1571283683.221,9.766,221.191,117.188,9.766,-2.441
1571283683.225,18.066,272.461,145.508,8.301,-12.207
1571283683.229,47.363,302.246,162.598,34.668,47.363
1571283683.233,44.434,429.688,282.715,38.574,98.633
1571283683.237,25.879,441.406,295.898,24.902,35.645
1571283683.241,35.645,149.414,67.871,35.156,-22.461
1571283683.245,66.406,-140.625,-142.578,59.082,11.719
1571283683.249,75.195,-251.953,-196.289,74.219,58.594
1571283683.253,52.734,150.879,124.023,52.734,61.035
1571283683.257,23.926,279.785,180.176,6.836,9.277
1571283683.261,15.137,113.281,25.391,-12.207,9.766
1571283683.264,22.461,353.516,210.449,4.395,65.430
1571283683.268,-11.230,678.711,456.055,-19.531,70.312
1571283683.272,-40.527,599.609,369.141,-49.805,9.766
1571283683.276,-27.832,369.141,173.340,-41.016,-4.395
1571283683.280,-29.785,538.086,300.293,-44.434,71.777
1571283683.284,-40.039,825.684,509.766,-49.805,92.773
1571283683.288,-37.109,510.742,260.254,-44.922,21.973
1571283683.292,-48.828,-142.090,-240.723,-67.871,-31.738
1571283683.296,-48.828,18.555,-109.863,-66.406,31.738
1571283683.300,-50.293,743.652,428.711,-54.199,110.840
1571283683.304,-61.523,733.887,380.859,-57.617,41.016
1571283683.307,-45.898,245.605,-8.301,-47.363,-39.062
1571283683.311,-31.250,163.574,-79.102,-42.480,-10.254
1571283683.315,-32.715,458.496,143.066,-31.738,63.477
1571283683.319,-24.414,576.660,227.051,-18.066,49.316
1571283683.323,-19.531,410.645,89.355,-23.926,-12.207
1571283683.327,-19.531,410.156,75.195,-27.344,-14.648
1571283683.331,4.395,682.129,281.250,-1.953,53.711
1571283683.335,11.719,510.742,164.551,13.184,67.871
1571283683.339,3.906,-174.316,-338.867,7.812,-9.277
1571283683.343,1.953,-109.863,-286.133,-0.977,-31.250
1571283683.346,19.531,454.102,126.953,12.207,65.430
1571283683.350,22.461,550.293,189.453,14.648,88.867
1571283683.354,-4.883,349.609,35.645,-4.883,14.648
1571283683.358,-6.836,269.043,-29.785,-7.812,-23.926
1571283683.362,19.531,337.891,23.926,18.555,21.973
1571283683.366,26.855,431.641,125.488,34.180,86.426
1571283683.370,9.766,237.793,7.324,16.113,47.363
1571283683.374,7.812,131.836,-63.477,14.648,-0.977
1571283683.378,20.996,226.074,3.906,27.344,22.461
1571283683.382,23.926,251.465,42.480,29.297,91.309
1571283683.386,14.648,84.961,-56.152,23.438,65.918
1571283683.389,11.719,-57.617,-159.180,18.066,-27.832
1571283683.393,27.832,94.238,-43.457,24.902,2.930
1571283683.397,54.199,-75.684,-150.879,45.898,78.125
1571283683.401,41.992,-134.766,-165.527,31.250,62.988
1571283683.405,28.809,82.520,0.000,24.902,4.883
1571283683.409,41.992,-74.219,-133.301,35.156,-35.156
1571283683.413,52.734,31.250,-35.645,48.340,46.875
1571283683.417,52.734,404.297,265.137,56.641,94.727
1571283683.421,38.574,404.785,264.160,45.410,22.949
1571283683.425,37.109,56.152,-3.906,30.762,-27.832
1571283683.429,45.898,-127.441,-125.977,30.273,29.785
1571283683.432,54.688,51.758,37.598,44.922,104.492
1571283683.436,44.922,96.191,77.148,44.922,57.129
1571283683.440,34.180,-241.211,-184.570,34.180,-19.043
1571283683.444,42.969,-610.840,-458.496,30.273,-24.414
1571283683.448,46.387,-39.062,0.977,28.320,76.172
1571283683.452,38.086,454.102,354.004,25.391,72.754
1571283683.456,22.949,158.691,112.793,13.184,-7.324
1571283683.460,34.668,37.109,31.250,20.020,2.441
1571283683.464,56.152,333.008,259.766,49.805,61.523
1571283683.468,57.617,455.566,364.258,59.570,58.105
1571283683.471,44.434,163.086,159.180,44.922,-8.789
1571283683.475,33.691,-202.637,-109.863,26.367,-32.715
1571283683.479,53.223,-126.953,-29.785,47.363,55.664
1571283683.483,49.805,146.484,193.848,53.223,113.770
1571283683.487,26.855,-344.727,-186.035,26.367,9.277
1571283683.491,23.438,-631.836,-396.484,16.113,-56.152
1571283683.495,39.551,-73.730,9.766,29.297,-11.230
1571283683.499,55.664,227.539,219.238,46.875,52.246
1571283683.503,49.805,186.035,189.941,45.898,35.645
1571283683.507,40.039,81.543,98.145,37.598,-38.574
1571283683.511,48.340,173.340,159.180,40.527,-7.812
1571283683.514,57.617,357.910,311.035,54.199,89.844
1571283683.518,46.387,336.426,300.781,52.734,61.523
1571283683.522,40.039,-106.445,-33.203,45.898,-42.480
1571283683.526,47.363,-234.863,-107.910,39.551,-7.812
1571283683.530,61.035,-30.762,50.293,45.898,72.754
1571283683.534,52.734,-220.703,-80.566,41.504,58.594
1571283683.538,33.203,-205.566,-55.176,27.344,12.695
1571283683.542,33.691,-165.039,-47.852,24.414,-21.484
1571283683.546,43.457,-83.008,6.348,31.250,11.719
1571283683.550,47.852,205.078,235.840,41.016,67.383
1571283683.554,40.039,382.324,370.117,38.574,37.109
1571283683.557,39.062,193.359,212.402,36.621,-28.320
1571283683.561,47.852,21.973,83.008,38.574,-8.301
1571283683.565,45.410,280.762,292.480,35.645,75.195
1571283683.569,37.598,227.539,253.906,34.180,53.223
1571283683.573,26.855,-36.133,60.059,26.855,3.906
1571283683.577,35.156,-488.281,-291.016,27.832,-37.109
1571283683.581,49.805,-437.988,-227.539,36.621,35.645
1571283683.585,28.809,323.242,353.027,23.438,89.355
1571283683.589,16.602,297.852,300.781,11.719,20.508
1571283683.593,31.250,61.035,119.141,17.578,7.324
1571283683.596,39.551,151.855,198.730,27.344,62.500
1571283683.600,32.227,448.242,439.941,29.785,99.609
1571283683.604,20.020,349.609,362.793,27.344,30.762
1571283683.608,15.137,49.316,138.672,18.066,-5.859
1571283683.612,32.715,234.863,285.645,27.832,51.270
1571283683.616,40.527,369.141,393.555,40.039,90.332
1571283683.620,24.902,-32.227,100.098,29.297,33.203
1571283683.624,16.113,-601.074,-319.336,14.160,-51.758
1571283683.628,22.949,-211.426,-6.348,16.113,30.762
1571283683.632,37.109,430.664,457.031,33.691,112.793
1571283683.636,34.180,330.566,361.328,34.668,55.176
1571283683.639,25.391,20.020,128.906,26.367,-20.996
1571283683.643,31.738,113.281,201.660,30.273,8.301
1571283683.647,42.480,431.641,443.848,44.434,105.469
1571283683.651,39.062,231.934,290.527,53.711,63.965
1571283683.655,20.508,-66.895,82.520,36.133,-0.977
1571283683.659,22.461,-37.598,99.609,25.391,-11.719
1571283683.663,47.363,13.184,135.742,49.316,62.012
1571283683.667,54.688,-261.230,-48.340,54.688,103.516
1571283683.671,34.180,-496.094,-212.402,35.156,24.902
1571283683.675,22.949,-212.891,-22.949,24.414,-24.902
1571283683.679,50.293,9.277,122.070,48.340,39.551
1571283683.682,53.711,146.484,227.539,55.664,105.469
1571283683.686,23.438,183.594,240.234,33.203,54.688
1571283683.690,16.113,125.977,176.270,27.832,6.836
1571283683.694,35.645,37.598,95.703,36.621,31.250
1571283683.698,47.852,63.965,118.164,51.758,76.660
1571283683.702,33.691,191.895,222.168,46.875,66.406
1571283683.706,15.625,110.840,150.879,27.832,20.996
1571283683.710,20.508,-366.211,-226.562,26.367,-14.160
1571283683.714,35.645,-561.035,-351.074,43.457,43.457
1571283683.718,26.367,-161.621,-26.367,37.598,72.266
1571283683.721,16.602,123.047,170.410,26.855,39.062
1571283683.725,35.156,-237.793,-131.836,38.574,-13.672
1571283683.729,42.969,-373.047,-220.215,41.016,37.598
1571283683.733,36.621,249.512,266.113,41.504,127.930
1571283683.737,29.785,327.637,293.457,41.016,53.711
1571283683.741,25.391,-56.641,-14.648,34.668,-23.926
1571283683.745,35.645,-66.406,-20.020,34.180,29.297
1571283683.749,42.969,334.961,288.086,42.480,117.188
1571283683.753,34.668,376.953,312.500,45.898,69.824
1571283683.757,28.809,-29.785,8.301,35.156,6.348
1571283683.761,37.598,-258.301,-145.508,36.621,28.809
1571283683.764,43.457,-30.273,42.480,42.480,89.355
1571283683.768,36.621,130.859,169.434,40.527,69.824
1571283683.772,38.574,-392.578,-224.609,40.527,-17.090
1571283683.776,41.992,-674.805,-437.500,33.203,-53.223
1571283683.780,42.480,69.824,133.789,34.180,62.012
1571283683.784,48.828,353.027,331.055,44.434,93.262
1571283683.788,32.715,113.281,146.973,30.273,29.297
1571283683.792,20.996,158.203,185.059,18.555,21.973
1571283683.796,31.738,388.672,347.168,31.250,68.848
1571283683.800,36.621,475.586,418.457,39.551,109.863
1571283683.804,26.367,1.953,65.918,33.203,3.906
1571283683.807,20.508,-367.676,-187.988,18.066,-30.273
1571283683.811,27.344,-11.719,91.309,25.879,56.641
1571283683.815,34.668,121.094,180.664,41.016,78.613
1571283683.819,22.949,-339.844,-153.809,25.391,13.184
1571283683.823,14.648,-451.172,-227.539,15.137,-42.969
1571283683.827,27.344,-226.074,-75.684,21.484,-6.836
1571283683.831,43.945,12.207,90.820,37.598,54.199
1571283683.835,39.062,185.059,229.980,38.574,60.547
1571283683.839,28.809,205.566,233.887,29.297,0.977
1571283683.843,35.156,60.059,102.051,32.227,-40.039
1571283683.846,49.316,157.227,192.871,41.992,55.176
1571283683.850,46.387,173.828,216.797,38.574,85.449
1571283683.854,30.273,-62.988,44.922,29.297,34.180
1571283683.858,32.715,-177.246,-42.969,31.250,0.000
1571283683.862,50.293,-457.031,-263.184,39.062,3.906
1571283683.866,48.828,-380.371,-187.988,39.551,47.363
1571283683.870,31.250,62.012,135.254,27.832,14.160
1571283683.874,20.508,2.930,61.523,17.578,-17.090
1571283683.878,31.250,-237.305,-131.348,29.297,-1.953
1571283683.882,34.180,14.160,70.312,42.969,54.688
1571283683.886,20.996,313.477,291.504,37.598,47.852
1571283683.889,22.949,-3.906,30.273,36.621,-33.691
1571283683.893,34.668,-194.336,-113.770,36.133,-29.785
1571283683.897,38.574,51.758,89.844,40.039,81.055
1571283683.901,23.926,61.035,97.656,36.133,67.871
1571283683.905,15.137,-221.191,-120.605,21.973,-2.441
1571283683.909,25.391,-609.863,-410.645,19.531,-18.555
1571283683.913,33.691,-218.262,-106.445,30.762,47.852
1571283683.917,37.598,401.855,346.680,39.551,96.191
1571283683.921,28.320,164.551,142.090,33.203,-0.977
1571283683.925,19.043,-33.203,-1.465,26.367,-11.719
1571283683.929,36.133,286.133,234.375,42.480,66.895
1571283683.932,49.316,464.355,355.957,52.734,81.543
1571283683.936,41.016,219.727,185.059,45.898,37.109
1571283683.940,41.016,6.348,33.203,42.480,-6.348
1571283683.944,50.293,-132.324,-84.961,48.828,-8.301
1571283683.948,62.012,-121.094,-60.547,62.988,44.434
1571283683.952,46.875,-89.844,-18.066,51.270,26.367
1571283683.956,20.508,-208.008,-119.141,26.367,-50.781
1571283683.960,24.902,-61.523,-23.926,25.879,-31.250
1571283683.964,41.016,227.539,187.988,39.062,61.523
1571283683.968,48.340,-110.352,-58.594,40.527,53.223
1571283683.971,37.598,-425.781,-281.738,30.273,-24.902
1571283683.975,37.109,-153.320,-98.633,22.461,-49.316
1571283683.979,55.176,-27.832,-17.578,38.574,19.531
1571283683.983,55.176,89.355,84.473,51.270,62.988
1571283683.987,38.086,166.016,141.602,41.016,14.648
1571283683.991,33.691,-96.191,-68.848,31.738,-20.996
1571283683.995,50.293,-319.824,-230.469,43.945,41.992
1571283683.999,56.641,-459.473,-315.430,49.316,91.797
1571283684.003,34.180,-290.039,-188.477,32.227,36.133
1571283684.007,24.414,-3.418,-6.348,24.902,-9.277
1571283684.011,41.016,-83.984,-96.191,26.855,2.930
1571283684.014,54.199,38.086,-0.488,37.598,54.688
1571283684.018,41.016,260.254,167.480,38.086,46.387
1571283684.022,29.297,221.191,132.812,31.738,16.602
1571283684.026,37.598,-39.062,-78.125,31.738,-2.441
1571283684.030,50.293,46.875,-6.348,42.480,64.941
1571283684.034,48.828,339.355,219.727,49.805,89.844
1571283684.038,38.086,14.648,-25.879,41.992,7.812
1571283684.042,39.551,-708.496,-577.637,34.668,-34.668
1571283684.046,46.875,-662.598,-521.973,37.598,38.086
1571283684.050,39.551,-58.105,-46.875,46.875,106.445
1571283684.054,26.855,-6.348,-33.691,41.992,43.945
1571283684.057,26.855,-231.934,-224.609,31.250,-24.414
1571283684.061,36.133,-81.055,-115.723,31.250,24.902
1571283684.065,41.016,400.879,250.488,38.574,118.164
1571283684.069,32.715,329.590,189.941,35.156,81.055
1571283684.073,29.785,-78.613,-115.234,27.344,3.418
1571283684.077,27.832,-63.477,-97.168,22.949,19.531
1571283684.081,33.203,326.172,212.402,29.785,114.746
1571283684.085,35.156,59.082,8.301,32.715,71.289
1571283684.089,22.461,-543.457,-429.199,22.949,-13.184
1571283684.093,22.949,-368.652,-282.715,18.555,-4.883
1571283684.096,37.109,161.621,110.352,30.762,90.332
1571283684.100,34.180,179.688,114.746,29.785,97.168
1571283684.104,17.578,-383.789,-310.059,13.184,-25.879
1571283684.108,15.137,-368.164,-274.414,12.695,-29.785
1571283684.112,28.320,12.695,5.859,25.879,44.434
1571283684.116,34.668,176.758,129.395,33.691,90.820
1571283684.120,34.668,158.203,130.859,33.691,55.664
1571283684.124,42.480,18.066,15.137,29.785,-23.438
1571283684.128,40.039,67.871,52.246,26.855,23.926
1571283684.132,37.598,76.660,64.941,37.598,89.355
1571283684.136,36.133,-216.309,-153.809,35.645,31.738
1571283684.139,29.297,-264.160,-187.500,30.273,-7.324
1571283684.143,39.062,-78.125,-62.500,38.086,17.090
1571283684.147,55.664,-301.758,-219.727,53.223,80.078
1571283684.151,45.410,-403.320,-267.578,45.898,60.059
1571283684.155,39.551,-104.004,-43.945,44.434,-6.348
1571283684.159,59.082,-283.203,-208.496,56.152,-38.086
1571283684.163,75.684,-379.883,-280.273,66.895,16.602
1571283684.167,73.730,-50.293,-8.301,76.172,63.477
1571283684.171,62.988,18.555,49.805,71.289,11.230
1571283684.175,68.848,-289.551,-174.805,74.219,-41.016
1571283684.179,84.961,-552.734,-348.633,82.520,-11.230
1571283684.182,86.914,-448.242,-225.586,88.379,68.359
1571283684.186,78.125,-363.281,-148.926,85.938,19.531
1571283684.190,75.684,-639.160,-406.250,76.172,-58.594
1571283684.194,84.473,-865.723,-616.699,72.266,-22.461
1571283684.198,87.402,-381.348,-210.449,76.172,56.641
1571283684.202,73.242,15.137,84.473,80.566,49.805
1571283684.206,61.523,-314.941,-184.082,66.406,-9.277
1571283684.210,60.547,-599.609,-400.879,55.176,-35.645
