timestamps,TP9,AF7,AF8,TP10,Right AUX
1572496002.862,-45.410,57.617,999.512,-31.250,8.789
1572496002.866,-46.387,56.641,999.512,-46.387,61.523
1572496002.870,-47.363,64.941,999.512,-34.180,29.785
1572496002.874,-49.805,70.312,999.512,-36.621,11.719
1572496002.878,-54.688,71.777,999.512,-48.340,30.762
1572496002.882,-43.945,73.730,999.512,-42.969,42.480
1572496002.886,-36.133,72.754,999.512,-37.109,11.230
1572496002.890,-36.621,68.359,-1000.000,-32.715,-33.203
1572496002.894,-32.715,67.383,996.094,-17.578,10.254
1572496002.898,-28.809,69.336,-997.559,-8.789,8.301
1572496002.901,-20.996,72.754,999.023,-17.578,7.324
1572496002.905,-11.230,73.242,916.992,-11.719,15.137
1572496002.909,-20.508,72.266,954.590,-7.812,12.207
1572496002.913,-25.879,72.754,-987.305,-4.883,25.391
1572496002.917,-22.461,65.918,993.164,-12.207,35.645
1572496002.921,-24.902,59.570,988.281,-17.090,19.531
1572496002.925,-16.602,59.570,-995.605,-9.277,-8.301
1572496002.929,-10.742,62.500,957.520,-7.812,-17.578
1572496002.933,-13.672,68.359,869.141,-8.301,15.137
1572496002.937,-17.090,67.871,944.824,-17.090,61.035
1572496002.940,-17.090,67.383,994.629,-13.672,45.898
1572496002.944,-12.695,73.242,-962.891,-0.488,60.547
1572496002.948,-3.418,70.312,831.055,3.906,11.719
1572496002.952,0.488,68.359,692.383,-0.488,-22.949
1572496002.956,-3.906,69.336,977.051,0.488,23.438
1572496002.960,1.953,72.266,-990.723,12.695,5.859
1572496002.964,-5.859,71.777,968.750,1.465,-12.207
1572496002.968,-10.742,69.336,991.699,-9.766,5.859
1572496002.972,-12.695,73.242,-992.188,0.488,-26.855
1572496002.976,-23.926,70.801,981.934,2.441,-22.461
1572496002.980,-20.996,67.871,935.547,6.836,29.785
1572496002.983,-12.695,71.289,979.004,18.066,41.992
1572496002.987,-12.695,76.172,-994.629,17.090,2.930
1572496002.991,-15.625,78.125,-987.305,16.113,-14.160
1572496002.995,-15.625,72.266,817.383,16.602,-17.090
1572496002.999,-9.766,72.266,835.449,13.672,13.672
1572496003.003,-6.836,74.219,-963.379,7.812,45.410
1572496003.007,-9.766,76.172,961.426,15.137,10.742
1572496003.011,-13.672,78.125,931.641,18.555,7.324
1572496003.015,-13.672,78.125,993.164,2.441,4.883
1572496003.019,-7.324,80.566,-975.586,2.930,-3.418
1572496003.023,-12.695,77.637,878.418,10.742,-17.090
1572496003.026,-18.555,71.777,810.059,0.488,5.859
1572496003.030,-8.789,70.312,967.773,0.000,14.648
1572496003.034,-6.348,64.453,964.355,-2.930,6.836
1572496003.038,-1.953,56.641,700.684,-10.742,-2.441
1572496003.042,-1.465,61.523,560.547,-11.719,29.785
1572496003.046,-3.418,67.383,827.148,-3.906,51.270
1572496003.050,-2.441,67.383,945.801,-0.977,66.895
1572496003.054,-10.254,64.453,721.680,-9.277,28.320
1572496003.058,-0.977,61.035,686.523,-2.441,21.973
1572496003.062,9.277,62.012,859.375,13.184,69.824
1572496003.065,-4.883,64.941,775.391,9.766,39.551
1572496003.069,-7.812,67.383,581.055,0.977,37.109
1572496003.073,5.859,70.801,470.703,8.789,25.391
1572496003.077,4.883,69.824,575.684,16.113,10.254
1572496003.081,9.766,67.383,612.793,17.090,41.016
1572496003.085,19.531,69.336,367.676,21.973,17.578
1572496003.089,17.090,68.848,391.113,19.531,31.250
1572496003.093,16.113,65.918,519.043,12.695,36.133
1572496003.097,15.625,63.477,447.266,14.648,26.367
1572496003.101,13.184,64.453,306.641,16.113,17.090
1572496003.105,13.672,66.406,428.711,11.719,-20.996
1572496003.108,15.137,65.918,589.844,9.766,10.254
1572496003.112,20.508,64.941,506.836,23.926,11.719
1572496003.116,22.461,59.570,392.090,19.043,14.160
1572496003.120,22.461,60.059,426.758,8.301,51.270
1572496003.124,27.344,68.359,480.957,26.855,80.078
1572496003.128,30.762,73.242,437.500,25.391,31.738
1572496003.132,21.484,70.801,481.445,8.789,0.000
1572496003.136,15.137,65.918,586.914,14.648,7.812
1572496003.140,23.926,63.965,597.656,32.715,-38.086
1572496003.144,32.715,66.406,381.836,31.738,7.324
1572496003.148,38.086,70.312,157.715,28.320,36.133
1572496003.151,24.414,70.312,445.312,25.879,14.160
1572496003.155,20.020,71.777,625.977,24.902,44.434
1572496003.159,29.297,70.801,522.949,30.273,46.875
1572496003.163,30.273,63.477,449.219,20.996,52.246
1572496003.167,36.621,64.453,449.707,22.461,34.668
1572496003.171,32.715,66.895,479.492,33.203,15.625
1572496003.175,16.113,60.547,380.371,25.391,8.301
1572496003.179,10.254,56.152,426.758,13.672,-15.625
1572496003.183,23.926,59.082,563.477,29.785,-31.250
1572496003.187,24.902,64.453,516.113,26.855,-13.672
1572496003.190,7.812,69.824,245.117,13.672,15.137
1572496003.194,5.371,69.824,361.816,20.020,29.785
1572496003.198,3.418,59.570,619.141,24.414,1.953
1572496003.202,0.488,54.199,456.543,21.973,-8.301
1572496003.206,4.883,59.570,393.555,25.391,14.160
1572496003.210,1.465,63.965,441.406,25.879,16.602
1572496003.214,0.000,65.918,413.574,24.902,6.836
1572496003.218,1.953,66.895,394.531,22.949,11.230
1572496003.222,5.371,64.453,396.484,22.461,12.207
1572496003.226,12.207,63.965,520.508,21.973,39.062
1572496003.230,16.602,68.848,632.812,25.391,97.656
1572496003.233,20.020,65.430,325.195,28.809,61.035
1572496003.237,21.973,63.965,17.090,22.461,-14.648
1572496003.241,18.066,67.383,293.945,23.438,-36.621
1572496003.245,19.043,62.988,424.805,34.668,-16.602
1572496003.249,18.066,59.082,276.855,36.133,-38.086
1572496003.253,13.672,58.594,297.363,30.762,-25.391
1572496003.257,16.113,62.500,369.629,29.297,47.852
1572496003.261,20.020,61.523,276.367,27.832,60.059
1572496003.265,26.367,57.617,82.031,21.973,10.742
1572496003.269,26.855,66.895,159.668,19.531,-10.742
1572496003.273,30.273,73.730,419.434,22.949,34.668
1572496003.276,27.832,78.125,439.453,24.414,100.586
1572496003.280,26.367,83.496,118.164,23.926,86.914
1572496003.284,27.832,82.520,182.617,21.973,71.777
1572496003.288,21.484,79.590,497.559,22.949,68.359
1572496003.292,27.832,78.613,340.820,36.621,47.852
1572496003.296,30.762,81.543,98.633,40.039,28.320
1572496003.300,24.902,83.496,304.688,39.062,42.480
1572496003.304,30.273,82.031,309.570,43.457,21.973
1572496003.308,31.250,81.055,118.164,41.016,21.484
1572496003.312,27.344,77.637,246.094,38.086,50.781
1572496003.315,31.738,75.195,274.414,36.621,24.414
1572496003.319,30.762,74.219,289.551,35.156,57.617
1572496003.323,28.320,70.312,133.301,34.180,36.133
1572496003.327,29.785,63.965,-126.953,27.344,-3.418
1572496003.331,29.297,65.918,173.828,30.762,11.230
1572496003.335,29.297,68.359,260.254,39.062,28.809
1572496003.339,29.785,69.824,125.977,36.621,33.691
1572496003.343,30.273,72.266,182.129,31.738,6.348
1572496003.347,30.273,68.848,295.410,29.297,44.434
1572496003.351,31.250,65.918,148.926,30.762,61.035
1572496003.355,33.203,69.336,31.738,26.367,63.477
1572496003.358,39.551,69.824,135.742,23.926,29.785
1572496003.362,37.109,67.383,198.730,24.902,5.859
1572496003.366,31.738,67.871,189.941,30.273,19.531
1572496003.370,30.762,64.453,-171.875,16.113,23.926
1572496003.374,34.180,61.523,-238.281,7.324,45.410
1572496003.378,32.715,67.383,178.223,16.602,61.035
1572496003.382,28.320,67.383,132.812,20.020,42.480
1572496003.386,20.020,61.035,-29.785,18.066,22.461
1572496003.390,21.484,62.012,135.254,20.508,25.879
1572496003.394,33.203,56.152,145.508,20.020,-16.602
1572496003.398,37.109,51.270,-67.383,16.602,-12.695
1572496003.401,31.250,57.129,-99.609,17.090,25.879
1572496003.405,24.902,56.152,99.121,24.902,33.691
1572496003.409,25.391,51.758,229.492,22.949,45.898
1572496003.413,25.879,53.223,6.348,14.648,38.086
1572496003.417,17.090,48.828,-220.703,14.160,16.602
1572496003.421,8.301,45.898,41.016,13.184,-0.488
1572496003.425,14.648,46.875,190.430,22.461,23.926
1572496003.429,17.578,51.270,33.691,19.531,20.996
1572496003.433,11.719,54.199,65.918,12.207,50.781
1572496003.437,9.766,45.410,229.492,11.719,62.012
1572496003.440,16.113,41.016,236.328,14.648,69.336
1572496003.444,16.113,44.922,115.234,19.043,68.359
1572496003.448,4.883,41.016,-31.738,15.137,24.414
1572496003.452,2.930,40.527,60.547,5.371,35.645
1572496003.456,8.301,44.922,128.906,3.906,41.016
1572496003.460,12.695,43.457,46.387,3.418,13.672
1572496003.464,16.602,43.457,81.543,-5.859,-7.812
1572496003.468,23.926,47.363,166.504,1.465,14.160
1572496003.472,22.461,47.852,132.812,10.254,30.762
1572496003.476,23.926,45.898,-246.582,19.043,18.066
1572496003.480,31.738,57.129,-142.090,18.555,59.082
1572496003.483,35.156,61.035,190.918,15.137,19.531
1572496003.487,44.922,51.270,40.039,24.902,-11.230
1572496003.491,48.340,51.270,-37.109,24.902,15.625
1572496003.495,48.340,59.082,12.695,23.926,11.719
1572496003.499,54.199,67.383,123.047,34.180,3.418
1572496003.503,55.664,67.871,35.156,36.621,-0.977
1572496003.507,51.270,68.359,-250.977,34.668,-23.438
1572496003.511,47.852,76.172,52.246,46.387,21.484
1572496003.515,49.316,74.707,302.246,44.434,39.062
1572496003.519,50.781,79.590,88.867,36.621,-4.395
1572496003.523,49.805,89.355,97.168,37.598,30.762
1572496003.526,42.969,85.449,244.141,34.668,27.344
1572496003.530,35.645,79.102,254.883,24.414,47.363
1572496003.534,32.715,86.426,185.059,13.672,68.359
1572496003.538,28.809,98.145,88.867,12.695,58.594
1572496003.542,28.809,101.562,83.008,20.020,76.660
1572496003.546,33.203,103.027,30.273,17.578,50.781
1572496003.550,29.297,107.422,-51.758,6.348,40.039
1572496003.554,14.648,108.887,48.828,0.000,3.906
1572496003.558,1.465,104.004,250.000,-3.906,22.461
1572496003.562,7.812,103.516,197.266,-0.488,50.293
1572496003.565,15.137,106.445,-146.973,-0.977,10.742
1572496003.569,10.742,112.305,-29.297,-8.789,22.461
1572496003.573,0.977,113.281,226.074,-9.766,13.672
1572496003.577,-0.977,114.746,120.117,-4.395,14.160
1572496003.581,12.695,114.746,58.105,2.930,-2.930
1572496003.585,19.531,116.699,80.566,7.324,14.648
1572496003.589,8.301,115.234,116.211,-2.930,55.664
1572496003.593,6.836,105.469,59.082,-7.324,14.648
1572496003.597,18.555,109.863,57.617,-1.465,20.020
1572496003.601,24.414,116.211,140.137,1.465,49.316
1572496003.605,22.949,121.582,253.906,6.836,74.707
1572496003.608,20.996,120.117,60.059,4.395,63.965
1572496003.612,23.926,116.699,-202.637,-2.930,33.691
1572496003.616,28.320,116.699,88.867,-0.488,38.086
1572496003.620,23.438,113.770,226.074,-1.465,74.707
1572496003.624,17.578,116.211,50.781,-4.395,40.039
1572496003.628,16.113,115.723,-0.488,-4.395,-7.812
1572496003.632,28.320,118.652,70.801,15.625,56.152
1572496003.636,34.668,118.652,-25.391,31.250,77.637
1572496003.640,26.367,118.652,-80.566,26.855,33.203
1572496003.644,25.879,122.070,83.984,27.832,47.363
1572496003.648,27.832,119.629,208.984,29.297,55.664
1572496003.651,32.715,117.676,132.812,34.668,29.785
1572496003.655,40.527,117.188,-195.312,36.133,33.691
1572496003.659,37.598,121.582,-147.949,30.273,16.113
1572496003.663,23.926,124.512,178.711,22.461,11.719
1572496003.667,22.949,125.488,71.289,25.879,16.113
1572496003.671,36.621,124.512,-27.344,35.156,-2.930
1572496003.675,42.969,119.141,105.469,31.250,-19.043
1572496003.679,40.527,116.211,72.266,34.180,2.441
1572496003.683,42.969,118.652,-81.543,44.434,-2.441
1572496003.687,41.504,115.723,5.371,39.551,-11.230
1572496003.690,31.738,107.910,134.277,31.250,-30.762
1572496003.694,30.273,107.422,241.699,31.250,-2.441
1572496003.698,34.668,112.793,71.777,37.109,21.973
1572496003.702,41.016,106.445,-218.262,39.551,-44.922
1572496003.706,46.387,105.957,43.457,50.781,-56.641
1572496003.710,43.457,107.422,255.859,47.852,15.625
1572496003.714,33.691,96.680,108.887,34.668,17.578
1572496003.718,23.926,92.773,49.316,27.832,-24.414
1572496003.722,29.785,101.074,187.500,18.555,1.465
1572496003.726,37.109,104.492,60.059,19.043,9.277
1572496003.730,31.250,101.074,-104.980,19.531,24.902
1572496003.733,31.738,103.027,16.602,23.438,87.402
1572496003.737,31.738,95.703,138.672,25.879,105.469
1572496003.741,26.855,89.355,97.168,22.461,82.031
1572496003.745,27.832,91.797,-152.832,23.926,70.801
1572496003.749,27.344,90.820,-93.750,18.555,53.711
1572496003.753,23.438,95.703,286.621,19.043,74.219
1572496003.757,30.762,98.145,128.418,31.250,36.621
1572496003.761,31.738,99.121,-72.754,27.344,7.324
1572496003.765,20.508,99.121,196.777,16.602,73.242
1572496003.769,15.625,98.633,186.035,16.113,47.363
1572496003.773,22.461,102.051,-85.938,16.113,5.859
1572496003.776,26.855,99.609,-173.340,16.113,-5.859
1572496003.780,27.832,99.609,-61.523,18.555,16.113
1572496003.784,21.484,98.633,77.148,12.207,67.383
1572496003.788,15.625,92.773,-87.891,0.977,47.363
1572496003.792,15.625,94.727,-255.859,-3.418,6.836
1572496003.796,14.648,99.121,104.980,11.230,40.527
1572496003.800,25.391,99.121,314.453,30.762,58.105
1572496003.804,28.320,98.633,88.867,23.926,10.742
1572496003.808,19.043,96.680,99.121,11.719,32.715
1572496003.812,19.043,103.027,335.449,10.254,75.684
1572496003.815,26.367,105.957,401.855,17.578,117.676
1572496003.819,35.156,104.492,218.750,26.367,118.652
1572496003.823,25.391,97.168,110.840,25.391,101.074
1572496003.827,20.996,89.355,111.328,19.531,43.457
1572496003.831,32.715,93.262,84.473,25.879,37.598
1572496003.835,40.039,98.633,-94.238,44.434,81.055
1572496003.839,27.344,104.004,-130.371,27.344,67.871
1572496003.843,17.090,100.098,197.266,10.742,51.270
1572496003.847,20.996,91.797,115.234,18.555,-8.301
1572496003.851,18.066,91.797,-44.434,22.461,-13.672
1572496003.855,8.789,90.820,83.008,20.508,-23.926
1572496003.858,10.254,91.309,224.121,21.973,8.789
1572496003.862,20.996,92.285,167.480,26.855,66.895
1572496003.866,20.020,85.449,-59.570,25.879,-10.254
1572496003.870,11.230,82.031,-34.180,18.066,-35.156
1572496003.874,7.812,83.496,99.609,9.766,23.438
1572496003.878,11.719,84.473,-29.785,1.465,26.855
1572496003.882,8.301,83.496,-204.590,-7.324,25.879
1572496003.886,-8.301,74.707,-39.062,-12.695,38.574
1572496003.890,-19.043,64.941,166.992,-17.090,50.781
1572496003.894,-15.625,66.406,31.250,-16.602,39.062
1572496003.898,-9.766,74.219,-68.359,-15.137,9.766
1572496003.901,-6.836,75.195,161.621,-16.113,9.277
1572496003.905,-1.465,68.359,145.996,-14.648,-18.066
1572496003.909,0.488,67.383,54.199,-6.836,-0.488
1572496003.913,-3.906,67.383,-15.137,-11.230,8.789
1572496003.917,-11.719,66.406,-12.207,-15.625,10.742
1572496003.921,-8.789,69.824,72.754,-7.812,48.828
1572496003.925,-7.324,68.848,-193.359,-8.789,30.762
1572496003.929,-7.324,71.777,-257.812,-14.160,25.391
1572496003.933,-11.230,78.613,198.242,-6.348,48.828
1572496003.937,-12.207,72.266,276.855,-3.418,75.195
1572496003.940,-1.465,69.824,6.836,0.977,78.125
1572496003.944,8.301,70.312,51.270,13.184,8.301
1572496003.948,5.859,69.824,301.758,16.602,22.949
1572496003.952,9.766,72.266,148.438,19.043,6.348
1572496003.956,20.508,76.172,24.902,23.438,-28.320
1572496003.960,15.625,83.984,121.582,25.391,32.227
1572496003.964,22.949,91.309,67.383,35.156,-2.930
1572496003.968,24.414,88.379,-78.613,27.832,-20.996
1572496003.972,20.996,83.984,-144.043,15.137,48.340
1572496003.976,15.137,83.496,123.535,19.531,41.992
1572496003.980,3.418,81.543,311.523,21.973,39.551
1572496003.983,7.812,84.961,166.992,20.996,20.020
1572496003.987,-1.465,86.914,167.480,10.742,38.086
1572496003.991,-11.230,86.914,351.562,3.906,75.684
1572496003.995,-13.184,85.449,208.984,6.348,20.020
1572496003.999,-18.555,84.961,74.219,5.371,19.043
1572496004.003,-19.043,87.402,178.711,6.836,21.484
1572496004.007,-15.137,85.449,149.414,10.254,-16.113
1572496004.011,-27.344,85.449,71.777,0.977,-2.441
1572496004.015,-41.016,84.473,-49.316,-2.441,0.488
1572496004.019,-43.945,85.938,35.156,8.301,42.969
1572496004.023,-47.852,83.984,192.871,5.859,46.875
1572496004.026,-40.039,71.777,142.578,3.418,16.602
1572496004.030,-38.086,62.012,-69.336,7.324,29.297
1572496004.034,-41.504,67.383,86.914,2.930,39.551
1572496004.038,-43.457,71.289,446.289,-1.465,39.551
1572496004.042,-38.086,71.777,348.145,3.906,27.832
1572496004.046,-27.344,76.172,268.555,5.859,8.789
1572496004.050,-21.484,80.566,458.008,2.930,29.297
1572496004.054,-17.090,83.496,476.074,5.371,39.551
1572496004.058,-4.395,82.520,305.664,6.836,41.016
1572496004.062,-3.906,81.543,145.996,5.859,30.762
1572496004.065,-19.531,78.613,267.090,3.418,-0.488
1572496004.069,-10.254,80.566,593.750,2.930,28.320
1572496004.073,1.953,82.031,543.457,-0.488,77.148
1572496004.077,4.395,83.008,308.594,-7.324,38.086
1572496004.081,2.441,86.426,569.336,-16.602,15.137
1572496004.085,1.465,83.008,775.391,-15.625,67.871
1572496004.089,6.348,82.520,645.508,-14.160,44.922
1572496004.093,9.277,91.797,608.398,-20.996,-3.418
1572496004.097,12.695,96.680,752.441,-25.391,27.832
1572496004.101,12.695,95.703,594.238,-32.715,11.719
1572496004.105,16.113,91.309,418.457,-29.785,2.930
1572496004.108,21.484,88.867,488.770,-24.902,42.969
1572496004.112,18.555,101.074,532.227,-33.203,38.086
1572496004.116,18.066,105.469,532.227,-33.691,41.016
1572496004.120,25.879,100.098,292.480,-28.809,35.645
1572496004.124,25.391,100.098,336.426,-20.996,20.996
1572496004.128,25.879,109.375,731.445,-13.184,31.250
1572496004.132,37.109,111.816,701.172,-8.301,42.969
1572496004.136,38.086,113.770,582.520,-2.441,22.949
1572496004.140,37.109,112.793,694.824,1.465,5.859
1572496004.144,36.133,107.422,765.625,8.301,15.137
1572496004.148,39.062,109.375,559.082,18.066,16.113
1572496004.151,47.363,109.863,380.371,20.020,-2.441
1572496004.155,55.176,110.352,547.852,20.508,19.043
1572496004.159,65.430,114.746,678.711,24.902,49.316
1572496004.163,66.406,117.676,541.016,14.648,45.410
1572496004.167,71.777,118.164,351.562,14.160,19.531
1572496004.171,70.801,126.953,622.070,31.250,21.973
1572496004.175,63.965,131.348,905.273,36.621,68.359
1572496004.179,67.871,128.906,804.688,26.367,67.383
1572496004.183,72.266,127.930,727.539,18.555,37.598
1572496004.187,60.547,123.535,832.031,16.602,47.363
1572496004.190,46.875,113.281,758.789,20.020,2.930
1572496004.194,48.828,107.422,544.434,23.438,-15.625
1572496004.198,53.223,110.352,465.820,21.484,11.719
1572496004.202,42.480,108.887,467.773,9.766,-1.953
1572496004.206,44.922,108.398,434.570,7.812,-15.625
1572496004.210,42.480,108.398,204.590,13.184,-4.883
1572496004.214,28.809,107.422,260.254,4.883,-3.418
1572496004.218,23.438,106.934,611.816,2.930,-16.602
1572496004.222,24.902,101.074,543.457,5.371,33.203
1572496004.226,24.902,103.516,409.180,9.277,11.230
1572496004.230,20.020,105.469,501.953,5.371,-59.082
1572496004.233,19.531,102.051,716.797,0.977,1.465
1572496004.237,33.203,97.656,663.574,10.254,26.855
1572496004.241,37.598,93.750,464.844,14.648,0.977
1572496004.245,32.227,96.191,519.531,9.766,13.184
1572496004.249,32.227,95.703,502.441,22.461,10.254
1572496004.253,41.016,94.727,291.504,38.086,10.742
1572496004.257,32.715,92.773,89.844,32.715,5.859
1572496004.261,26.367,88.379,351.562,30.273,15.625
1572496004.265,48.828,82.031,617.188,41.992,59.570
1572496004.269,56.641,83.984,504.395,39.062,43.945
1572496004.273,53.711,86.426,480.469,34.180,17.090
1572496004.276,55.176,89.355,644.043,39.551,52.734
1572496004.280,52.734,85.449,561.035,42.969,4.395
1572496004.284,47.363,76.172,452.637,34.668,6.348
1572496004.288,54.199,79.102,477.539,36.133,31.738
1572496004.292,57.129,80.566,541.016,40.039,15.137
1572496004.296,58.105,78.613,602.051,35.645,54.688
1572496004.300,49.316,79.590,370.605,32.227,48.828
1572496004.304,57.129,81.055,300.293,36.133,15.625
1572496004.308,66.895,82.031,604.004,47.363,40.039
1572496004.312,50.293,82.031,647.949,46.387,78.125
1572496004.315,51.758,81.543,589.844,52.734,61.035
1572496004.319,54.199,81.543,664.062,56.152,35.156
1572496004.323,53.223,81.543,729.004,58.594,29.297
1572496004.327,53.711,80.566,647.461,58.594,21.973
1572496004.331,45.410,77.148,600.098,47.852,26.367
1572496004.335,52.734,77.148,707.520,51.270,55.176
1572496004.339,50.781,80.078,724.121,58.105,30.762
1572496004.343,37.109,76.172,602.539,47.852,39.062
1572496004.347,32.715,71.777,455.566,35.645,81.055
1572496004.351,38.574,75.684,592.285,42.969,61.035
1572496004.355,42.480,80.566,643.066,45.898,1.953
1572496004.358,33.203,86.426,540.039,36.621,-16.602
1572496004.362,38.574,84.961,519.531,36.133,-17.090
1572496004.366,37.109,83.008,606.445,38.086,14.648
1572496004.370,38.086,77.148,619.629,33.203,50.293
1572496004.374,48.828,71.777,424.316,38.574,0.488
1572496004.378,49.316,73.730,433.594,51.758,15.137
1572496004.382,56.641,70.801,576.172,55.176,50.781
1572496004.386,52.246,73.242,523.926,48.340,30.273
1572496004.390,44.922,74.219,353.027,40.527,22.461
1572496004.394,48.828,74.707,358.398,37.598,27.832
1572496004.398,56.152,74.707,450.684,38.086,14.160
1572496004.401,72.266,71.289,372.070,47.363,3.418
1572496004.405,69.336,68.359,282.715,53.223,52.734
1572496004.409,51.270,64.941,314.941,39.062,56.152
1572496004.413,51.758,64.941,352.051,32.715,7.324
1572496004.417,48.828,63.477,295.898,46.875,26.367
1572496004.421,44.434,69.336,286.133,51.758,69.824
1572496004.425,52.734,74.219,353.516,42.969,62.012
1572496004.429,52.246,74.219,352.051,43.457,33.203
1572496004.433,62.988,74.707,232.422,54.688,39.551
1572496004.437,62.012,76.172,41.992,50.293,15.625
1572496004.440,45.898,80.566,164.551,44.922,3.906
1572496004.444,63.477,85.449,344.727,55.664,42.969
1572496004.448,62.500,87.402,249.023,59.570,61.523
1572496004.452,40.527,83.984,166.504,45.410,44.922
1572496004.456,34.668,79.102,269.043,41.504,32.227
1572496004.460,35.156,80.566,251.465,48.340,24.414
1572496004.464,36.621,83.008,155.762,39.062,33.691
1572496004.468,28.809,84.473,164.062,38.574,39.062
1572496004.472,14.648,85.449,260.742,31.250,55.664
1572496004.476,9.766,75.684,187.500,15.137,31.250
1572496004.480,18.555,70.312,23.438,16.602,0.488
1572496004.483,23.926,74.219,85.449,32.227,41.016
1572496004.487,31.250,80.566,164.551,38.574,38.574
1572496004.491,42.969,89.844,126.953,28.320,20.508
1572496004.495,39.062,88.867,-79.590,25.391,44.922
1572496004.499,34.180,82.520,-186.035,30.762,-12.695
1572496004.503,41.504,83.984,48.340,36.621,-13.184
1572496004.507,40.039,85.449,86.914,46.875,32.715
1572496004.511,46.875,83.984,-6.348,52.246,-20.020
1572496004.515,54.688,85.449,95.215,50.781,-9.766
1572496004.519,43.945,87.402,200.195,45.410,28.809
1572496004.523,41.016,88.867,68.359,37.109,12.207
1572496004.526,56.152,93.750,-170.410,41.016,-16.113
1572496004.530,40.527,88.867,-49.805,39.062,-16.602
1572496004.534,27.832,84.961,176.270,39.062,19.043
1572496004.538,41.504,79.590,60.547,42.480,39.551
1572496004.542,43.457,73.730,-142.578,45.410,28.809
1572496004.546,40.527,77.637,8.789,48.340,15.137
1572496004.550,44.922,81.055,102.539,36.133,17.090
1572496004.554,47.852,79.102,100.098,26.855,56.641
1572496004.558,42.480,72.266,149.414,35.645,76.172
1572496004.562,40.527,73.242,146.484,40.527,27.832
1572496004.565,32.715,78.125,126.465,33.203,8.301
1572496004.569,26.855,77.148,14.648,30.762,31.250
1572496004.573,33.691,78.613,0.488,37.598,31.250
1572496004.577,25.879,76.660,118.652,31.738,14.648
1572496004.581,14.648,68.359,154.785,27.832,37.598
1572496004.585,20.020,67.383,-101.074,38.574,31.250
1572496004.589,27.344,76.660,-153.809,32.715,15.625
1572496004.593,16.113,84.961,120.605,28.809,51.758
1572496004.597,8.301,80.078,25.391,38.574,27.344
1572496004.601,20.508,75.195,-12.207,48.828,40.527
1572496004.605,29.785,77.637,53.711,52.246,31.738
1572496004.608,29.297,76.172,68.848,52.734,17.578
1572496004.612,32.715,70.801,-20.996,52.246,16.113
1572496004.616,37.109,71.289,-258.301,45.898,28.809
1572496004.620,44.434,70.801,-171.387,53.223,27.344
1572496004.624,47.852,68.848,20.996,59.570,-5.371
1572496004.628,46.387,69.824,-62.500,46.875,20.996
1572496004.632,46.387,70.801,-217.773,41.016,62.500
1572496004.636,51.758,72.266,10.742,39.062,86.914
1572496004.640,58.594,71.777,199.219,42.480,44.922
1572496004.644,62.012,70.801,63.965,48.828,11.719
1572496004.648,57.617,72.754,67.871,40.039,38.574
1572496004.651,58.105,77.148,197.754,32.227,62.012
1572496004.655,65.918,76.172,187.988,43.945,42.480
1572496004.659,65.918,73.730,-86.914,48.340,18.066
1572496004.663,61.035,78.125,-256.836,42.480,2.930
1572496004.667,54.199,77.148,-107.910,33.203,25.391
1572496004.671,48.828,68.848,14.648,29.785,95.215
1572496004.675,51.270,69.336,-208.008,39.551,77.148
1572496004.679,46.875,74.707,-264.648,31.250,57.617
1572496004.683,41.992,72.754,111.816,25.879,59.570
1572496004.687,45.898,71.777,102.051,34.180,34.180
1572496004.690,48.340,77.637,-20.996,37.109,49.316
1572496004.694,37.598,82.031,38.086,31.738,33.203
1572496004.698,27.344,81.055,72.266,27.344,10.742
1572496004.702,26.855,77.637,-50.781,25.391,41.016
1572496004.706,23.438,74.219,-236.816,15.625,27.832
1572496004.710,19.043,69.336,-224.609,9.277,9.277
1572496004.714,16.602,68.848,-221.191,15.625,0.977
1572496004.718,5.371,70.312,-354.004,6.836,-0.977
1572496004.722,0.977,73.730,-529.297,1.465,13.672
1572496004.726,2.930,70.801,-246.094,13.184,25.391
1572496004.730,0.000,60.059,-93.750,18.066,23.438
1572496004.733,2.441,59.570,-300.293,18.066,4.883
1572496004.737,0.488,56.152,-245.117,19.531,3.906
1572496004.741,3.906,52.734,-91.309,26.855,37.109
1572496004.745,9.277,55.664,-116.211,27.344,29.297
1572496004.749,9.766,59.082,-319.336,20.996,15.625
1572496004.753,15.625,63.965,-312.500,25.879,37.598
1572496004.757,17.578,61.035,-224.609,30.762,55.664
1572496004.761,12.207,56.152,-314.453,31.250,39.062
1572496004.765,13.672,49.316,-566.895,28.809,33.203
1572496004.769,17.578,46.875,-653.809,24.902,31.250
1572496004.773,23.438,58.594,-397.949,33.203,29.297
1572496004.776,28.320,66.406,-374.023,35.156,42.969
1572496004.780,24.414,62.012,-450.195,31.250,34.668
1572496004.784,24.902,58.105,-349.121,29.297,54.688
1572496004.788,39.551,62.012,-279.785,36.133,54.199
1572496004.792,44.922,67.383,-410.645,38.574,12.207
1572496004.796,33.691,62.500,-483.398,28.320,4.395
1572496004.800,33.203,58.105,-395.996,26.367,17.090
1572496004.804,44.922,64.453,-323.730,37.598,18.066
1572496004.808,45.898,67.383,-409.180,30.273,32.715
1572496004.812,31.250,62.988,-535.156,11.719,83.496
1572496004.815,26.367,58.594,-433.594,12.207,39.551
1572496004.819,23.926,57.617,-337.891,13.672,-4.395
1572496004.823,14.648,55.176,-381.348,6.348,11.719
1572496004.827,8.789,55.664,-393.066,6.836,11.719
1572496004.831,4.395,56.641,-315.918,7.812,6.836
1572496004.835,8.789,58.594,-315.430,12.207,10.254
1572496004.839,-3.418,54.688,-381.348,4.395,30.273
1572496004.843,-16.602,51.758,-402.832,-2.441,28.320
1572496004.847,-14.648,53.223,-386.719,0.000,-23.438
1572496004.851,-18.555,51.758,-336.914,-2.930,-24.902
1572496004.855,-7.324,56.152,-479.004,10.254,36.133
1572496004.858,-1.465,51.758,-536.621,12.695,42.969
1572496004.862,-9.277,49.805,-296.387,4.395,31.250
1572496004.866,-3.418,51.270,-270.508,11.719,47.363
1572496004.870,2.441,46.875,-391.113,15.137,-6.348
1572496004.874,1.465,44.434,-352.539,8.789,-26.367
1572496004.878,9.766,42.480,-268.066,9.277,-1.465
1572496004.882,21.973,44.434,-354.492,19.043,-12.695
1572496004.886,31.250,48.340,-391.602,29.785,-12.207
1572496004.890,29.297,50.781,-241.699,27.832,43.945
1572496004.894,26.367,48.828,-186.035,26.855,42.969
1572496004.898,26.855,48.828,-341.309,24.414,0.488
1572496004.901,23.438,50.781,-527.832,14.160,9.766
1572496004.905,20.996,50.293,-385.254,15.137,11.230
1572496004.909,15.137,47.852,-250.488,18.555,-4.883
1572496004.913,18.555,42.969,-371.582,19.043,-35.156
1572496004.917,25.391,40.039,-376.953,22.949,-15.137
1572496004.921,25.879,44.434,-276.367,23.438,1.953
1572496004.925,27.832,39.551,-338.379,21.973,-25.879
1572496004.929,28.809,35.645,-391.113,24.902,-19.043
1572496004.933,34.180,44.434,-318.359,27.832,27.344
1572496004.937,39.551,46.875,-289.062,25.879,24.902
1572496004.940,32.715,45.410,-290.039,24.902,2.930
1572496004.944,22.461,40.527,-423.340,20.996,60.059
1572496004.948,21.484,40.039,-518.066,22.949,43.457
1572496004.952,14.648,42.969,-271.973,22.461,40.039
1572496004.956,0.488,41.992,-207.031,14.160,63.965
1572496004.960,0.488,45.410,-383.789,16.602,76.172
1572496004.964,-4.395,46.387,-367.676,16.602,77.637
1572496004.968,-10.254,47.852,-258.301,12.695,12.207
1572496004.972,-6.836,55.664,-330.078,10.254,0.488
1572496004.976,6.836,62.500,-392.090,16.113,2.441
1572496004.980,13.672,59.570,-307.617,18.555,9.277
1572496004.983,14.160,59.570,-218.262,21.484,21.484
1572496004.987,26.855,61.035,-316.895,30.762,10.742
1572496004.991,40.039,54.688,-506.348,34.180,17.578
1572496004.995,45.410,56.152,-460.938,36.133,-18.555
1572496004.999,50.781,62.012,-283.203,41.992,-17.578
1572496005.003,55.176,57.617,-327.148,38.086,32.227
1572496005.007,53.711,54.688,-529.785,37.109,35.156
1572496005.011,50.293,56.641,-314.941,44.434,3.418
1572496005.015,48.828,56.152,-132.812,44.922,2.930
1572496005.019,52.734,53.711,-213.379,44.922,19.531
1572496005.023,54.199,61.523,-233.398,49.805,5.859
1572496005.026,41.992,62.500,-115.234,45.410,23.438
1572496005.030,30.273,53.223,5.859,34.668,33.691
1572496005.034,27.344,49.316,-302.246,32.715,2.441
1572496005.038,24.414,47.363,-501.953,27.832,18.555
1572496005.042,19.043,50.781,-243.652,17.578,50.293
1572496005.046,17.578,48.828,-165.039,16.113,47.852
1572496005.050,11.230,37.598,-457.031,10.254,8.789
1572496005.054,5.859,34.668,-435.059,-4.395,-4.883
1572496005.058,10.742,35.645,29.297,0.488,64.941
1572496005.062,9.766,35.645,9.277,-3.906,74.707
1572496005.065,-8.789,39.551,-129.395,-22.949,34.668
1572496005.069,-19.043,40.527,-116.211,-31.738,21.973
1572496005.073,-20.996,40.039,-108.887,-24.902,4.883
1572496005.077,-21.484,37.598,-137.695,-16.113,-2.930
1572496005.081,-17.578,33.691,-353.027,-17.578,0.000
1572496005.085,-20.020,37.109,-286.133,-14.648,12.695
1572496005.089,-26.367,42.969,-140.625,-8.301,16.113
1572496005.093,-21.973,37.109,-259.277,-2.441,5.859
1572496005.097,-13.184,31.738,-414.062,8.301,-24.414
1572496005.101,-6.348,36.133,-67.383,21.484,39.062
1572496005.105,6.836,35.645,148.438,28.809,48.828
1572496005.108,12.695,38.086,-24.902,25.879,13.184
1572496005.112,17.578,41.016,-44.434,31.738,15.625
1572496005.116,28.320,39.551,34.668,43.945,-18.555
1572496005.120,41.504,44.922,105.469,47.363,16.602
1572496005.124,44.922,48.340,16.602,42.480,52.734
1572496005.128,44.922,47.852,-75.684,43.457,48.340
1572496005.132,55.176,46.387,-17.090,52.246,51.758
1572496005.136,61.523,51.758,-0.977,50.781,53.711
1572496005.140,57.129,64.453,-170.410,34.668,74.219
1572496005.144,61.035,68.359,-130.859,31.738,72.754
1572496005.148,57.129,61.523,148.926,31.250,25.879
1572496005.151,46.875,60.059,156.250,21.973,49.316
1572496005.155,41.504,62.500,125.977,16.602,92.773
1572496005.159,36.133,60.547,198.730,13.672,77.637
1572496005.163,38.086,57.129,193.359,12.695,33.203
1572496005.167,44.922,60.059,91.797,20.020,46.387
1572496005.171,37.598,58.105,10.742,16.113,32.227
1572496005.175,19.531,50.781,90.332,3.418,8.301
1572496005.179,16.113,46.875,59.082,5.371,33.203
1572496005.183,15.625,44.434,-162.109,7.812,30.273
1572496005.187,6.348,41.016,-324.707,-3.906,-9.277
1572496005.190,-0.977,40.039,-61.035,-7.324,2.930
1572496005.194,-1.953,40.527,135.254,-1.953,25.391
1572496005.198,-4.395,44.434,83.008,-11.230,61.523
1572496005.202,-7.324,46.875,90.332,-14.160,83.984
1572496005.206,-9.277,47.852,154.297,-1.465,55.176
1572496005.210,-12.695,47.363,175.781,-3.906,57.617
1572496005.214,-15.625,41.504,68.848,-8.301,52.246
1572496005.218,-18.555,38.574,31.250,-5.371,28.320
1572496005.222,-22.461,36.621,139.648,0.000,47.363
1572496005.226,-27.344,34.180,61.035,9.277,45.898
1572496005.230,-23.438,32.715,-286.133,14.160,5.371
1572496005.233,-21.484,30.762,-354.004,12.695,-7.324
1572496005.237,-22.461,21.484,-33.691,10.254,-12.207
1572496005.241,-12.695,17.090,-82.031,16.602,-28.320
1572496005.245,-1.953,26.367,-103.027,24.414,30.762
1572496005.249,5.859,28.320,60.059,23.438,45.410
1572496005.253,8.789,25.391,132.812,20.996,28.809
1572496005.257,14.160,30.273,32.227,23.926,40.527
1572496005.261,27.344,34.180,-155.273,27.832,15.625
1572496005.265,32.227,37.598,-13.184,25.879,22.461
1572496005.269,28.809,36.133,94.238,23.438,19.531
1572496005.273,30.273,34.668,-166.504,25.879,-7.324
1572496005.276,34.180,34.668,-444.336,22.461,-15.625
1572496005.280,33.203,32.227,-163.086,18.066,26.367
1572496005.284,33.203,36.621,72.754,21.973,40.527
1572496005.288,34.180,42.480,-61.523,24.414,43.457
1572496005.292,34.180,45.898,-63.965,22.461,58.594
1572496005.296,39.551,45.898,-51.758,27.832,36.133
1572496005.300,42.969,47.852,-77.637,31.250,41.992
1572496005.304,39.551,53.711,-195.312,24.414,10.742
1572496005.308,41.992,56.641,-208.984,25.391,6.836
1572496005.312,42.969,51.758,-23.926,31.738,25.391
1572496005.315,41.992,46.387,52.734,38.086,34.668
1572496005.319,43.945,41.992,-216.309,41.016,55.664
1572496005.323,45.410,48.340,-353.516,38.086,72.266
1572496005.327,40.527,52.246,62.988,37.598,108.398
1572496005.331,39.062,51.270,61.523,40.039,66.895
1572496005.335,37.598,49.316,-120.605,41.504,20.020
1572496005.339,31.738,44.922,-14.160,41.992,24.902
1572496005.343,28.320,43.457,85.449,41.504,13.184
1572496005.347,28.809,44.922,12.207,36.621,29.785
1572496005.351,30.762,50.781,-41.504,35.156,64.941
1572496005.355,27.832,57.129,-18.066,40.039,60.059
1572496005.358,19.531,53.223,64.453,41.992,49.805
1572496005.362,15.137,40.039,-31.738,37.109,18.555
1572496005.366,19.043,34.180,-377.441,32.227,5.371
1572496005.370,19.531,39.551,-260.254,30.762,27.832
1572496005.374,15.625,45.410,27.832,29.785,39.062
1572496005.378,20.020,40.039,-73.242,30.273,16.602
1572496005.382,22.949,36.621,-162.598,31.738,-20.996
1572496005.386,19.531,33.691,13.672,27.344,3.418
1572496005.390,21.484,29.785,136.230,20.508,46.875
1572496005.394,21.484,34.180,-51.270,21.973,32.715
1572496005.398,16.113,37.598,-165.039,20.508,-6.836
1572496005.401,10.742,37.109,62.500,19.531,23.438
1572496005.405,8.301,34.668,173.828,22.949,52.734
1572496005.409,13.184,33.203,-125.000,23.926,33.691
1572496005.413,17.090,35.156,-372.559,20.996,1.953
1572496005.417,17.578,37.598,-100.586,17.090,38.086
1572496005.421,20.996,38.086,28.320,22.461,31.738
1572496005.425,19.531,37.109,-71.777,25.879,11.230
1572496005.429,14.648,40.527,-7.812,26.367,18.066
1572496005.433,22.949,49.316,116.699,34.668,-3.418
1572496005.437,33.691,51.758,106.445,37.109,45.898
1572496005.440,33.691,52.734,30.762,36.621,49.805
1572496005.444,35.156,49.316,61.035,41.016,41.992
1572496005.448,41.504,44.922,127.441,43.457,40.039
1572496005.452,42.969,48.828,98.633,43.945,48.340
1572496005.456,52.734,54.688,-196.289,51.270,35.156
1572496005.460,51.270,57.617,-174.316,56.152,31.250
1572496005.464,37.109,53.711,75.684,47.852,88.379
1572496005.468,32.227,48.828,-80.078,42.969,54.199
1572496005.472,29.297,44.922,-125.000,36.621,13.672
1572496005.476,23.438,46.387,125.000,35.156,20.020
1572496005.480,23.926,53.223,188.965,44.922,9.766
1572496005.483,21.973,53.223,21.484,38.574,18.066
1572496005.487,14.160,52.246,-6.348,32.227,33.691
1572496005.491,5.859,54.688,177.734,31.738,31.738
1572496005.495,9.277,53.711,255.859,32.227,39.551
1572496005.499,19.043,51.270,-19.043,38.086,34.668
1572496005.503,13.184,45.410,-242.188,30.762,0.000
1572496005.507,7.324,43.457,-29.297,26.367,14.648
1572496005.511,8.301,44.434,27.832,29.785,41.504
1572496005.515,16.113,41.504,-182.129,33.203,36.621
1572496005.519,16.602,42.969,-294.434,27.832,0.977
1572496005.523,7.812,43.457,20.020,17.090,20.508
1572496005.526,10.254,46.387,111.328,22.461,36.133
1572496005.530,9.277,43.457,8.789,23.438,-14.648
1572496005.534,2.441,40.527,103.027,20.020,-9.277
1572496005.538,-3.906,44.434,267.090,20.996,44.922
1572496005.542,-3.418,39.551,138.184,15.625,35.156
1572496005.546,0.000,37.109,-133.789,12.207,-0.977
1572496005.550,1.465,35.156,42.480,14.648,33.203
1572496005.554,2.930,25.879,165.527,20.996,76.172
1572496005.558,3.906,30.762,-33.203,25.391,62.012
1572496005.562,5.371,38.086,-297.363,20.508,-7.324
1572496005.565,0.977,40.527,-98.633,16.113,-15.137
1572496005.569,-2.441,40.527,182.129,22.949,14.648
1572496005.573,0.000,43.457,95.215,24.414,16.602
1572496005.577,0.000,41.504,51.270,16.602,2.930
1572496005.581,2.441,40.039,67.871,18.555,3.906
1572496005.585,3.906,43.457,127.930,19.043,30.762
1572496005.589,4.883,36.621,51.270,21.484,4.395
1572496005.593,6.836,35.645,37.598,23.926,10.742
1572496005.597,12.207,43.945,167.969,22.461,49.316
1572496005.601,19.043,47.852,38.086,29.297,16.113
1572496005.605,22.461,43.945,-251.953,36.621,17.578
1572496005.608,20.020,41.992,-313.965,34.668,4.883
1572496005.612,16.113,42.969,72.754,36.621,24.414
1572496005.616,16.602,30.762,145.020,40.039,37.109
1572496005.620,16.113,29.297,45.410,36.621,52.246
1572496005.624,14.160,41.016,169.922,30.762,75.684
1572496005.628,19.531,43.945,201.660,37.109,24.414
1572496005.632,14.648,37.598,117.188,37.598,36.621
1572496005.636,7.324,34.180,-82.520,32.715,35.645
1572496005.640,5.371,34.180,13.184,32.227,22.461
1572496005.644,4.395,36.621,232.422,30.762,50.781
1572496005.648,4.395,30.273,31.250,26.855,59.570
1572496005.651,-3.418,26.367,-175.781,18.555,40.527
1572496005.655,-6.836,31.738,-4.395,19.043,27.344
1572496005.659,-6.348,33.691,172.852,21.973,57.617
1572496005.663,-15.137,35.156,79.590,15.137,37.598
1572496005.667,-21.973,34.668,58.105,11.719,39.551
1572496005.671,-24.902,38.086,218.262,12.695,68.359
1572496005.675,-24.902,40.527,226.074,19.043,57.129
1572496005.679,-30.762,33.203,39.551,17.090,30.273
1572496005.683,-35.645,29.297,-30.273,14.648,12.695
1572496005.687,-34.180,29.785,153.320,20.996,45.898
1572496005.690,-37.598,25.879,130.859,21.484,27.344
1572496005.694,-31.738,20.020,-60.547,26.367,-6.836
1572496005.698,-29.785,23.438,-72.754,22.461,58.105
1572496005.702,-30.273,28.320,98.145,13.184,76.660
1572496005.706,-18.066,24.414,66.895,19.043,18.066
1572496005.710,-16.602,24.414,-45.898,16.602,16.602
1572496005.714,-15.137,27.344,47.852,14.160,35.645
1572496005.718,-5.371,29.785,176.270,20.508,53.711
1572496005.722,0.000,25.391,75.195,21.973,27.832
1572496005.726,2.441,23.438,-273.926,20.508,-10.742
1572496005.730,0.000,29.297,-189.941,20.508,4.883
1572496005.733,-0.488,29.785,74.219,20.020,6.836
1572496005.737,2.930,29.785,-30.762,17.090,-10.254
1572496005.741,-4.883,31.738,-139.648,18.066,6.836
1572496005.745,-26.855,31.738,-91.797,18.066,18.066
1572496005.749,-34.180,33.203,-65.430,19.043,0.488
1572496005.753,-36.133,28.809,-87.402,14.648,21.484
1572496005.757,-35.645,23.438,-37.109,10.254,34.668
1572496005.761,-29.785,28.809,105.957,13.184,36.621
1572496005.765,-29.297,32.715,155.273,6.836,39.551
1572496005.769,-27.832,34.180,-69.824,6.348,6.836
1572496005.773,-26.367,37.109,-125.977,13.184,9.766
1572496005.776,-29.785,37.598,62.500,10.254,20.020
1572496005.780,-27.344,39.551,90.820,9.277,-0.488
1572496005.784,-23.438,38.086,-131.348,11.230,27.344
1572496005.788,-24.414,34.180,-349.121,9.766,10.254
1572496005.792,-20.996,36.133,-158.691,14.648,0.488
1572496005.796,-11.230,36.133,-51.270,21.973,27.344
1572496005.800,-7.812,40.039,-45.410,22.949,23.926
1572496005.804,-8.789,41.504,64.453,14.648,45.410
1572496005.808,-1.953,34.668,47.363,10.254,32.227
1572496005.812,1.953,28.809,-45.898,11.719,7.812
1572496005.815,0.000,26.855,-108.887,14.160,12.207
1572496005.819,-0.977,32.715,-36.621,15.625,4.883
1572496005.823,2.441,33.203,61.035,20.508,-7.324
1572496005.827,4.395,37.598,-32.715,26.855,-10.254
1572496005.831,-3.906,37.598,-252.930,20.020,22.461
1572496005.835,-8.789,29.785,-208.496,15.137,27.344
1572496005.839,-10.254,37.598,-44.922,24.414,30.273
1572496005.843,-29.785,39.062,-83.984,22.949,39.551
1572496005.847,-43.457,28.809,-39.551,14.160,24.414
1572496005.851,-39.062,26.855,174.316,18.555,56.152
1572496005.855,-60.059,25.391,179.688,24.902,37.598
1572496005.858,-92.285,23.926,-0.488,22.949,2.441
1572496005.862,-100.586,23.438,-61.035,19.531,22.949
1572496005.866,-115.234,24.902,-15.137,17.090,18.555
1572496005.870,-120.605,23.438,54.688,13.184,-6.348
1572496005.874,-102.051,19.531,-118.164,17.578,17.090
1572496005.878,-84.473,20.996,-273.926,21.484,18.555
1572496005.882,-70.312,24.414,-61.523,18.066,14.648
1572496005.886,-62.988,28.809,-17.090,12.695,60.547
1572496005.890,-55.176,33.203,-34.180,16.113,48.340
1572496005.894,-42.480,35.645,84.961,22.461,33.203
1572496005.898,-38.574,32.227,194.336,21.484,43.945
1572496005.901,-30.762,30.762,107.422,23.926,31.250
1572496005.905,-26.855,40.039,-16.113,22.461,20.508
1572496005.909,-28.320,45.898,84.961,14.648,43.945
1572496005.913,-19.043,42.969,204.590,18.555,58.594
1572496005.917,-48.828,38.086,121.094,15.137,62.012
1572496005.921,-78.613,39.551,-202.148,7.324,48.828
1572496005.925,-64.453,42.969,-131.348,13.184,17.578
1572496005.929,-51.758,43.457,51.270,23.438,38.574
1572496005.933,-34.180,41.504,-106.445,26.367,40.527
1572496005.937,-11.230,38.086,-124.023,27.832,33.691
1572496005.940,4.883,39.062,-28.809,25.391,24.414
1572496005.944,14.648,42.480,-1.465,22.949,8.789
1572496005.948,22.949,40.527,-6.348,19.531,37.598
1572496005.952,28.320,40.039,-25.391,17.090,38.086
1572496005.956,37.109,42.480,-1.953,20.996,20.508
1572496005.960,46.387,45.898,39.551,24.414,20.020
1572496005.964,50.781,45.410,-112.305,18.555,33.691
1572496005.968,47.852,41.016,-189.941,11.719,26.367
1572496005.972,47.852,40.527,168.457,18.066,48.828
1572496005.976,53.223,40.527,145.020,24.902,40.039
1572496005.980,50.781,42.969,-86.426,23.926,8.301
1572496005.983,47.852,43.945,-41.504,23.438,15.137
1572496005.987,49.316,42.480,64.941,23.926,13.184
1572496005.991,64.941,48.828,52.734,34.180,21.973
1572496005.995,65.430,46.387,7.812,40.039,24.902
1572496005.999,52.734,36.621,27.344,37.109,-6.348
1572496006.003,53.223,37.598,74.219,37.598,-18.555
1572496006.007,52.734,43.945,86.426,37.109,6.836
1572496006.011,56.641,43.457,-94.238,33.203,26.367
1572496006.015,60.059,45.898,28.809,32.715,16.602
1572496006.019,56.641,47.363,367.188,34.180,29.297
1572496006.023,60.547,37.109,199.707,35.645,31.738
1572496006.026,63.477,33.203,51.270,35.156,41.504
1572496006.030,65.430,36.133,188.965,30.273,64.941
1572496006.034,69.336,35.156,245.605,25.879,58.594
1572496006.038,72.266,35.645,81.543,20.996,36.133
1572496006.042,79.590,41.992,-62.500,21.973,30.273
1572496006.046,80.078,44.922,98.633,25.391,32.227
1572496006.050,77.148,43.457,211.426,21.973,36.133
1572496006.054,80.566,41.504,0.488,16.113,19.043
1572496006.058,78.125,40.039,-87.402,7.324,29.297
1572496006.062,77.148,45.898,259.277,6.348,43.945
1572496006.065,80.078,45.410,365.723,15.625,15.625
1572496006.069,76.660,38.086,192.871,19.531,32.715
1572496006.073,70.312,35.156,99.121,14.648,32.715
1572496006.077,66.406,39.062,181.641,13.184,19.043
1572496006.081,72.266,41.504,143.066,16.113,13.672
1572496006.085,77.637,41.992,67.383,10.254,15.137
1572496006.089,68.848,43.457,124.512,5.859,17.090
1572496006.093,60.059,43.945,180.176,8.301,14.648
1572496006.097,59.570,42.969,122.070,16.602,7.812
1572496006.101,58.105,38.086,-140.137,17.578,-10.742
1572496006.105,50.781,37.598,-50.293,8.301,13.184
1572496006.108,48.340,41.992,274.902,10.254,22.461
1572496006.112,47.852,42.969,184.570,17.090,16.602
1572496006.116,52.246,45.410,-6.836,21.973,24.902
1572496006.120,56.152,52.246,53.223,27.344,26.855
1572496006.124,53.711,50.781,116.211,22.949,33.691
1572496006.128,52.246,49.316,14.160,16.113,20.996
1572496006.132,51.758,52.734,0.000,15.625,32.715
1572496006.136,52.246,47.852,77.637,19.531,34.180
1572496006.140,52.246,43.457,109.863,19.531,24.902
1572496006.144,52.734,46.387,-28.809,11.230,39.551
1572496006.148,52.246,51.270,-217.285,5.371,29.785
1572496006.151,50.293,58.105,45.898,12.207,45.898
1572496006.155,50.781,57.129,291.016,19.531,48.340
1572496006.159,53.223,48.340,3.906,26.855,5.371
1572496006.163,54.199,46.875,-244.141,27.344,-21.973
1572496006.167,55.664,51.758,-19.043,26.367,8.789
1572496006.171,54.199,49.805,35.156,30.762,24.902
1572496006.175,52.734,45.410,-0.488,34.180,35.645
1572496006.179,57.129,45.410,52.246,36.621,45.410
1572496006.183,56.641,48.340,78.613,36.621,34.180
1572496006.187,49.805,47.363,73.242,30.762,39.062
1572496006.190,48.828,45.410,-98.633,21.484,64.453
1572496006.194,48.828,44.434,-58.594,20.996,36.621
1572496006.198,44.434,40.527,267.090,26.367,41.992
1572496006.202,53.711,36.621,170.898,33.203,50.293
1572496006.206,59.082,41.992,-90.332,35.156,38.086
1572496006.210,50.781,47.852,6.348,30.273,51.270
1572496006.214,49.316,49.316,99.609,36.621,27.344
1572496006.218,49.316,53.711,14.648,40.039,22.461
1572496006.222,47.363,53.223,50.293,33.203,14.160
1572496006.226,46.875,56.152,212.402,26.367,16.602
1572496006.230,37.109,63.965,327.148,18.066,51.270
1572496006.233,29.785,65.430,136.230,12.695,59.570
1572496006.237,31.250,62.012,-205.566,5.371,28.320
1572496006.241,23.926,63.965,26.855,3.906,34.180
1572496006.245,16.113,59.082,246.582,4.883,49.805
1572496006.249,21.973,54.688,95.703,6.836,48.340
1572496006.253,31.250,56.641,78.613,14.160,41.016
1572496006.257,23.438,53.711,110.352,7.324,48.340
1572496006.261,23.926,46.875,-29.785,7.812,34.180
1572496006.265,32.715,41.016,-38.574,14.160,17.578
1572496006.269,31.250,43.457,112.793,6.836,33.203
1572496006.273,33.203,43.945,181.152,1.953,19.531
1572496006.276,38.574,43.457,143.555,10.254,10.742
1572496006.280,45.410,40.527,-172.852,17.578,-10.254
1572496006.284,44.434,37.109,-115.723,14.648,8.789
1572496006.288,48.828,41.016,130.859,23.438,20.020
1572496006.292,58.594,42.480,56.641,35.156,38.086
1572496006.296,49.316,33.203,23.926,33.691,27.344
1572496006.300,42.969,26.855,133.789,31.738,20.996
1572496006.304,55.176,27.344,48.340,43.945,12.695
1572496006.308,54.688,32.715,-122.070,50.781,9.766
1572496006.312,41.992,38.086,-46.875,37.109,24.414
1572496006.315,41.016,38.086,49.316,34.668,25.391
1572496006.319,42.969,35.645,144.531,39.062,48.340
1572496006.323,38.086,32.227,79.590,36.133,36.621
1572496006.327,33.203,30.273,11.719,33.691,20.508
1572496006.331,34.668,33.203,153.809,28.809,51.758
1572496006.335,38.086,39.062,191.406,28.809,43.457
1572496006.339,39.062,37.109,-100.098,34.180,6.836
1572496006.343,36.621,33.203,-271.973,34.180,-0.488
1572496006.347,33.691,38.574,89.844,35.645,43.945
1572496006.351,34.668,39.551,52.246,33.203,49.316
1572496006.355,36.133,41.016,-92.285,30.273,29.297
1572496006.358,33.691,43.945,68.848,29.785,36.621
1572496006.362,28.809,40.039,161.133,23.926,27.344
1572496006.366,28.320,36.133,122.559,25.391,21.484
1572496006.370,32.227,35.156,-49.316,28.809,17.090
1572496006.374,27.832,37.109,-53.223,21.484,28.809
1572496006.378,20.020,40.039,113.770,13.184,27.832
1572496006.382,19.043,37.598,141.113,19.043,42.969
1572496006.386,24.414,35.645,-171.387,23.438,31.250
1572496006.390,30.273,41.016,-150.391,22.949,7.324
1572496006.394,25.391,44.434,132.324,21.484,12.695
1572496006.398,19.043,45.410,-5.371,15.625,35.645
1572496006.401,28.320,50.293,-79.590,16.602,32.227
1572496006.405,36.133,56.152,96.680,21.484,19.531
1572496006.409,29.785,50.293,202.148,21.973,28.320
1572496006.413,30.273,46.387,-32.715,20.020,-1.465
1572496006.417,32.715,49.805,-175.293,17.090,-0.488
1572496006.421,32.227,49.316,124.512,20.508,49.805
1572496006.425,33.203,42.969,257.812,20.020,67.383
1572496006.429,35.645,41.504,-20.508,21.484,58.594
1572496006.433,36.133,44.434,-234.863,20.996,36.621
1572496006.437,24.902,42.480,57.617,10.254,32.715
1572496006.440,23.926,41.016,169.922,10.742,30.762
1572496006.444,28.320,39.062,49.805,16.602,52.734
1572496006.448,25.879,37.598,-26.855,13.184,44.434
1572496006.452,16.602,35.156,107.422,6.836,29.297
1572496006.456,14.160,28.320,125.488,10.254,17.090
1572496006.460,21.973,27.344,-8.789,21.973,6.836
1572496006.464,20.508,31.250,104.492,25.391,49.316
1572496006.468,18.555,30.273,233.887,24.902,70.801
1572496006.472,22.949,33.203,179.688,24.414,63.477
1572496006.476,30.273,39.062,-159.180,23.438,38.574
1572496006.480,34.180,41.016,-90.820,29.297,48.340
1572496006.483,42.480,41.504,179.199,42.480,69.824
1572496006.487,47.363,42.480,5.859,46.875,48.340
1572496006.491,42.969,42.969,-89.844,40.527,36.621
1572496006.495,46.387,45.410,21.973,37.598,58.594
1572496006.499,53.711,52.734,108.398,42.969,45.410
1572496006.503,55.664,48.828,-38.574,45.410,11.230
1572496006.507,54.199,45.898,-25.879,46.875,40.039
1572496006.511,51.270,44.922,187.988,48.340,51.270
1572496006.515,45.410,40.527,242.188,40.527,28.320
1572496006.519,46.875,37.598,51.270,35.156,41.016
1572496006.523,50.781,38.574,-162.598,40.039,36.621
1572496006.526,44.434,41.016,129.883,39.062,59.082
1572496006.530,40.039,39.551,245.605,37.109,47.852
1572496006.534,42.969,44.434,22.949,39.062,20.996
1572496006.538,43.945,47.363,-102.539,35.156,10.254
1572496006.542,38.086,46.875,-5.859,22.461,23.438
1572496006.546,36.133,47.363,-19.043,17.090,29.297
1572496006.550,39.551,44.922,-62.988,18.555,32.715
1572496006.554,36.133,43.945,-3.418,16.113,51.270
1572496006.558,31.250,45.898,-5.371,10.742,22.949
1572496006.562,28.809,45.898,-36.621,12.207,6.348
1572496006.565,30.273,42.480,-243.652,12.695,21.973
1572496006.569,30.273,43.457,-174.805,14.648,27.832
1572496006.573,25.391,43.945,216.797,20.020,60.059
1572496006.577,23.926,40.039,145.020,20.508,60.547
1572496006.581,19.043,36.621,-31.738,21.484,12.207
1572496006.585,19.531,37.109,-16.113,23.926,11.719
1572496006.589,25.879,39.062,-21.484,25.879,27.344
1572496006.593,21.973,33.691,-95.215,22.461,25.391
1572496006.597,20.996,29.785,-105.957,23.438,24.414
1572496006.601,27.344,36.133,50.293,30.762,66.406
1572496006.605,33.203,39.062,44.922,36.621,42.480
1572496006.608,33.203,35.156,-186.523,34.668,-6.836
1572496006.612,33.691,39.062,-280.762,34.668,29.785
1572496006.616,35.645,41.504,13.184,35.645,41.504
1572496006.620,37.598,40.039,223.145,36.621,33.203
1572496006.624,41.992,39.062,-67.383,37.109,-1.953
1572496006.628,39.551,41.504,-280.273,29.297,4.395
1572496006.632,36.621,45.410,-14.160,23.926,55.664
1572496006.636,41.504,45.410,26.855,26.367,45.898
1572496006.640,49.316,44.922,-116.211,32.715,6.836
1572496006.644,47.363,52.246,-7.324,24.902,16.113
1572496006.648,43.945,58.105,212.402,21.973,60.547
1572496006.651,50.293,56.641,214.355,33.203,58.105
1572496006.655,51.270,49.316,-140.137,29.297,31.738
1572496006.659,54.199,51.270,-157.227,30.273,30.273
1572496006.663,55.176,52.734,247.559,33.691,73.730
1572496006.667,51.758,46.387,177.734,27.344,70.801
1572496006.671,42.480,41.504,-73.242,22.461,25.391
1572496006.675,34.180,41.992,56.641,25.391,22.461
1572496006.679,34.668,42.480,125.000,34.668,56.641
1572496006.683,32.227,38.574,-36.621,37.109,59.082
1572496006.687,27.344,36.621,-0.488,30.762,41.504
1572496006.690,20.020,33.203,167.480,24.414,55.664
1572496006.694,20.996,41.016,218.262,26.855,43.457
1572496006.698,24.902,43.457,-31.250,25.879,-0.977
1572496006.702,26.367,38.086,-274.414,22.949,-13.184
1572496006.706,31.250,44.434,3.906,30.273,6.836
1572496006.710,22.949,45.410,62.988,23.926,6.836
1572496006.714,14.648,40.039,-78.125,13.672,7.812
1572496006.718,16.602,41.016,88.379,16.113,49.805
1572496006.722,16.602,40.039,240.723,15.137,69.336
1572496006.726,12.695,34.180,51.758,8.789,38.574
1572496006.730,9.766,29.297,-94.238,4.883,22.461
1572496006.733,13.184,33.203,56.152,4.395,33.691
1572496006.737,20.996,36.621,136.230,5.371,21.973
1572496006.741,24.414,36.621,103.516,11.230,3.906
1572496006.745,20.996,36.621,-188.965,7.324,-0.977
1572496006.749,19.043,37.109,-162.109,9.766,23.926
1572496006.753,24.902,34.668,182.129,24.902,44.434
1572496006.757,29.297,33.691,143.066,24.902,51.270
1572496006.761,26.367,41.016,49.805,22.949,42.480
1572496006.765,16.602,39.551,112.305,18.066,25.391
1572496006.769,15.625,35.645,94.727,22.949,17.578
1572496006.773,29.297,37.598,-112.305,36.621,-6.348
1572496006.776,34.180,33.203,-140.625,37.109,-9.766
1572496006.780,33.203,33.691,71.289,34.668,6.836
1572496006.784,33.691,33.203,162.109,31.738,9.277
1572496006.788,44.922,35.645,5.371,39.551,5.859
1572496006.792,54.199,41.016,-230.957,47.852,10.254
1572496006.796,47.852,40.039,19.043,47.363,37.598
1572496006.800,52.734,42.969,202.637,54.199,34.180
1572496006.804,55.176,42.480,45.898,54.199,4.395
1572496006.808,46.387,39.062,28.320,49.805,5.371
1572496006.812,42.480,41.016,178.223,50.781,41.992
1572496006.815,37.598,43.457,203.613,53.711,46.875
1572496006.819,27.344,40.039,14.648,45.898,11.719
1572496006.823,16.602,35.156,-142.578,35.156,-2.930
1572496006.827,13.184,37.598,-19.531,29.297,21.973
1572496006.831,12.207,41.992,150.879,25.879,29.297
1572496006.835,19.531,40.039,-145.996,26.367,4.883
1572496006.839,26.855,39.551,-176.270,23.438,39.062
1572496006.843,27.832,43.457,194.336,23.926,65.430
1572496006.847,29.297,44.434,117.676,27.832,32.715
1572496006.851,28.809,42.480,64.941,26.367,51.758
1572496006.855,30.762,41.016,198.730,27.832,75.195
1572496006.858,37.109,42.969,169.434,30.273,34.668
1572496006.862,35.645,38.086,52.734,28.320,17.090
1572496006.866,35.645,36.133,-44.434,28.320,23.438
1572496006.870,31.738,37.109,-53.711,27.832,19.043
1572496006.874,24.414,33.691,145.020,21.973,45.410
1572496006.878,22.461,30.762,145.508,16.113,80.566
1572496006.882,22.461,29.297,-118.652,18.066,55.176
1572496006.886,24.902,32.227,42.969,23.438,30.762
1572496006.890,25.879,35.645,253.418,22.949,46.875
1572496006.894,29.785,33.691,41.992,20.996,39.062
1572496006.898,31.250,30.762,-85.449,23.926,15.137
1572496006.901,33.203,33.203,143.066,30.273,25.391
1572496006.905,33.691,36.621,165.527,33.203,20.020
1572496006.909,30.273,34.180,89.355,32.227,22.949
1572496006.913,28.809,31.250,34.180,31.250,42.969
1572496006.917,30.762,35.156,-5.859,32.227,31.250
1572496006.921,24.902,34.668,-68.848,28.809,9.766
1572496006.925,17.578,28.320,-59.082,22.461,3.906
1572496006.929,16.113,26.367,77.148,21.973,6.348
1572496006.933,15.137,30.762,198.242,23.438,25.879
1572496006.937,17.090,33.691,215.820,24.414,58.105
1572496006.940,23.926,30.762,-67.871,22.949,61.523
1572496006.944,27.344,32.227,-76.660,21.484,38.574
1572496006.948,31.738,37.109,252.441,31.250,48.828
1572496006.952,43.457,39.062,162.109,40.527,30.762
1572496006.956,49.805,40.527,41.016,41.016,-2.930
1572496006.960,51.758,41.504,62.500,47.852,17.578
1572496006.964,53.711,41.992,97.656,49.316,26.855
1572496006.968,58.594,44.922,35.645,43.945,9.277
1572496006.972,60.547,52.734,-26.367,38.574,13.672
1572496006.976,58.105,52.246,161.133,36.621,29.297
1572496006.980,64.453,51.758,278.809,45.898,35.156
1572496006.983,69.336,51.270,87.402,41.992,28.320
1572496006.987,73.730,52.734,-140.137,41.504,18.555
1572496006.991,77.148,59.570,89.355,49.805,18.555
1572496006.995,68.359,56.152,174.805,43.945,30.762
1572496006.999,61.523,53.711,117.188,40.527,51.270
1572496007.003,60.059,54.688,186.035,43.457,51.758
1572496007.007,57.129,50.781,162.109,42.480,52.734
1572496007.011,50.781,48.340,90.332,37.109,40.527
1572496007.015,49.316,53.223,104.492,39.062,30.762
1572496007.019,45.898,48.828,147.461,38.574,34.668
1572496007.023,34.180,42.969,220.703,30.273,34.668
1572496007.026,32.715,47.852,258.301,33.203,60.059
1572496007.030,39.062,50.781,-77.637,30.762,38.574
1572496007.034,33.203,46.875,-145.020,25.879,9.277
1572496007.038,24.902,44.434,235.352,28.809,47.363
1572496007.042,29.297,42.480,187.012,31.738,58.594
1572496007.046,29.297,37.109,44.922,19.531,33.203
1572496007.050,23.926,38.086,96.191,15.137,43.945
1572496007.054,24.902,42.969,83.008,23.438,53.223
1572496007.058,26.855,41.504,-41.504,17.578,49.316
1572496007.062,22.461,38.574,-133.301,10.254,31.250
1572496007.065,22.949,38.086,56.641,14.648,22.461
1572496007.069,29.297,36.133,249.023,22.461,49.316
1572496007.073,31.738,35.156,34.180,27.344,25.391
1572496007.077,31.250,32.715,-226.074,23.926,8.789
1572496007.081,32.227,36.133,39.062,27.832,36.133
1572496007.085,36.133,41.992,203.125,37.109,36.621
1572496007.089,41.016,41.992,49.805,40.527,14.160
1572496007.093,43.945,42.480,77.637,41.504,33.691
1572496007.097,46.875,40.039,178.223,44.434,26.855
1572496007.101,50.293,38.574,30.762,50.293,15.137
1572496007.105,47.852,37.109,-79.590,46.387,20.508
1572496007.108,41.016,37.109,-52.246,41.992,5.371
1572496007.112,39.062,41.504,109.375,40.039,37.598
1572496007.116,44.434,41.992,220.703,42.969,56.152
1572496007.120,50.293,42.480,-166.504,43.457,-0.488
1572496007.124,46.387,46.387,-170.410,34.668,24.902
1572496007.128,43.457,49.805,241.699,34.668,67.383
1572496007.132,42.480,52.246,106.934,40.039,23.926
1572496007.136,38.574,49.316,7.324,37.109,24.414
1572496007.140,40.039,49.805,197.754,34.180,53.223
1572496007.144,39.551,51.758,304.688,35.156,70.801
1572496007.148,39.551,46.875,94.238,35.156,54.688
1572496007.151,40.527,48.340,-102.051,35.156,27.344
1572496007.155,38.086,49.316,15.137,36.621,23.438
1572496007.159,34.668,44.434,29.297,32.227,4.883
1572496007.163,28.809,43.457,-107.910,27.344,-2.930
1572496007.167,34.180,48.340,-170.410,35.645,-3.906
1572496007.171,33.691,46.875,63.477,36.133,12.695
1572496007.175,28.809,46.875,306.152,29.297,54.688
1572496007.179,31.738,46.387,119.141,26.855,62.988
1572496007.183,28.809,40.527,-172.363,22.949,38.574
1572496007.187,26.855,38.574,72.754,26.367,28.809
1572496007.190,27.832,36.621,242.188,28.809,25.391
1572496007.194,21.973,31.738,115.723,23.926,36.621
1572496007.198,22.461,29.297,11.230,23.926,23.438
1572496007.202,23.926,28.809,61.523,23.926,22.461
1572496007.206,21.484,28.320,104.492,25.879,36.133
1572496007.210,26.855,25.879,-162.598,23.926,8.301
1572496007.214,27.832,35.156,-169.922,17.090,-5.371
1572496007.218,19.043,43.457,144.043,17.090,15.625
1572496007.222,13.184,34.180,61.035,15.625,11.719
1572496007.226,13.184,27.344,-54.688,11.230,12.695
1572496007.230,11.719,28.809,123.535,7.812,52.734
1572496007.233,13.672,32.715,300.781,4.883,61.035
1572496007.237,22.461,36.133,166.992,11.719,32.227
1572496007.241,19.531,30.762,-129.395,13.184,13.672
1572496007.245,12.207,29.785,-12.695,5.371,41.992
1572496007.249,10.254,34.668,320.801,-0.488,83.496
1572496007.253,12.207,31.250,162.598,3.906,57.129
1572496007.257,26.855,34.668,-150.391,12.695,22.949
1572496007.261,31.738,41.016,49.805,15.625,31.250
1572496007.265,27.344,39.062,304.688,13.184,47.363
1572496007.269,28.809,32.715,118.164,11.230,57.617
1572496007.273,32.227,30.273,-41.992,11.230,38.574
1572496007.276,27.832,28.809,130.371,12.695,38.086
1572496007.280,25.879,25.391,192.383,13.184,65.918
1572496007.284,28.809,24.902,141.113,15.137,41.016
1572496007.288,28.320,28.809,43.457,23.438,17.578
1572496007.292,31.738,27.832,45.898,25.391,34.180
1572496007.296,34.180,21.973,120.117,24.902,32.715
1572496007.300,39.551,18.555,-46.875,28.320,35.645
1572496007.304,44.922,20.996,-125.977,31.738,21.973
1572496007.308,49.316,30.273,241.211,46.387,49.316
1572496007.312,53.223,24.902,278.320,50.781,70.801
1572496007.315,50.293,21.484,62.012,43.945,31.738
1572496007.319,47.852,27.832,157.227,45.410,40.527
1572496007.323,47.852,31.738,306.641,47.363,67.383
1572496007.327,49.805,34.668,154.297,49.316,29.785
1572496007.331,46.387,35.156,-29.297,48.340,-14.160
1572496007.335,39.551,31.738,-51.758,38.574,-2.930
1572496007.339,36.621,31.250,-41.016,36.133,3.418
1572496007.343,36.621,27.344,-77.148,36.621,11.230
1572496007.347,32.715,28.809,-253.906,30.762,29.297
1572496007.351,27.832,36.621,-69.336,26.855,39.551
1572496007.355,29.785,35.645,213.867,26.855,41.016
1572496007.358,31.250,38.086,149.902,25.391,52.734
1572496007.362,28.809,41.992,160.156,24.902,67.383
1572496007.366,22.949,32.715,194.824,20.508,35.156
1572496007.370,26.367,32.715,211.914,18.066,46.875
1572496007.374,30.762,34.668,99.121,20.996,22.461
1572496007.378,23.438,29.297,41.016,12.207,-3.418
1572496007.382,19.531,31.738,25.879,7.324,26.855
1572496007.386,15.137,32.715,42.480,3.906,37.598
1572496007.390,10.254,30.762,-109.863,-5.859,34.668
1572496007.394,4.395,26.855,-261.230,-11.719,10.742
1572496007.398,4.883,30.273,85.449,-0.977,24.902
1572496007.401,8.789,35.156,174.316,14.160,44.922
1572496007.405,6.836,29.785,22.949,10.742,39.062
1572496007.409,7.324,27.832,87.891,10.254,37.109
1572496007.413,13.184,28.809,179.688,24.902,24.414
1572496007.417,17.090,26.855,25.391,30.273,-14.648
1572496007.421,20.508,32.715,6.348,32.715,8.301
1572496007.425,23.926,34.668,152.832,32.715,46.387
1572496007.429,20.508,27.832,60.059,35.156,28.809
1572496007.433,25.879,29.297,-104.004,41.504,28.809
1572496007.437,34.180,38.574,-77.148,41.016,30.762
1572496007.440,33.691,45.410,103.516,32.227,22.949
1572496007.444,36.621,45.898,119.629,35.156,15.625
1572496007.448,39.551,41.992,-121.582,39.062,10.742
1572496007.452,40.527,41.992,-292.969,34.668,-14.160
1572496007.456,36.133,39.551,-21.484,30.762,1.953
1572496007.460,33.203,41.992,178.223,23.438,39.062
1572496007.464,36.133,48.828,92.285,21.484,38.574
1572496007.468,33.203,49.316,79.102,23.926,33.691
1572496007.472,25.879,48.828,97.168,20.020,1.465
1572496007.476,22.461,43.457,9.766,19.043,19.043
1572496007.480,19.531,38.086,-81.055,19.531,52.246
1572496007.483,15.625,37.109,-14.160,14.160,31.250
1572496007.487,16.602,44.434,125.000,17.090,26.367
1572496007.491,17.090,39.551,147.949,20.020,27.832
1572496007.495,9.766,25.391,-180.176,8.301,4.883
1572496007.499,3.906,29.785,-225.586,7.324,10.254
1572496007.503,4.883,31.738,17.578,21.973,17.578
1572496007.507,8.301,24.902,-22.949,30.273,22.461
1572496007.511,11.230,25.391,18.066,31.738,58.594
1572496007.515,2.930,22.949,91.797,26.855,46.875
1572496007.519,4.883,22.949,168.945,29.297,46.387
1572496007.523,20.996,21.484,-11.230,41.992,44.922
1572496007.526,24.902,22.461,-192.383,41.016,40.527
1572496007.530,23.438,32.715,20.996,38.086,50.293
1572496007.534,19.043,33.203,170.898,35.156,53.223
1572496007.538,8.789,19.531,20.508,25.879,54.199
1572496007.542,6.836,5.371,-362.305,26.855,0.488
1572496007.546,8.301,6.348,-142.578,33.203,25.391
1572496007.550,0.488,14.160,126.465,19.043,46.875
1572496007.554,-9.277,17.578,-42.480,-0.977,14.648
1572496007.558,-1.465,21.973,-83.984,3.418,43.457
1572496007.562,6.348,24.414,23.438,14.160,59.570
1572496007.565,-4.883,22.461,124.023,9.766,50.781
1572496007.569,-6.836,17.090,-16.602,4.883,32.227
1572496007.573,-2.441,17.090,-149.414,6.348,21.973
1572496007.577,2.441,28.320,6.348,9.766,38.086
1572496007.581,7.324,31.250,152.832,12.207,50.293
1572496007.585,8.789,26.855,-181.152,7.812,11.230
1572496007.589,13.672,28.320,-301.270,10.742,-12.207
1572496007.593,25.391,30.762,60.059,28.320,16.602
1572496007.597,32.227,35.645,62.012,34.180,22.949
1572496007.601,33.691,40.039,-16.602,30.762,33.203
1572496007.605,41.016,44.434,76.660,34.668,36.133
1572496007.608,46.387,47.363,182.129,42.969,41.016
1572496007.612,53.223,39.551,55.664,49.316,22.461
1572496007.616,59.082,33.691,-161.133,54.688,3.906
1572496007.620,60.547,36.621,-113.281,56.152,15.137
1572496007.624,54.688,40.527,7.324,50.293,42.480
1572496007.628,51.758,40.039,-92.773,47.363,31.250
1572496007.632,55.664,39.551,-308.105,44.434,-8.301
1572496007.636,58.594,44.434,-76.660,47.363,9.766
1572496007.640,58.105,45.898,231.934,53.711,51.270
1572496007.644,54.688,41.504,49.316,50.293,36.133
1572496007.648,51.270,37.598,-62.988,43.945,17.090
1572496007.651,49.316,36.621,129.883,37.109,28.320
1572496007.655,46.387,41.016,81.055,29.785,-9.766
1572496007.659,38.086,41.016,16.602,20.508,13.672
1572496007.663,35.156,37.109,-17.090,18.555,39.551
1572496007.667,32.227,32.715,-52.246,23.926,14.160
1572496007.671,26.855,28.809,8.301,28.320,33.203
1572496007.675,22.461,25.879,-154.297,21.484,47.363
1572496007.679,10.742,24.902,-183.594,17.090,33.691
1572496007.683,6.836,24.902,134.766,21.973,20.020
1572496007.687,5.371,17.578,85.938,21.484,-13.184
1572496007.690,4.883,14.160,-45.410,20.020,3.418
1572496007.694,12.695,16.602,94.727,22.461,37.598
1572496007.698,16.602,13.184,269.043,25.391,56.641
1572496007.702,21.484,11.230,159.180,26.855,41.992
1572496007.706,24.414,15.625,-62.012,20.020,18.555
1572496007.710,26.855,19.531,-5.859,20.020,39.062
1572496007.714,23.926,17.578,42.480,21.484,20.508
1572496007.718,21.484,16.602,-61.035,22.461,12.695
1572496007.722,31.250,17.090,-193.359,33.203,20.020
1572496007.726,26.367,16.602,-25.391,32.715,4.883
1572496007.730,20.020,12.695,148.926,29.297,10.254
1572496007.733,25.391,8.789,-19.043,31.738,11.719
1572496007.737,26.367,14.648,-113.770,29.297,17.090
1572496007.741,22.949,21.484,105.957,27.344,9.766
1572496007.745,21.484,20.508,194.336,28.809,10.254
1572496007.749,22.949,20.508,129.883,22.461,36.621
1572496007.753,18.066,30.273,175.781,14.648,59.570
1572496007.757,19.531,35.645,145.996,15.625,44.922
1572496007.761,27.344,34.668,37.598,18.555,17.090
1572496007.765,24.902,36.621,-124.512,12.695,21.973
1572496007.769,9.766,36.621,-177.246,0.000,25.391
1572496007.773,4.883,36.133,141.602,-0.488,31.250
1572496007.776,14.160,33.203,288.086,5.371,51.758
1572496007.780,21.484,36.621,-33.691,4.883,30.762
1572496007.784,25.391,42.969,-258.301,6.836,-32.715
1572496007.788,23.438,42.969,49.316,11.230,-4.395
1572496007.792,19.531,39.062,164.551,10.254,22.461
1572496007.796,28.320,32.715,181.152,22.461,36.621
1572496007.800,41.504,34.668,289.551,39.551,50.781
1572496007.804,42.480,39.551,182.617,40.527,25.391
1572496007.808,40.039,34.668,3.418,33.691,18.555
1572496007.812,47.363,33.691,-169.434,34.180,11.230
1572496007.815,49.316,39.551,64.453,37.598,36.621
1572496007.819,49.805,40.039,322.266,45.898,51.270
1572496007.823,56.152,34.668,164.062,53.711,23.438
1572496007.827,56.641,36.133,144.531,56.152,33.203
1572496007.831,53.711,30.273,237.305,53.711,37.109
1572496007.835,51.270,24.902,207.520,50.781,17.090
1572496007.839,49.316,32.715,192.871,44.922,49.316
1572496007.843,47.852,30.762,166.016,42.969,72.754
1572496007.847,44.922,26.367,186.523,42.969,40.039
1572496007.851,45.898,25.879,83.008,44.434,15.625
1572496007.855,37.598,23.438,41.992,41.504,25.879
1572496007.858,27.344,20.020,199.219,34.668,44.922
1572496007.862,33.691,23.926,212.891,41.992,22.949
1572496007.866,34.668,28.320,222.168,44.434,16.602
1572496007.870,24.902,24.414,-79.590,25.391,5.371
1572496007.874,15.137,29.785,-170.410,14.648,3.418
1572496007.878,17.578,37.598,264.160,22.461,56.152
1572496007.882,26.367,36.621,245.605,29.785,42.480
1572496007.886,28.320,31.738,82.520,30.273,7.324
1572496007.890,25.391,28.320,239.258,23.438,45.898
1572496007.894,19.043,31.250,395.996,15.137,103.027
1572496007.898,20.508,30.762,165.527,15.137,67.383
1572496007.901,21.973,31.738,-37.598,16.602,31.250
1572496007.905,25.879,38.086,105.957,17.578,46.875
1572496007.909,28.809,34.668,270.996,18.555,42.969
1572496007.913,31.250,27.344,113.770,21.484,29.785
1572496007.917,34.668,30.273,-136.719,20.020,19.531
1572496007.921,28.320,40.527,78.125,16.602,30.273
1572496007.925,31.738,43.457,224.121,22.949,29.297
1572496007.929,36.621,36.133,106.445,29.297,15.625
1572496007.933,34.668,29.297,91.797,29.297,19.531
1572496007.937,39.551,30.762,251.465,31.738,60.547
1572496007.940,42.480,34.668,297.852,35.645,77.148
1572496007.944,43.945,38.086,74.707,32.715,34.668
1572496007.948,44.434,38.574,-91.797,28.320,5.371
1572496007.952,46.387,38.086,58.105,25.879,24.902
1572496007.956,57.129,42.969,114.258,39.062,35.645
1572496007.960,59.082,44.434,-195.801,42.969,0.977
1572496007.964,45.410,39.551,-127.441,32.227,25.391
1572496007.968,41.016,40.039,275.391,40.039,80.566
1572496007.972,50.293,40.039,226.074,47.852,66.895
1572496007.976,46.875,39.062,33.691,40.039,41.992
1572496007.980,35.156,38.574,87.402,28.320,37.598
1572496007.983,31.250,39.062,160.645,25.879,18.555
1572496007.987,36.133,45.410,85.938,31.738,22.949
1572496007.991,35.645,41.016,-8.301,34.668,50.781
1572496007.995,28.809,33.203,3.418,31.250,50.293
1572496007.999,20.020,31.738,122.070,26.855,33.203
1572496008.003,21.973,31.738,50.293,32.715,30.273
1572496008.007,28.320,32.715,-164.551,37.598,33.691
1572496008.011,25.391,27.344,-65.918,35.645,25.391
1572496008.015,22.461,20.020,40.039,32.227,12.207
1572496008.019,26.855,24.902,26.855,28.809,20.020
1572496008.023,26.367,30.273,52.246,23.926,34.668
1572496008.026,24.902,26.855,172.852,20.996,45.898
1572496008.030,28.320,20.508,185.547,22.461,33.691
1572496008.034,25.391,14.648,-21.484,22.461,12.207
1572496008.038,22.949,17.578,-130.859,22.949,18.555
1572496008.042,19.531,24.902,-67.871,18.555,18.066
1572496008.046,19.531,27.344,21.484,20.508,17.090
1572496008.050,21.484,23.438,-142.578,25.879,0.977
1572496008.054,18.066,27.344,-215.820,20.996,-5.371
1572496008.058,12.207,32.715,166.016,17.578,26.367
1572496008.062,15.137,29.297,197.754,19.531,27.344
1572496008.065,19.531,26.367,126.465,18.066,48.828
1572496008.069,14.648,21.484,136.230,15.137,49.316
1572496008.073,12.695,16.602,222.168,15.625,39.062
1572496008.077,17.578,15.625,184.082,17.090,35.645
1572496008.081,21.484,19.043,38.574,20.020,31.738
1572496008.085,27.832,27.344,66.406,23.438,55.176
1572496008.089,24.414,28.809,119.141,19.531,62.988
1572496008.093,20.996,22.949,70.801,13.184,43.457
1572496008.097,26.855,22.949,-122.559,18.066,29.785
1572496008.101,29.297,26.367,57.617,24.414,35.645
1572496008.105,29.785,27.344,293.945,21.973,47.852
1572496008.108,29.297,26.367,183.594,20.020,49.805
1572496008.112,26.367,24.414,152.832,19.531,53.711
1572496008.116,27.832,24.902,277.344,21.973,55.664
1572496008.120,30.273,25.391,277.832,25.391,49.316
1572496008.124,34.180,24.414,118.164,30.762,38.086
1572496008.128,39.062,26.367,127.930,38.574,52.246
1572496008.132,40.527,28.809,185.059,43.945,71.289
1572496008.136,40.527,32.227,77.637,46.387,44.922
1572496008.140,38.574,31.738,-147.949,39.062,19.043
1572496008.144,36.621,30.273,-239.746,35.645,-8.789
1572496008.148,32.715,30.273,132.812,37.598,18.066
1572496008.151,35.645,25.391,216.309,41.016,39.062
1572496008.155,35.156,21.484,64.941,45.898,22.949
1572496008.159,33.691,22.461,188.965,46.875,61.035
1572496008.163,37.598,28.320,299.805,47.852,64.941
1572496008.167,40.039,31.250,193.848,49.316,50.781
1572496008.171,40.039,32.715,-0.488,45.410,25.879
1572496008.175,34.180,30.273,59.082,38.574,11.230
1572496008.179,27.344,25.879,86.914,27.832,33.691
1572496008.183,23.926,27.832,-43.457,20.996,41.016
1572496008.187,25.391,26.855,-198.730,19.043,37.109
1572496008.190,22.461,22.461,-105.957,18.066,38.574
1572496008.194,22.461,19.043,174.805,22.949,49.316
1572496008.198,24.902,20.020,137.695,25.879,42.480
1572496008.202,23.438,27.344,61.523,25.391,20.996
1572496008.206,24.414,31.738,195.312,28.320,27.832
1572496008.210,26.855,28.320,207.520,27.344,21.973
1572496008.214,28.809,23.926,61.035,28.809,5.859
1572496008.218,25.391,27.344,89.355,31.250,33.691
1572496008.222,24.902,32.227,248.047,30.273,60.547
1572496008.226,24.902,30.762,169.434,32.227,49.805
1572496008.230,22.949,26.855,-178.711,25.879,19.043
1572496008.233,23.926,27.344,-204.590,20.508,33.203
1572496008.237,28.320,34.668,89.355,30.273,42.969
1572496008.241,34.668,36.133,89.355,38.574,35.645
1572496008.245,34.668,31.738,71.289,35.156,39.062
1572496008.249,28.809,31.738,138.672,31.250,30.762
1572496008.253,25.391,32.227,229.980,29.297,37.598
1572496008.257,23.926,26.855,136.719,26.367,25.391
1572496008.261,19.531,20.996,-50.293,23.438,8.789
1572496008.265,16.602,25.391,78.613,22.949,35.645
1572496008.269,16.602,28.809,215.820,20.508,46.875
1572496008.273,17.090,30.762,11.719,13.672,29.297
1572496008.276,15.625,32.227,-291.016,7.812,12.207
1572496008.280,15.137,35.156,-127.441,6.836,13.672
1572496008.284,14.648,39.551,188.477,9.766,41.504
1572496008.288,13.672,35.645,26.855,12.695,24.902
1572496008.292,18.555,30.273,-100.586,12.207,11.719
1572496008.296,20.996,30.273,41.016,12.207,35.156
1572496008.300,21.973,33.203,121.582,18.555,37.598
1572496008.304,30.762,37.598,41.992,31.250,22.461
1572496008.308,37.598,41.992,48.828,35.645,40.527
1572496008.312,35.645,43.945,157.715,30.273,43.945
1572496008.315,36.133,42.480,176.758,34.668,30.273
1572496008.319,44.922,41.016,-101.074,38.086,10.254
1572496008.323,42.969,41.504,-358.398,31.738,-9.277
1572496008.327,39.062,41.992,-48.828,31.738,34.180
1572496008.331,44.434,43.457,211.914,40.039,57.617
1572496008.335,43.457,40.039,-77.148,38.574,25.879
1572496008.339,33.203,40.039,-271.484,27.344,1.465
1572496008.343,25.391,40.527,44.434,26.367,5.371
1572496008.347,29.297,34.668,136.230,31.738,31.250
1572496008.351,30.762,35.156,5.371,31.250,47.852
1572496008.355,23.926,34.180,-23.438,23.926,22.461
1572496008.358,26.367,36.133,136.719,27.832,22.949
1572496008.362,26.367,40.527,81.055,31.250,19.043
1572496008.366,17.578,30.273,-212.891,17.578,-11.230
1572496008.370,7.812,19.531,-95.703,9.277,12.695
1572496008.374,3.418,23.926,200.195,8.301,51.758
1572496008.378,1.465,27.832,102.539,8.301,43.945
1572496008.382,-1.953,26.855,-221.191,1.953,24.414
1572496008.386,-2.441,30.762,-78.125,-5.371,29.297
1572496008.390,-0.488,34.668,179.199,0.488,30.273
1572496008.394,1.953,37.109,44.922,4.395,8.301
1572496008.398,9.766,41.504,-47.852,10.742,0.000
1572496008.401,17.578,41.016,102.051,18.555,14.648
1572496008.405,18.555,33.691,200.195,18.555,33.691
1572496008.409,22.461,27.832,-28.809,18.066,26.855
1572496008.413,36.133,33.691,-183.594,26.855,-8.301
1572496008.417,42.969,40.039,-51.270,38.086,-1.465
1572496008.421,40.039,37.109,98.145,40.039,23.926
1572496008.425,46.387,33.203,-101.074,37.109,2.441
1572496008.429,52.246,31.738,-231.934,37.109,-9.277
1572496008.433,51.758,41.504,168.945,41.992,37.109
1572496008.437,60.547,51.758,194.336,49.316,30.762
1572496008.440,53.711,48.340,81.543,43.945,26.855
1572496008.444,39.062,41.504,213.379,30.762,63.477
1572496008.448,37.109,35.156,223.633,31.738,31.738
1572496008.452,34.180,32.715,47.363,32.227,-14.160
1572496008.456,28.320,34.668,-51.758,22.949,-23.926
1572496008.460,30.762,37.109,-10.742,24.902,9.766
1572496008.464,23.926,37.598,14.160,25.879,34.668
1572496008.468,21.484,34.180,-75.195,22.949,17.090
1572496008.472,27.832,37.598,-160.645,26.855,34.668
1572496008.476,19.043,39.551,70.312,22.461,52.246
1572496008.480,14.160,35.645,235.840,14.160,49.316
1572496008.483,19.531,37.598,85.449,16.602,21.484
1572496008.487,16.602,39.551,19.043,20.996,-1.465
1572496008.491,15.137,36.133,162.598,17.090,26.855
1572496008.495,20.508,33.203,179.688,14.648,32.227
1572496008.499,20.508,36.621,71.289,11.719,28.809
1572496008.503,19.531,42.969,89.355,11.230,44.922
1572496008.507,24.414,46.875,78.613,19.531,55.176
1572496008.511,25.879,45.898,95.215,25.879,60.059
1572496008.515,26.367,38.086,-26.855,20.996,53.711
1572496008.519,23.926,29.297,-179.688,12.207,38.574
1572496008.523,23.438,32.227,11.719,19.043,30.762
1572496008.526,31.250,36.133,152.344,21.973,62.012
1572496008.530,37.598,31.738,104.004,23.438,61.523
1572496008.534,36.133,33.691,93.262,27.832,29.297
1572496008.538,32.715,36.133,203.613,23.926,40.527
1572496008.542,33.203,31.250,109.863,24.902,35.645
1572496008.546,34.180,27.832,-96.680,33.691,-0.977
1572496008.550,24.902,26.367,45.898,30.273,24.414
1572496008.554,19.043,21.973,53.223,28.320,35.645
1572496008.558,14.160,23.438,-103.516,25.879,35.156
1572496008.562,10.254,27.344,-261.719,16.602,23.438
1572496008.565,8.301,25.391,-114.746,12.207,13.672
1572496008.569,6.348,26.855,184.082,10.742,53.711
1572496008.573,12.695,28.320,93.750,14.648,53.223
1572496008.577,16.602,25.879,-21.973,17.578,41.504
1572496008.581,9.766,22.949,15.625,12.207,29.297
1572496008.585,14.160,28.809,130.859,15.625,42.969
1572496008.589,22.949,36.133,87.891,23.438,52.734
1572496008.593,21.484,31.250,65.918,20.020,50.293
1572496008.597,25.879,27.344,181.152,23.926,57.129
1572496008.601,28.809,28.320,72.754,29.785,39.551
1572496008.605,26.855,32.227,-222.168,20.508,18.066
1572496008.608,28.320,36.133,-336.426,13.184,1.953
1572496008.612,25.391,39.551,21.973,16.113,39.062
1572496008.616,24.902,32.715,166.504,16.602,48.828
1572496008.620,34.180,31.738,43.945,23.926,27.344
1572496008.624,34.668,41.992,110.352,25.391,35.156
1572496008.628,40.527,46.875,207.031,26.855,30.762
1572496008.632,47.852,46.875,94.238,33.203,7.324
1572496008.636,41.992,43.945,-39.062,31.250,16.602
1572496008.640,41.504,43.457,39.551,31.250,12.207
1572496008.644,46.875,41.016,208.496,34.668,37.598
1572496008.648,54.688,39.062,2.441,38.086,18.066
1572496008.651,57.129,39.062,-325.684,38.086,-12.207
1572496008.655,50.293,40.039,-54.688,32.715,37.109
1572496008.659,46.387,34.180,222.656,30.762,47.852
1572496008.663,48.340,38.086,59.570,33.691,25.391
1572496008.667,44.434,42.480,17.090,31.738,36.621
1572496008.671,37.598,36.133,136.719,28.809,34.180
1572496008.675,36.621,36.621,159.668,31.738,28.809
1572496008.679,36.133,35.156,34.180,31.250,20.508
1572496008.683,30.762,32.227,56.152,26.855,45.410
1572496008.687,27.832,31.738,189.453,16.602,49.316
1572496008.690,28.320,29.785,155.762,16.602,42.480
1572496008.694,28.320,23.926,-144.043,18.555,33.203
1572496008.698,29.297,25.391,-302.734,15.137,-3.906
1572496008.702,26.367,35.645,46.875,14.160,16.113
1572496008.706,22.461,32.715,131.836,10.254,23.438
1572496008.710,27.344,28.809,20.508,17.578,22.949
1572496008.714,28.320,32.227,55.664,18.555,19.043
1572496008.718,28.809,31.738,112.793,20.020,-1.953
1572496008.722,31.250,30.273,130.859,29.785,30.762
1572496008.726,29.785,25.879,18.555,28.320,46.387
1572496008.730,33.203,25.879,47.852,24.902,29.297
1572496008.733,27.344,27.344,285.156,25.879,77.637
1572496008.737,23.438,19.043,183.594,29.297,55.664
1572496008.741,27.832,17.578,-227.539,32.227,0.977
1572496008.745,30.762,26.855,-183.105,28.809,7.324
1572496008.749,27.832,34.668,66.406,29.297,23.926
1572496008.753,23.926,32.715,-8.301,29.297,17.578
1572496008.757,25.879,24.414,-54.688,30.762,4.395
1572496008.761,31.250,25.391,190.918,36.621,44.434
1572496008.765,36.621,27.344,260.742,37.109,37.598
1572496008.769,35.645,29.785,80.078,33.691,10.254
1572496008.773,32.715,36.133,75.195,30.762,27.344
1572496008.776,34.180,38.574,186.035,30.762,27.344
1572496008.780,38.086,37.598,264.648,34.180,42.480
1572496008.784,40.527,34.668,86.426,30.273,58.105
1572496008.788,35.645,37.598,-193.848,21.484,35.645
1572496008.792,29.297,40.527,83.984,19.043,48.828
1572496008.796,34.180,43.945,247.559,19.531,43.945
1572496008.800,33.691,43.457,111.328,16.113,24.414
1572496008.804,39.551,42.480,21.973,20.508,7.812
1572496008.808,48.340,47.852,132.812,25.391,15.625
1572496008.812,41.016,51.758,199.707,19.531,36.621
1572496008.815,39.551,55.664,65.430,21.973,39.062
1572496008.819,45.898,55.664,103.516,27.832,58.105
1572496008.823,43.457,53.223,238.281,26.367,68.848
1572496008.827,41.016,46.875,212.402,30.273,46.875
1572496008.831,50.293,43.457,-125.488,36.133,12.207
1572496008.835,58.105,45.410,-172.852,41.016,4.883
1572496008.839,60.547,46.387,0.488,45.898,0.977
1572496008.843,63.965,47.363,-48.828,50.293,2.441
1572496008.847,62.012,46.875,-220.703,49.316,-10.742
1572496008.851,56.641,43.457,1.465,44.922,17.578
1572496008.855,63.477,49.805,286.133,52.734,51.270
1572496008.858,68.359,55.664,111.816,55.176,24.414
1572496008.862,61.035,47.363,10.742,48.340,44.434
1572496008.866,59.082,43.945,137.207,44.922,47.363
1572496008.870,56.152,39.551,201.172,40.039,18.066
1572496008.874,49.316,31.250,9.766,32.227,38.086
1572496008.878,45.898,33.691,-122.559,27.832,31.738
1572496008.882,41.504,36.133,29.297,31.738,37.598
1572496008.886,33.691,27.832,59.570,28.320,39.551
1572496008.890,27.344,22.461,-181.641,19.531,-5.859
1572496008.894,19.043,25.391,-243.164,11.719,-4.883
1572496008.898,7.812,26.855,118.164,4.395,39.062
1572496008.901,4.395,24.414,173.828,1.465,54.688
1572496008.905,6.348,26.367,37.109,0.488,33.691
1572496008.909,3.906,29.785,43.945,-1.953,20.508
1572496008.913,2.441,30.762,139.648,-7.324,36.621
1572496008.917,7.324,32.227,-17.090,-7.812,20.508
1572496008.921,7.324,32.715,-89.355,-1.465,13.672
1572496008.925,5.859,34.668,99.609,5.859,35.156
1572496008.929,10.742,36.621,94.727,14.160,54.199
1572496008.933,12.695,30.273,-80.566,17.090,37.598
1572496008.937,14.648,26.367,-282.715,16.113,-0.977
1572496008.940,17.090,27.344,-62.988,18.555,20.996
1572496008.944,18.555,28.809,205.566,22.949,45.898
1572496008.948,28.320,31.250,98.633,31.738,39.551
1572496008.952,42.480,33.203,70.801,37.598,41.016
1572496008.956,45.898,29.297,156.250,45.410,33.203
1572496008.960,50.781,26.367,157.715,51.758,28.320
1572496008.964,54.199,24.902,49.316,50.293,29.297
1572496008.968,50.293,29.785,22.461,44.434,27.832
1572496008.972,48.828,37.109,122.559,42.969,56.152
1572496008.976,49.316,34.668,10.254,42.969,38.086
1572496008.980,53.223,32.227,-280.762,40.527,0.977
1572496008.983,51.758,35.156,-273.926,38.574,15.625
1572496008.987,41.504,38.574,49.316,33.203,25.391
1572496008.991,32.227,34.180,94.238,22.461,26.855
1572496008.995,28.809,33.203,72.754,18.555,55.664
1572496008.999,30.762,35.156,98.145,21.484,39.551
1572496009.003,32.227,36.133,144.531,30.273,22.461
1572496009.007,32.715,34.668,65.918,33.203,17.578
1572496009.011,28.320,36.133,31.250,27.832,49.805
1572496009.015,26.855,41.016,140.137,24.414,63.965
1572496009.019,28.320,38.086,146.973,22.461,38.574
1572496009.023,28.809,31.250,-42.480,22.461,33.691
1572496009.026,24.902,28.809,-140.625,19.043,20.020
1572496009.030,13.184,30.273,-6.836,9.766,46.387
1572496009.034,8.301,27.832,76.172,8.301,56.641
1572496009.038,10.254,21.484,-18.066,10.254,24.902
1572496009.042,14.648,20.996,-109.863,14.160,9.277
1572496009.046,19.043,24.902,-3.906,19.531,10.254
1572496009.050,18.066,23.438,124.023,19.043,39.551
1572496009.054,26.855,22.461,0.488,24.414,64.941
1572496009.058,35.645,24.414,-274.902,26.855,18.555
1572496009.062,30.762,24.902,-42.969,23.926,17.090
1572496009.065,31.738,28.320,104.980,28.320,33.203
1572496009.069,38.574,32.715,-53.223,35.645,17.578
1572496009.073,38.574,33.203,-127.930,35.645,19.043
1572496009.077,38.574,37.598,25.879,32.227,26.855
1572496009.081,42.480,38.574,133.301,31.738,30.273
1572496009.085,48.340,40.527,-8.789,31.250,36.621
1572496009.089,48.340,42.480,-44.434,29.785,41.504
1572496009.093,45.410,39.551,110.840,32.227,29.297
1572496009.097,47.852,38.574,102.539,35.156,24.414
1572496009.101,46.387,41.992,-1.465,32.227,52.246
1572496009.105,41.504,39.551,23.438,22.949,38.574
1572496009.108,41.504,36.621,110.840,25.391,14.648
1572496009.112,38.574,36.133,48.828,30.273,22.949
1572496009.116,36.621,32.227,-201.660,29.297,16.602
1572496009.120,32.715,33.203,-160.645,30.273,4.395
1572496009.124,30.762,34.180,88.379,35.156,20.020
1572496009.128,28.809,32.715,47.363,39.062,38.086
1572496009.132,26.367,33.203,-46.875,38.574,19.531
1572496009.136,28.320,34.668,112.793,43.457,34.180
1572496009.140,35.156,38.086,143.555,49.316,33.691
1572496009.144,36.133,39.062,-78.613,49.805,4.395
1572496009.148,33.203,34.668,-98.633,51.270,11.230
1572496009.151,35.156,35.156,86.914,54.199,39.062
1572496009.155,31.250,36.621,130.859,52.734,36.621
1572496009.159,30.762,37.109,-113.281,53.223,23.926
1572496009.163,32.227,34.180,-339.844,53.223,32.227
1572496009.167,27.344,33.691,-191.895,58.105,32.227
1572496009.171,24.414,39.551,-140.625,54.199,23.438
1572496009.175,15.137,38.574,-155.762,41.016,29.297
1572496009.179,15.137,31.738,-150.879,35.645,14.160
1572496009.183,20.996,29.297,-131.836,32.715,-11.719
1572496009.187,19.531,31.250,-98.145,32.227,10.254
1572496009.190,13.672,32.227,-160.156,26.367,10.742
1572496009.194,15.625,31.250,-6.348,23.438,19.531
1572496009.198,19.043,29.785,102.051,26.855,31.250
1572496009.202,15.137,27.344,-46.387,20.996,17.090
1572496009.206,17.090,23.926,-331.543,17.090,-26.855
1572496009.210,17.578,27.344,-273.926,18.066,-3.906
1572496009.214,13.184,25.391,9.277,15.625,44.434
1572496009.218,10.254,19.043,-111.328,12.207,10.254
1572496009.222,10.742,20.020,-149.902,14.160,17.090
1572496009.226,15.137,24.902,-54.688,20.996,16.113
1572496009.230,19.043,27.344,-7.324,25.879,18.555
1572496009.233,24.902,26.367,-57.617,28.320,28.809
1572496009.237,32.715,27.832,-153.809,30.762,-5.859
1572496009.241,30.762,26.855,-27.344,32.227,23.926
1572496009.245,27.832,23.926,71.289,29.785,45.410
1572496009.249,33.203,26.367,-102.051,28.809,32.227
1572496009.253,26.367,24.414,-192.383,22.461,48.340
1572496009.257,17.578,18.555,-1.465,20.996,47.363
1572496009.261,17.578,20.508,-32.227,25.391,17.578
1572496009.265,17.578,21.973,-93.262,25.391,25.879
1572496009.269,18.555,20.996,-39.551,31.250,42.480
1572496009.273,10.742,17.578,87.891,25.391,67.871
1572496009.276,9.277,13.184,32.227,21.484,48.340
1572496009.280,13.184,17.578,-168.945,24.414,-3.906
1572496009.284,13.184,21.484,-123.047,23.438,5.859
1572496009.288,16.602,20.508,-14.648,25.391,15.625
1572496009.292,20.020,23.926,-20.020,26.855,24.902
1572496009.296,20.508,23.438,-233.398,21.484,23.438
1572496009.300,16.113,25.391,-194.336,12.695,14.160
1572496009.304,10.254,25.391,47.363,12.207,22.949
1572496009.308,21.973,23.438,-59.570,21.484,21.973
1572496009.312,32.227,27.344,-163.086,24.414,12.207
1572496009.315,29.297,27.832,-35.645,23.926,22.461
1572496009.319,34.180,28.320,81.055,27.344,45.410
1572496009.323,44.434,27.832,-15.625,31.250,36.133
1572496009.327,44.434,24.414,-32.227,34.668,45.410
1572496009.331,42.480,24.902,35.156,39.551,42.480
1572496009.335,35.645,25.879,18.066,36.621,12.695
1572496009.339,23.926,23.926,-104.980,23.438,13.184
1572496009.343,33.203,28.809,-259.277,19.531,13.672
1572496009.347,16.113,35.645,-49.805,31.738,9.766
1572496009.351,-22.461,32.715,51.758,43.945,15.625
1572496009.355,-14.648,27.344,-50.781,42.969,14.648
1572496009.358,-0.977,24.414,-50.781,35.156,14.160
1572496009.362,4.883,23.926,36.621,32.227,37.109
1572496009.366,10.254,22.461,8.789,28.809,36.133
1572496009.370,16.113,23.438,-41.992,26.367,39.062
1572496009.374,24.902,28.320,0.488,31.250,41.992
1572496009.378,22.949,32.227,39.062,24.414,35.645
1572496009.382,23.926,37.598,35.156,17.578,34.668
1572496009.386,26.855,38.086,-161.621,7.812,44.434
1572496009.390,22.461,33.203,-191.406,-1.465,41.504
1572496009.394,21.484,30.273,99.609,5.859,37.109
1572496009.398,17.090,24.902,87.891,10.742,32.715
1572496009.401,11.230,23.438,-280.762,6.836,5.859
1572496009.405,11.230,31.250,-236.816,5.371,14.648
1572496009.409,12.207,35.645,64.453,13.672,41.504
1572496009.413,12.695,34.668,-27.832,19.043,20.508
1572496009.417,23.926,39.551,-69.824,23.926,18.066
1572496009.421,27.344,36.133,13.672,22.949,17.090
1572496009.425,20.996,29.297,61.523,21.973,19.531
1572496009.429,36.133,31.250,-85.938,32.227,11.719
1572496009.433,44.922,31.738,-227.051,30.273,3.906
1572496009.437,41.992,31.250,84.473,25.391,34.668
1572496009.440,45.410,32.715,296.875,31.250,43.945
1572496009.444,54.688,31.738,0.488,35.645,20.020
1572496009.448,62.988,31.250,-167.969,37.598,35.645
1572496009.452,61.035,34.668,157.227,41.504,72.754
1572496009.456,64.453,37.598,248.535,44.434,54.199
1572496009.460,66.406,37.598,96.191,40.527,41.992
1572496009.464,66.406,36.133,128.418,40.039,56.641
1572496009.468,62.012,32.715,229.492,41.992,38.574
1572496009.472,62.500,35.645,210.449,43.457,40.527
1572496009.476,60.059,31.250,-11.230,42.480,50.781
1572496009.480,48.340,22.949,-27.344,30.762,42.480
1572496009.483,45.410,21.484,86.426,24.902,24.902
1572496009.487,45.410,22.461,100.098,28.320,46.387
1572496009.491,47.363,22.949,-204.590,34.668,30.762
1572496009.495,37.598,23.926,-218.750,31.738,21.973
1572496009.499,28.809,23.926,180.176,24.414,50.293
1572496009.503,26.855,19.531,61.523,25.391,26.367
1572496009.507,21.484,19.531,-27.832,27.344,20.020
1572496009.511,18.555,23.438,124.512,24.414,37.598
1572496009.515,22.949,23.926,245.117,32.227,61.523
1572496009.519,27.832,20.020,41.992,29.297,43.945
1572496009.523,25.879,17.578,-228.516,19.531,7.324
1572496009.526,27.344,19.531,-8.301,23.438,11.719
1572496009.530,31.250,19.531,170.410,28.320,33.203
1572496009.534,34.180,20.996,56.641,27.832,17.578
1572496009.538,40.039,23.926,-75.195,32.227,2.441
1572496009.542,49.805,25.391,-81.543,38.574,1.465
1572496009.546,55.176,26.855,-80.566,41.016,15.137
1572496009.550,56.641,31.250,-78.125,45.410,28.809
1572496009.554,55.176,32.227,29.785,43.945,27.344
1572496009.558,54.199,32.715,145.996,41.504,36.133
1572496009.562,55.176,33.203,167.969,46.875,38.574
1572496009.565,49.805,29.297,-88.867,41.992,42.480
1572496009.569,44.434,24.902,-125.488,30.762,40.527
1572496009.573,41.016,24.902,147.949,26.855,37.598
1572496009.577,43.945,27.832,67.383,27.344,18.066
1572496009.581,45.410,29.297,-8.789,31.738,9.277
1572496009.585,42.480,30.273,-4.883,31.738,21.484
1572496009.589,38.086,29.297,35.156,25.879,24.902
1572496009.593,35.156,28.320,64.453,25.879,34.180
1572496009.597,30.762,24.414,-4.883,24.414,32.715
1572496009.601,27.832,24.414,117.188,21.484,17.578
1572496009.605,33.203,28.320,261.230,25.879,34.180
1572496009.608,40.039,28.809,144.043,27.832,43.457
1572496009.612,40.527,29.297,-235.352,11.719,4.883
1572496009.616,41.992,32.715,-69.336,11.230,8.789
1572496009.620,41.016,33.203,272.949,19.043,55.664
1572496009.624,36.133,32.227,175.293,16.602,43.457
1572496009.628,38.574,35.156,95.703,23.926,5.859
1572496009.632,37.598,33.203,74.707,25.391,15.137
1572496009.636,38.086,32.715,35.645,25.879,12.207
1572496009.640,40.039,31.250,66.406,25.879,16.113
1572496009.644,36.133,29.297,189.941,22.949,60.059
1572496009.648,35.645,28.320,299.316,25.391,59.570
1572496009.651,35.645,24.902,234.863,25.391,45.410
1572496009.655,33.691,26.367,-13.184,26.855,47.363
1572496009.659,34.180,27.832,9.277,24.414,35.156
1572496009.663,34.180,25.879,248.047,22.949,47.363
1572496009.667,35.156,25.879,148.926,30.273,29.785
1572496009.671,42.969,28.320,-6.836,35.645,10.742
1572496009.675,43.457,30.762,170.898,34.180,50.781
1572496009.679,41.016,23.926,189.941,34.668,47.852
1572496009.683,44.922,20.508,-18.066,37.598,21.484
1572496009.687,43.457,23.926,20.508,34.180,21.973
1572496009.690,40.527,26.855,185.547,34.180,32.227
1572496009.694,48.340,30.273,224.121,41.504,20.020
1572496009.698,52.246,28.320,36.621,39.551,1.465
1572496009.702,50.293,31.250,-22.461,37.109,21.484
1572496009.706,55.664,42.969,224.609,41.504,71.289
1572496009.710,64.941,44.434,230.469,41.992,67.383
1572496009.714,63.477,37.109,-20.996,36.133,29.297
1572496009.718,56.152,37.109,-197.754,30.762,-0.488
1572496009.722,53.223,40.039,91.309,32.715,23.438
1572496009.726,55.176,37.109,98.145,36.621,35.156
1572496009.730,52.246,39.062,-50.293,41.016,17.578
1572496009.733,45.410,36.621,68.848,38.086,14.160
1572496009.737,41.016,36.621,183.105,32.227,23.438
1572496009.741,38.086,39.062,176.270,32.715,30.273
1572496009.745,37.109,36.621,36.621,29.785,14.648
1572496009.749,35.645,35.645,72.754,28.809,23.438
1572496009.753,33.203,32.715,226.562,29.297,58.594
1572496009.757,31.250,26.855,172.363,28.320,44.434
1572496009.761,31.738,22.461,-188.965,26.855,12.207
1572496009.765,36.133,24.414,-267.578,28.320,14.160
1572496009.769,39.062,24.902,9.766,33.203,33.691
1572496009.773,37.109,23.926,-19.531,33.691,46.387
1572496009.776,35.156,23.926,-80.566,38.086,34.180
1572496009.780,33.203,22.461,125.977,35.645,46.875
1572496009.784,33.691,28.320,271.973,32.715,76.660
1572496009.788,39.062,34.668,146.484,37.598,65.918
1572496009.792,32.715,27.832,50.781,29.297,49.316
1572496009.796,23.926,25.879,155.762,18.066,48.340
1572496009.800,20.508,25.879,164.551,15.625,26.367
1572496009.804,20.996,24.902,-25.391,12.695,15.625
1572496009.808,23.926,28.320,-301.270,8.789,6.348
1572496009.812,21.973,29.785,-74.707,7.324,23.438
1572496009.815,21.484,26.855,153.320,11.719,51.270
1572496009.819,27.344,23.438,10.254,19.531,53.223
1572496009.823,33.691,23.926,-82.520,26.367,55.664
1572496009.827,34.180,22.949,-23.438,30.273,35.156
1572496009.831,38.574,20.996,61.523,36.133,9.277
1572496009.835,38.574,19.531,-124.023,37.598,-1.953
1572496009.839,31.738,16.602,-130.859,31.250,12.207
1572496009.843,32.715,19.531,115.723,32.227,30.273
1572496009.847,35.156,20.020,141.113,38.086,27.832
1572496009.851,32.227,14.648,-196.777,34.180,0.000
1572496009.855,29.297,16.113,-205.078,29.297,12.207
1572496009.858,31.250,20.508,139.648,31.738,31.738
1572496009.862,34.668,22.949,87.402,40.039,23.926
1572496009.866,41.992,27.832,-114.258,48.828,26.855
1572496009.870,44.922,32.715,-20.996,47.852,24.902
1572496009.874,39.062,30.273,99.121,39.062,19.043
1572496009.878,40.527,28.320,-45.898,40.039,15.137
1572496009.882,44.434,33.203,-69.824,44.922,19.531
1572496009.886,39.062,33.691,74.219,36.621,20.996
1572496009.890,38.574,34.180,129.883,34.180,7.324
1572496009.894,39.062,32.715,-3.418,25.391,27.832
1572496009.898,35.645,30.762,-250.000,11.719,13.672
1572496009.901,29.297,31.250,-67.871,17.090,4.883
1572496009.905,23.926,32.227,161.133,20.508,42.969
1572496009.909,23.438,33.203,60.059,20.020,46.387
1572496009.913,19.531,27.832,-72.266,20.996,29.297
1572496009.917,14.160,23.438,-102.051,17.090,6.836
1572496009.921,14.648,27.344,-82.520,15.625,4.883
1572496009.925,12.695,29.785,-257.812,12.207,7.812
1572496009.929,7.812,33.203,-277.832,3.906,21.973
1572496009.933,10.254,37.109,12.207,2.930,22.461
1572496009.937,19.531,32.715,41.016,14.160,0.488
1572496009.940,20.508,26.367,-232.910,17.090,-23.926
1572496009.944,16.602,22.949,-214.355,17.578,-5.859
1572496009.948,22.949,28.809,208.496,24.414,54.688
1572496009.952,22.461,32.227,206.055,16.602,69.824
1572496009.956,21.973,35.645,42.969,13.672,41.992
1572496009.960,22.461,37.109,-15.137,15.137,14.160
1572496009.964,19.043,34.180,55.176,13.672,31.250
1572496009.968,25.879,32.227,62.012,21.484,27.832
1572496009.972,27.832,31.250,15.137,20.508,16.602
1572496009.976,19.043,36.621,134.766,10.742,23.438
1572496009.980,16.113,39.062,245.605,9.277,41.016
1572496009.983,19.531,35.156,36.621,10.742,12.695
1572496009.987,17.578,37.598,-170.410,3.418,9.766
1572496009.991,14.648,40.039,0.977,0.488,31.738
1572496009.995,22.461,41.016,87.402,16.113,32.715
1572496009.999,16.602,37.109,91.309,13.672,35.156
1572496010.003,6.836,28.809,92.285,-0.488,25.391
1572496010.007,7.324,24.414,59.570,0.488,21.484
1572496010.011,3.906,21.973,23.926,-6.836,23.438
1572496010.015,1.465,25.879,-91.309,-11.719,3.906
1572496010.019,6.836,31.738,-63.965,-6.836,-4.395
1572496010.023,11.719,29.297,150.879,1.465,21.973
1572496010.026,15.625,26.367,211.426,7.812,32.227
1572496010.030,23.926,27.344,-144.531,8.789,-5.859
1572496010.034,29.785,33.691,-279.297,13.672,-19.043
1572496010.038,38.086,34.668,102.051,25.879,14.160
1572496010.042,43.945,23.926,115.234,35.156,14.160
1572496010.046,40.527,23.926,-36.621,29.785,7.324
1572496010.050,38.086,27.832,8.789,21.484,24.414
1572496010.054,42.480,33.691,-11.719,24.902,0.488
1572496010.058,46.387,38.574,-148.438,33.691,-15.625
1572496010.062,45.898,35.645,-30.762,33.203,30.762
1572496010.065,42.480,27.344,153.809,28.809,40.527
1572496010.069,39.551,28.809,200.684,27.832,23.926
1572496010.073,31.250,32.227,24.414,18.066,5.859
1572496010.077,26.367,30.762,-202.637,8.789,9.766
1572496010.081,23.438,35.645,59.082,7.812,42.480
1572496010.085,22.949,34.180,158.691,13.672,41.992
1572496010.089,17.578,24.414,20.020,11.719,37.598
1572496010.093,5.371,22.461,152.344,-2.441,69.336
1572496010.097,9.277,26.855,264.160,0.488,68.359
1572496010.101,16.602,24.414,42.969,3.906,16.113
1572496010.105,12.207,25.391,-60.059,-4.883,37.109
1572496010.108,2.441,27.832,74.219,-10.254,46.387
1572496010.112,-2.441,22.949,125.977,-12.207,14.160
1572496010.116,6.348,25.391,213.379,-5.371,41.504
1572496010.120,11.230,25.879,-47.363,-6.348,38.574
1572496010.124,13.184,24.414,-163.086,-8.789,27.344
1572496010.128,13.672,25.879,149.902,-0.488,33.691
1572496010.132,15.137,21.484,140.625,6.348,26.367
1572496010.136,23.926,19.531,62.988,14.160,29.297
1572496010.140,26.855,25.391,136.230,18.066,31.250
1572496010.144,24.414,28.320,126.953,19.043,1.465
1572496010.148,24.414,28.320,-63.477,21.484,-0.977
1572496010.151,21.973,26.855,-59.570,18.066,41.992
1572496010.155,20.508,23.438,138.672,17.578,44.922
1572496010.159,24.902,23.438,205.078,25.879,39.551
1572496010.163,23.926,22.461,14.648,25.391,32.715
1572496010.167,17.090,22.461,-250.000,16.113,3.418
1572496010.171,16.602,23.926,-44.922,15.625,13.184
1572496010.175,19.043,24.902,179.688,20.508,42.969
1572496010.179,19.043,23.926,61.523,21.484,30.273
1572496010.183,18.066,25.391,15.137,16.602,21.973
1572496010.187,14.648,25.391,170.898,12.207,57.617
1572496010.190,10.254,22.461,204.590,11.230,63.965
1572496010.194,3.906,20.996,-24.902,3.906,29.785
1572496010.198,4.395,23.926,-129.883,-0.977,17.090
1572496010.202,5.859,27.344,30.762,0.000,24.414
1572496010.206,1.465,22.949,157.227,6.348,44.434
1572496010.210,3.418,18.555,-143.555,11.230,19.043
1572496010.214,7.812,18.066,-307.129,8.301,-2.930
1572496010.218,7.324,20.996,-28.809,8.301,33.203
1572496010.222,10.742,23.438,15.625,15.625,38.086
1572496010.226,18.066,21.973,-114.258,19.043,21.484
1572496010.230,21.973,20.020,-71.777,19.043,15.137
1572496010.233,24.902,14.648,92.773,24.414,22.461
1572496010.237,32.715,13.184,40.039,36.133,27.344
1572496010.241,32.715,16.602,-86.426,33.203,25.391
1572496010.245,29.297,17.090,-116.699,20.020,24.902
1572496010.249,30.762,19.043,16.113,21.973,29.297
1572496010.253,35.156,19.043,-71.777,29.297,5.859
1572496010.257,44.434,22.461,-152.832,36.133,12.207
1572496010.261,40.039,24.902,63.965,30.273,48.828
1572496010.265,40.039,26.367,100.586,32.715,27.832
1572496010.269,42.969,31.738,-60.059,35.156,26.855
1572496010.273,37.598,25.879,-312.012,20.508,3.906
1572496010.276,37.109,24.414,-212.891,21.484,1.953
1572496010.280,41.504,31.738,-3.418,26.855,30.762
1572496010.284,41.016,38.574,-7.324,23.438,31.250
1572496010.288,33.691,39.062,-87.891,15.625,36.133
1572496010.292,32.715,36.621,-74.219,16.113,40.527
1572496010.296,43.457,36.621,-57.129,25.879,57.129
1572496010.300,50.293,39.551,-56.152,33.691,56.152
1572496010.304,41.504,41.992,21.973,25.391,35.156
1572496010.308,31.250,36.133,136.230,13.184,48.340
1572496010.312,33.203,32.715,166.016,18.555,55.176
1572496010.315,38.086,29.297,-174.316,28.809,12.695
1572496010.319,31.250,27.344,-298.828,29.785,-14.160
1572496010.323,24.414,30.762,89.355,26.367,32.715
1572496010.327,34.668,33.203,120.605,34.668,55.664
1572496010.331,45.410,29.785,-82.031,41.992,30.273
1572496010.335,44.434,26.855,-154.785,42.969,7.812
1572496010.339,47.852,32.227,-37.109,45.898,29.785
1572496010.343,52.734,34.668,-17.090,47.363,27.344
1572496010.347,54.688,32.715,-36.621,50.293,21.973
1572496010.351,51.758,32.227,91.797,49.805,28.320
1572496010.355,50.293,33.691,202.148,50.781,44.922
1572496010.358,47.363,28.320,20.508,42.480,26.367
1572496010.362,45.898,28.320,-247.070,34.668,9.766
1572496010.366,47.363,30.273,-48.828,37.598,17.090
1572496010.370,42.969,25.391,118.652,38.086,12.207
1572496010.374,33.691,20.508,33.203,35.156,23.926
1572496010.378,31.738,17.090,7.812,34.668,23.926
1572496010.382,33.203,20.020,22.949,30.762,20.996
1572496010.386,22.461,19.043,-144.043,16.602,-11.719
1572496010.390,15.137,15.625,-178.711,13.672,-7.324
1572496010.394,14.648,18.066,28.809,15.137,41.992
1572496010.398,14.160,18.555,135.742,15.137,36.133
1572496010.401,13.672,17.090,154.297,19.531,28.809
1572496010.405,16.602,17.090,-143.555,26.367,18.555
1572496010.409,11.230,16.602,-282.227,17.578,-5.371
1572496010.413,2.930,15.137,61.523,11.719,12.695
1572496010.417,10.254,15.625,88.379,25.391,23.438
1572496010.421,10.742,7.812,-4.395,29.785,25.391
1572496010.425,4.395,7.812,90.820,24.414,29.297
1572496010.429,13.184,15.137,96.680,30.273,47.363
1572496010.433,26.855,13.184,-40.039,34.180,50.781
1572496010.437,27.832,10.742,-116.211,31.250,19.531
1572496010.440,24.414,14.648,-48.828,30.762,18.066
1572496010.444,24.902,19.531,38.086,35.156,34.180
1572496010.448,32.227,20.020,-85.938,41.992,15.625
1572496010.452,39.062,20.020,-242.188,38.574,10.742
1572496010.456,38.086,23.926,25.879,36.621,35.645
1572496010.460,41.992,25.879,275.391,40.039,57.129
1572496010.464,46.387,22.461,114.258,39.062,32.715
1572496010.468,48.828,20.508,92.773,35.645,29.297
1572496010.472,54.199,21.973,221.191,36.133,32.715
1572496010.476,54.688,28.320,146.973,41.504,25.391
1572496010.480,51.758,28.809,-88.867,33.691,17.090
1572496010.483,43.945,23.438,-236.328,22.461,11.230
1572496010.487,35.645,27.832,96.680,23.926,33.203
1572496010.491,31.250,34.180,372.070,21.484,43.457
1572496010.495,36.133,34.668,99.121,23.926,22.949
1572496010.499,34.180,33.203,-91.309,21.484,6.836
1572496010.503,16.113,32.715,222.656,13.184,40.527
1572496010.507,16.113,31.738,232.422,14.160,18.555
1572496010.511,22.461,27.832,116.699,18.555,18.555
1572496010.515,18.066,28.320,318.848,18.555,65.918
1572496010.519,17.090,28.809,431.152,15.137,58.594
1572496010.523,19.043,27.832,200.195,10.254,27.832
1572496010.526,19.531,30.273,77.148,8.301,18.066
1572496010.530,17.090,27.344,279.297,7.812,40.527
1572496010.534,18.555,25.879,373.047,11.719,43.945
1572496010.538,26.855,29.785,218.750,15.625,27.832
1572496010.542,25.391,24.414,-39.062,9.277,11.719
1572496010.546,21.484,23.438,183.105,10.254,46.875
1572496010.550,20.996,26.855,398.438,14.160,63.477
1572496010.554,20.508,29.297,220.703,3.906,22.949
1572496010.558,18.555,29.297,123.047,-0.977,18.555
1572496010.562,21.973,27.832,272.949,5.859,42.969
1572496010.565,27.832,31.250,329.590,13.184,36.133
1572496010.569,32.715,36.621,167.969,15.137,20.508
1572496010.573,33.203,36.133,104.980,9.277,48.340
1572496010.577,30.762,32.715,209.961,3.906,47.363
1572496010.581,28.809,24.902,271.973,5.371,33.203
1572496010.585,30.762,21.973,127.441,11.230,36.621
1572496010.589,29.297,26.367,149.902,8.301,54.199
1572496010.593,25.391,28.809,259.766,2.930,48.828
1572496010.597,32.715,32.227,222.168,10.742,27.832
1572496010.601,37.109,31.250,-92.285,17.090,15.137
1572496010.605,43.457,37.598,-184.082,28.320,11.230
1572496010.608,41.992,38.574,167.969,30.762,31.738
1572496010.612,34.668,24.902,171.387,24.414,59.570
1572496010.616,38.574,22.949,5.859,28.320,61.523
1572496010.620,38.086,26.855,-32.715,28.320,43.945
1572496010.624,39.062,33.691,34.668,29.297,31.250
1572496010.628,45.410,35.156,42.480,37.598,39.062
1572496010.632,42.480,27.344,-187.500,35.645,41.504
1572496010.636,38.574,28.809,-66.406,32.715,45.410
1572496010.640,39.551,33.691,156.250,38.574,41.504
1572496010.644,37.598,30.762,-42.480,42.969,20.020
1572496010.648,39.062,31.250,-82.031,43.945,40.039
1572496010.651,38.086,33.203,70.312,41.504,34.668
1572496010.655,34.180,32.227,121.582,36.133,44.434
1572496010.659,37.598,28.320,51.758,35.156,47.363
1572496010.663,45.410,26.367,-106.445,39.062,22.461
1572496010.667,45.410,27.344,-147.461,37.109,13.672
1572496010.671,39.551,28.320,-108.887,26.855,19.043
1572496010.675,41.016,32.227,-241.211,28.320,24.414
1572496010.679,40.527,31.250,-429.199,21.484,-2.930
1572496010.683,38.086,26.855,-77.637,18.555,33.691
1572496010.687,38.086,25.391,91.797,25.391,41.016
1572496010.690,32.715,19.531,-66.895,18.555,3.418
1572496010.694,30.762,12.207,4.395,17.578,9.277
1572496010.698,34.180,14.648,123.535,27.344,27.832
1572496010.702,30.762,18.555,134.277,22.949,63.477
1572496010.706,27.832,20.020,36.621,14.648,46.875
1572496010.710,28.320,18.555,-44.922,16.602,10.254
1572496010.714,29.297,14.648,-33.691,18.555,34.180
1572496010.718,30.762,12.695,-101.074,23.438,32.715
1572496010.722,35.645,8.301,-347.168,30.762,-9.277
1572496010.726,31.738,15.137,-279.297,29.297,-9.766
1572496010.730,20.996,22.461,-51.758,24.414,13.672
1572496010.733,23.438,23.438,0.977,29.297,35.645
1572496010.737,28.809,27.832,-7.812,34.668,19.531
1572496010.741,24.414,27.832,87.891,31.250,20.996
1572496010.745,19.531,23.438,149.414,31.250,44.434
1572496010.749,22.461,25.879,48.828,34.668,23.438
1572496010.753,26.367,23.438,76.172,35.645,39.062
1572496010.757,23.438,16.113,40.527,35.156,47.363
1572496010.761,18.555,20.996,9.766,28.809,55.176
1572496010.765,24.414,25.391,50.781,29.297,50.781
1572496010.769,28.320,20.996,48.828,36.133,29.785
1572496010.773,27.832,15.137,120.605,34.668,31.250
1572496010.776,33.203,14.648,145.508,32.715,25.391
1572496010.780,38.574,17.090,-212.891,35.645,-14.648
1572496010.784,40.039,23.438,-389.648,34.668,-9.277
1572496010.788,39.551,34.180,2.441,30.762,31.738
1572496010.792,45.410,37.598,49.316,34.668,19.531
1572496010.796,51.270,33.203,-94.727,41.016,-7.324
1572496010.800,53.223,33.203,77.148,49.316,38.574
1572496010.804,56.641,37.109,149.902,54.199,82.031
1572496010.808,53.223,35.156,-38.086,47.363,58.594
1572496010.812,50.781,39.062,-105.469,41.504,31.250
1572496010.815,53.711,42.480,7.324,46.387,2.441
1572496010.819,51.270,34.668,134.277,45.898,14.160
1572496010.823,49.805,29.297,33.691,44.922,25.879
1572496010.827,51.758,32.715,-260.254,43.945,-3.906
1572496010.831,49.316,39.062,-81.055,41.016,7.324
1572496010.835,48.340,40.527,192.383,43.457,42.969
1572496010.839,52.734,32.715,50.293,43.945,31.738
1572496010.843,41.992,24.902,-1.953,35.156,20.508
1572496010.847,29.297,18.555,141.602,26.855,20.508
1572496010.851,31.250,18.555,50.781,29.785,21.484
1572496010.855,30.273,18.066,-96.191,25.879,32.715
1572496010.858,30.273,18.066,10.742,22.949,31.738
1572496010.862,32.227,20.996,138.672,24.414,12.695
1572496010.866,23.926,20.020,189.453,19.043,18.066
1572496010.870,17.578,17.578,-48.828,8.301,24.414
1572496010.874,14.648,15.137,-197.266,-0.977,5.859
1572496010.878,8.789,15.137,170.410,-2.930,40.527
1572496010.882,8.301,13.184,223.633,-1.465,53.711
1572496010.886,7.812,15.137,40.527,0.488,18.066
1572496010.890,-0.488,13.184,117.188,-3.418,26.367
1572496010.894,-6.836,9.277,254.883,-12.207,57.617
1572496010.898,0.488,12.207,93.262,-10.742,47.852
1572496010.901,8.789,12.695,-110.352,-2.930,20.020
1572496010.905,13.672,18.555,-35.645,6.836,4.883
1572496010.909,20.020,22.949,149.414,14.160,11.719
1572496010.913,21.973,15.137,110.352,14.160,33.691
1572496010.917,20.020,9.277,-206.543,12.695,2.930
1572496010.921,19.043,17.090,-90.332,18.066,-7.324
1572496010.925,23.926,24.902,190.918,31.738,28.320
1572496010.929,31.738,24.414,99.121,40.527,39.062
1572496010.933,31.250,20.996,34.180,40.039,26.367
1572496010.937,30.273,22.949,116.699,39.551,7.812
1572496010.940,32.715,22.461,198.242,44.922,29.297
1572496010.944,41.504,18.555,-4.883,49.805,45.410
1572496010.948,50.293,22.949,-163.574,49.805,9.766
1572496010.952,50.781,32.715,-21.973,48.340,-2.930
1572496010.956,50.781,33.691,72.266,49.316,27.344
1572496010.960,49.805,27.832,-51.270,48.340,42.969
1572496010.964,50.293,28.320,-168.457,44.922,30.762
1572496010.968,50.293,35.156,177.734,42.969,58.594
1572496010.972,46.875,28.809,195.312,40.527,43.457
1572496010.976,43.457,30.762,-37.598,37.598,-15.137
1572496010.980,45.898,41.504,19.531,37.598,-9.766
1572496010.983,47.852,39.551,166.016,34.668,19.043
1572496010.987,42.480,34.180,116.699,30.762,29.297
1572496010.991,39.551,34.668,-85.938,33.203,6.836
1572496010.995,30.762,36.133,-84.473,27.832,18.066
1572496010.999,21.484,34.180,9.766,18.066,39.062
1572496011.003,22.949,28.809,-81.543,17.090,19.531
1572496011.007,22.461,26.855,-299.805,13.672,-2.930
1572496011.011,13.184,25.391,-185.547,5.371,6.348
1572496011.015,7.324,21.973,105.469,5.859,27.344
1572496011.019,9.277,19.531,66.406,10.742,28.809
1572496011.023,12.207,16.602,-14.160,13.672,11.719
1572496011.026,16.113,19.531,123.047,18.066,26.855
1572496011.030,15.625,17.578,197.754,21.973,38.086
1572496011.034,13.672,14.648,0.000,16.113,17.090
1572496011.038,22.949,23.926,-173.340,18.555,10.742
1572496011.042,25.391,24.902,-52.246,20.996,35.645
1572496011.046,14.160,14.160,20.508,12.695,49.316
1572496011.050,20.020,8.301,-223.633,15.137,14.648
1572496011.054,24.414,9.766,-376.953,12.695,-6.836
1572496011.058,15.137,18.066,6.348,5.859,36.621
1572496011.062,13.672,19.531,250.000,6.836,73.242
1572496011.065,20.020,21.484,-67.383,10.254,38.574
1572496011.069,22.949,21.973,-137.207,9.766,18.555
1572496011.073,26.855,20.996,148.438,11.230,23.926
1572496011.077,32.227,24.414,66.895,18.555,3.906
1572496011.081,27.832,27.344,-19.531,19.043,20.996
1572496011.085,21.973,24.902,30.762,15.625,57.129
1572496011.089,20.996,23.926,-8.789,18.066,38.086
1572496011.093,23.926,25.391,-96.191,17.578,27.344
1572496011.097,21.973,25.879,-275.391,6.348,28.809
1572496011.101,18.555,30.762,-151.367,3.906,17.578
1572496011.105,22.949,36.133,137.695,13.184,29.297
1572496011.108,22.461,30.762,16.602,13.672,19.043
1572496011.112,23.438,28.809,-315.918,13.184,-4.883
1572496011.116,22.949,32.227,-110.352,18.066,24.902
1572496011.120,21.484,32.715,166.016,19.043,44.434
1572496011.124,27.832,33.203,-70.801,20.020,20.020
1572496011.128,25.391,29.297,-81.055,18.066,33.691
1572496011.132,28.809,28.809,5.371,25.879,27.344
1572496011.136,44.922,31.738,-74.219,41.504,5.859
1572496011.140,49.805,26.855,-189.453,44.434,24.414
1572496011.144,43.457,25.391,-231.934,36.621,29.785
1572496011.148,41.992,29.785,91.309,34.668,48.828
1572496011.151,43.945,26.855,195.312,39.551,44.434
1572496011.155,45.898,22.949,-138.672,38.574,-1.953
1572496011.159,44.922,27.832,-176.270,33.203,-1.465
1572496011.163,41.992,37.598,99.121,35.156,11.719
1572496011.167,43.945,38.086,85.938,37.598,17.090
1572496011.171,41.016,27.344,83.496,32.227,48.340
1572496011.175,40.039,22.461,152.344,27.832,55.176
1572496011.179,40.039,28.809,16.113,27.832,18.066
1572496011.183,30.762,29.785,-166.992,20.020,-2.441
1572496011.187,32.715,26.367,-312.988,10.742,13.184
1572496011.190,27.344,26.367,-140.137,5.371,26.367
1572496011.194,21.973,29.297,119.629,4.883,22.949
1572496011.198,19.531,30.762,27.832,2.441,20.996
1572496011.202,12.695,28.809,-20.508,-0.977,14.160
1572496011.206,13.672,30.273,101.074,0.488,21.973
1572496011.210,6.836,20.996,161.621,-3.418,43.457
1572496011.214,-2.930,14.160,39.062,-7.324,22.949
1572496011.218,0.977,17.090,-39.062,0.000,-6.836
1572496011.222,6.836,19.043,78.125,5.859,9.766
1572496011.226,10.742,20.020,-1.465,10.254,26.855
1572496011.230,13.184,20.508,-132.324,17.090,0.977
1572496011.233,18.555,21.973,7.324,19.043,8.789
1572496011.237,29.785,24.414,27.832,24.902,18.555
1572496011.241,30.762,23.926,88.867,27.832,24.414
1572496011.245,31.738,23.438,-88.867,29.297,31.738
1572496011.249,32.227,23.926,-248.047,21.973,1.953
1572496011.253,29.785,28.320,62.988,18.555,10.254
1572496011.257,34.180,33.203,106.934,24.902,23.438
1572496011.261,42.480,31.250,11.230,31.250,21.484
1572496011.265,46.387,31.250,67.383,31.738,22.461
1572496011.269,42.480,33.203,122.070,30.273,19.043
1572496011.273,38.086,25.391,-38.086,29.297,20.020
1572496011.276,40.527,24.414,-83.496,32.227,38.086
1572496011.280,44.434,32.227,81.543,37.598,39.062
1572496011.284,41.992,36.621,178.223,33.691,38.574
1572496011.288,37.109,34.180,86.914,25.879,40.039
1572496011.292,30.762,24.414,-275.391,13.184,-7.812
1572496011.296,20.508,21.484,-143.555,12.207,-1.953
1572496011.300,23.926,23.926,107.422,20.996,11.230
1572496011.304,39.062,28.320,1.953,29.297,3.418
1572496011.308,33.691,28.809,45.898,23.438,41.504
1572496011.312,24.902,26.855,179.199,12.695,60.547
1572496011.315,20.996,24.902,191.406,13.184,60.059
1572496011.319,15.625,24.414,14.160,11.230,37.109
1572496011.323,23.438,28.809,-125.488,14.648,18.066
1572496011.327,22.949,31.250,62.500,16.602,54.199
1572496011.331,20.996,31.738,257.324,16.113,80.566
1572496011.335,29.297,29.785,-70.312,22.949,32.715
1572496011.339,26.367,25.879,-248.535,19.531,6.348
1572496011.343,25.391,26.855,122.559,17.090,46.387
1572496011.347,28.320,28.320,93.750,20.508,19.531
1572496011.351,30.762,26.367,-63.477,20.508,21.973
1572496011.355,30.762,19.043,0.488,16.113,28.320
1572496011.358,28.320,19.043,115.723,13.672,18.555
1572496011.362,29.297,20.508,97.656,13.184,37.109
1572496011.366,35.156,19.531,-147.949,17.578,-12.695
1572496011.370,32.227,19.043,-147.461,17.090,1.465
1572496011.374,23.926,19.043,123.047,12.207,60.547
1572496011.378,31.250,21.484,110.352,19.531,49.316
1572496011.382,39.062,25.391,-172.852,20.020,35.645
1572496011.386,32.227,29.297,-26.367,13.672,47.852
1572496011.390,28.809,30.273,241.211,15.137,60.059
1572496011.394,33.203,30.762,96.191,20.020,36.133
1572496011.398,32.227,27.344,39.551,19.531,26.855
1572496011.401,25.879,27.344,215.820,12.207,47.363
1572496011.405,28.320,37.109,154.785,10.742,24.902
1572496011.409,34.180,38.086,-50.781,16.113,-4.883
1572496011.413,22.949,28.320,-47.852,10.742,21.973
1572496011.417,12.207,25.391,28.809,11.230,34.180
1572496011.421,13.672,29.785,93.262,16.602,19.531
1572496011.425,10.742,33.203,-40.039,10.254,15.137
1572496011.429,7.324,34.668,-170.898,8.789,0.977
1572496011.433,5.371,36.133,161.133,9.277,30.273
1572496011.437,19.531,38.574,266.602,16.602,57.129
1572496011.440,33.203,37.109,185.059,27.832,64.941
1572496011.444,32.227,34.180,195.312,31.738,48.340
1572496011.448,36.621,39.062,260.742,36.133,38.574
1572496011.452,41.016,41.504,214.355,36.621,44.922
1572496011.456,46.875,43.457,81.055,39.551,21.973
1572496011.460,51.758,41.504,7.812,41.504,6.836
1572496011.464,50.293,40.039,-30.762,42.969,6.348
1572496011.468,47.852,40.039,-9.277,38.086,23.926
1572496011.472,48.340,38.086,-145.508,27.344,20.020
1572496011.476,44.434,41.504,-19.043,26.367,9.277
1572496011.480,44.922,43.945,247.070,33.691,24.414
1572496011.483,49.316,37.109,136.230,30.762,22.949
1572496011.487,44.922,35.645,41.016,17.090,4.395
1572496011.491,37.109,31.738,184.570,8.789,21.484
1572496011.495,32.715,26.855,229.980,9.766,24.902
1572496011.499,35.645,26.855,57.129,16.602,20.020
1572496011.503,33.203,26.855,-2.930,21.973,22.949
1572496011.507,25.879,26.855,25.391,21.484,24.414
1572496011.511,19.043,25.879,65.918,8.789,42.480
1572496011.515,20.996,24.902,-37.598,3.418,35.645
1572496011.519,18.555,24.414,-266.602,6.348,16.602
1572496011.523,7.812,24.414,1.953,8.301,30.273
1572496011.526,0.488,20.508,208.496,8.301,63.477
1572496011.530,1.465,16.602,36.621,14.160,54.688
1572496011.534,2.930,18.066,14.160,15.625,42.969
1572496011.538,-2.930,20.996,232.910,10.742,83.984
1572496011.542,5.859,20.508,144.531,20.508,61.035
1572496011.546,19.531,20.996,-46.387,27.832,21.484
1572496011.550,23.926,23.438,24.902,27.832,30.273
1572496011.554,26.367,25.879,4.395,32.715,39.062
1572496011.558,26.367,25.391,-81.055,30.762,45.898
1572496011.562,31.738,24.414,-310.547,24.902,6.348
1572496011.565,34.180,28.809,-197.266,22.949,12.695
1572496011.569,41.992,32.227,130.371,30.273,42.969
1572496011.573,48.340,27.344,-53.711,34.668,5.859
1572496011.577,44.922,20.508,-187.012,32.227,-10.254
1572496011.581,47.852,22.461,-19.043,38.086,3.906
1572496011.585,48.340,28.320,152.832,37.598,37.598
1572496011.589,47.852,30.273,-4.395,30.273,45.410
1572496011.593,45.410,28.320,-203.613,20.508,20.020
1572496011.597,36.621,30.273,17.578,16.602,20.508
1572496011.601,33.203,28.809,26.855,18.066,17.578
1572496011.605,32.227,26.855,-215.332,15.137,12.207
1572496011.608,29.785,28.809,-308.594,15.137,11.230
1572496011.612,28.320,30.762,-11.719,17.578,25.391
1572496011.616,33.203,31.250,171.875,22.949,36.621
1572496011.620,29.297,27.832,27.344,22.461,25.879
1572496011.624,16.602,22.461,28.809,14.648,27.344
1572496011.628,17.578,24.414,155.762,13.184,29.297
1572496011.632,19.043,29.297,23.926,15.625,17.578
1572496011.636,14.160,32.715,-37.109,18.066,23.926
1572496011.640,13.184,33.691,104.492,19.043,31.738
1572496011.644,12.207,26.855,194.336,17.090,45.410
1572496011.648,11.719,22.461,60.547,16.113,52.734
1572496011.651,14.648,25.879,-20.508,18.066,51.758
1572496011.655,21.484,30.273,117.188,17.578,51.270
1572496011.659,28.320,30.762,253.906,18.066,73.730
1572496011.663,29.297,23.438,151.855,19.043,67.383
1572496011.667,29.785,14.648,-190.430,15.625,18.555
1572496011.671,27.832,11.719,-75.195,16.602,12.695
1572496011.675,28.320,13.672,166.992,25.391,33.691
1572496011.679,29.297,19.043,28.809,23.926,13.184
1572496011.683,31.250,25.879,20.996,15.625,22.949
1572496011.687,38.574,28.809,157.227,15.137,41.504
1572496011.690,40.039,25.391,72.754,19.531,35.645
1572496011.694,38.574,21.484,-113.281,20.996,-0.977
1572496011.698,36.621,20.020,-177.246,19.531,-18.066
1572496011.702,28.320,16.602,-24.902,12.695,9.766
1572496011.706,24.902,14.160,141.113,6.348,29.297
1572496011.710,24.902,12.207,-114.746,9.277,13.184
1572496011.714,19.043,12.207,-352.539,10.254,-16.602
1572496011.718,15.625,20.508,38.574,6.836,30.762
1572496011.722,20.020,20.996,177.734,9.766,49.316
1572496011.726,23.926,22.461,34.668,15.625,35.156
1572496011.730,23.438,25.879,101.562,19.531,43.457
1572496011.733,20.020,20.020,174.805,19.531,28.809
1572496011.737,24.902,19.531,154.785,25.391,32.715
1572496011.741,26.367,17.090,-164.551,22.949,22.949
1572496011.745,23.926,15.625,-299.316,20.508,-14.160
1572496011.749,22.461,18.555,29.297,28.320,0.977
1572496011.753,24.902,19.043,53.711,32.715,15.625
1572496011.757,29.297,23.438,-70.801,34.180,-11.719
1572496011.761,27.344,28.320,101.074,29.297,19.531
1572496011.765,26.367,29.297,265.625,29.785,72.266
1572496011.769,26.367,29.785,122.559,33.203,45.898
1572496011.773,32.227,30.273,2.930,38.086,32.227
1572496011.776,32.227,25.391,114.258,37.598,38.086
1572496011.780,27.344,25.879,237.793,32.715,59.082
1572496011.784,34.668,24.902,21.973,35.645,37.109
1572496011.788,37.598,21.484,-173.340,37.598,22.461
1572496011.792,32.715,30.273,17.578,37.109,65.430
1572496011.796,33.203,31.738,210.938,36.621,78.613
1572496011.800,38.574,27.832,-61.035,31.250,21.484
1572496011.804,34.180,31.738,-264.648,23.438,-4.883
1572496011.808,28.809,29.785,83.008,22.461,23.438
1572496011.812,34.180,29.785,164.062,28.320,31.738
1572496011.815,32.227,33.203,58.105,24.902,26.367
1572496011.819,28.809,34.180,74.219,22.949,20.996
1572496011.823,29.785,40.039,219.238,30.273,54.199
1572496011.827,26.367,35.156,114.746,26.367,27.344
1572496011.831,23.438,25.879,-50.293,20.508,-5.859
1572496011.835,22.949,23.926,-5.859,21.973,29.785
1572496011.839,23.438,21.973,-50.781,24.902,18.555
1572496011.843,25.879,22.949,-85.449,26.367,28.320
1572496011.847,23.926,24.414,-226.074,20.020,22.949
1572496011.851,16.113,23.438,-141.602,11.719,-4.883
1572496011.855,20.508,27.832,122.559,16.602,20.508
1572496011.858,25.879,30.273,44.434,22.949,33.203
1572496011.862,27.832,30.273,-73.730,25.879,17.090
1572496011.866,32.715,31.738,31.250,30.273,6.836
1572496011.870,30.762,27.344,115.234,26.855,21.973
1572496011.874,17.090,23.438,3.906,14.648,18.066
1572496011.878,12.695,26.855,-15.625,11.230,19.531
1572496011.882,19.531,31.738,-20.508,21.484,31.250
1572496011.886,22.461,31.738,33.203,25.879,45.898
1572496011.890,21.973,29.785,-76.172,23.926,29.297
1572496011.894,21.484,34.180,-280.273,17.090,-10.742
1572496011.898,18.555,37.109,33.203,16.113,17.578
1572496011.901,29.785,36.621,166.992,26.367,42.969
1572496011.905,44.922,39.062,78.125,35.156,45.898
1572496011.909,41.504,32.227,132.812,40.039,51.270
1572496011.913,41.992,26.855,123.535,44.434,36.621
1572496011.917,46.387,27.832,37.109,46.387,43.945
1572496011.921,47.363,28.809,63.477,46.875,56.152
1572496011.925,48.828,30.273,97.168,43.945,30.762
1572496011.929,52.734,33.203,-19.043,40.527,3.906
1572496011.933,55.176,34.180,-102.539,40.527,19.043
1572496011.937,57.129,31.738,-232.422,38.086,27.344
1572496011.940,58.105,33.691,-161.133,40.527,9.766
1572496011.944,55.176,36.621,147.461,46.387,35.645
1572496011.948,55.176,35.156,55.664,49.316,39.551
1572496011.952,48.340,28.809,12.207,39.551,51.758
1572496011.956,37.109,29.785,135.254,31.738,49.316
1572496011.960,39.062,34.668,169.922,36.621,33.691
1572496011.964,45.410,29.297,25.879,42.480,41.992
1572496011.968,39.062,23.926,-98.633,34.668,24.414
1572496011.972,34.668,31.738,2.930,27.832,23.926
1572496011.976,33.691,37.598,0.488,26.855,40.527
1572496011.980,26.855,35.645,-196.777,17.578,25.391
1572496011.983,26.367,33.203,-313.965,13.184,3.906
1572496011.987,26.367,31.250,46.387,14.648,51.758
1572496011.991,19.531,29.297,199.707,5.371,65.430
1572496011.995,11.719,26.855,-11.230,-2.930,10.742
1572496011.999,8.301,25.879,18.555,-2.441,25.879
1572496012.003,10.254,22.461,173.340,-0.977,50.781
1572496012.007,9.766,19.043,104.492,4.395,30.273
1572496012.011,6.836,16.113,-31.250,6.836,16.602
1572496012.015,7.812,19.531,37.598,8.301,29.297
1572496012.019,11.230,25.391,118.652,13.672,28.809
1572496012.023,9.766,16.113,-18.555,16.113,23.926
1572496012.026,15.137,11.719,-342.773,12.695,3.906
1572496012.030,16.602,23.926,-250.000,14.160,-7.812
1572496012.034,15.625,22.461,135.742,18.555,34.668
1572496012.038,27.832,14.648,44.434,20.508,28.320
1572496012.042,33.203,17.090,-64.941,22.461,6.348
1572496012.046,33.691,22.461,65.918,23.438,14.648
1572496012.050,32.715,22.949,130.859,22.949,14.648
1572496012.054,37.109,20.020,-42.969,28.320,6.836
1572496012.058,44.434,26.367,-81.543,38.086,37.109
1572496012.062,42.480,33.203,147.949,34.180,68.359
1572496012.065,34.180,29.297,210.938,24.902,61.035
1572496012.069,34.180,22.461,-106.934,26.367,20.508
1572496012.073,39.551,22.461,-354.004,27.344,-9.277
1572496012.077,38.574,25.391,-65.918,25.879,-3.418
1572496012.081,34.668,28.809,122.559,20.996,23.438
