timestamps,TP9,AF7,AF8,TP10,Right AUX
1572497046.798,36.133,40.039,455.566,25.391,9.277
1572497046.802,37.109,37.598,452.148,33.203,4.395
1572497046.806,34.668,37.109,466.797,30.273,0.000
1572497046.809,30.273,34.668,443.359,24.414,3.906
1572497046.813,40.527,30.762,344.238,30.273,18.555
1572497046.817,35.645,33.203,255.371,30.762,-6.836
1572497046.821,30.273,33.203,205.566,28.320,-6.348
1572497046.825,24.414,32.715,156.738,24.414,26.855
1572497046.829,23.926,36.621,107.422,27.344,25.391
1572497046.833,28.320,40.039,74.219,28.320,35.645
1572497046.837,26.367,36.621,50.293,22.949,32.227
1572497046.841,24.902,34.180,30.273,23.926,30.273
1572497046.845,24.902,34.668,2.441,26.367,42.480
1572497046.849,29.297,33.691,-17.090,29.785,26.367
1572497046.852,29.297,36.133,-25.879,28.809,20.020
1572497046.856,23.438,38.086,-49.316,29.297,17.578
1572497046.860,23.438,31.250,-66.895,35.156,12.207
1572497046.864,29.785,31.738,-50.293,35.645,18.066
1572497046.868,35.156,37.109,-47.363,31.250,19.043
1572497046.872,26.367,36.133,-77.148,26.855,3.418
1572497046.876,26.855,37.109,-85.449,31.738,-19.043
1572497046.880,36.133,37.598,-87.402,36.133,-20.020
1572497046.884,36.133,36.133,-101.562,35.156,-10.742
1572497046.888,40.527,37.109,-113.770,37.109,15.137
1572497046.892,40.527,36.133,-128.906,34.668,-4.395
1572497046.895,39.551,36.621,-122.559,25.879,-24.902
1572497046.899,38.086,39.551,-86.426,25.391,6.836
1572497046.903,36.621,37.109,-85.938,32.227,2.441
1572497046.907,38.086,33.691,-111.328,31.738,4.395
1572497046.911,42.480,31.250,-114.746,29.297,21.973
1572497046.915,40.527,35.645,-112.305,35.156,11.230
1572497046.919,37.598,38.574,-134.277,35.156,11.230
1572497046.923,41.504,36.621,-156.250,33.203,-6.348
1572497046.927,38.574,39.062,-160.156,24.902,-36.133
1572497046.931,30.762,41.504,-147.461,20.996,-10.254
1572497046.934,26.367,37.109,-143.555,24.414,7.812
1572497046.938,20.020,30.762,-145.508,24.902,17.090
1572497046.942,16.113,26.367,-141.602,20.996,35.156
1572497046.946,21.484,26.367,-141.602,16.113,30.762
1572497046.950,32.227,27.832,-149.414,24.414,19.531
1572497046.954,35.156,32.227,-159.180,29.785,10.254
1572497046.958,32.227,30.762,-168.457,26.367,15.137
1572497046.962,33.203,28.320,-180.664,24.902,36.133
1572497046.966,36.621,30.762,-204.590,25.879,27.344
1572497046.970,31.250,31.250,-203.613,16.602,5.371
1572497046.974,29.785,35.156,-174.805,15.625,11.230
1572497046.977,35.645,40.039,-173.340,29.785,43.457
1572497046.981,34.180,37.598,-188.965,31.250,40.039
1572497046.985,31.738,35.156,-201.660,25.879,-1.465
1572497046.989,29.785,37.598,-202.637,27.832,16.113
1572497046.993,25.391,39.551,-211.426,32.227,43.945
1572497046.997,33.203,37.598,-236.816,31.738,20.996
1572497047.001,32.227,36.133,-258.301,27.832,32.227
1572497047.005,26.855,36.133,-248.047,22.461,9.766
1572497047.009,33.691,33.691,-215.820,28.320,0.000
1572497047.013,31.738,29.297,-221.191,29.785,9.766
1572497047.017,23.438,32.715,-237.305,18.066,-9.277
1572497047.020,24.902,43.457,-228.027,20.508,15.625
1572497047.024,28.320,43.457,-206.543,28.809,19.531
1572497047.028,26.367,38.574,-212.891,33.203,5.859
1572497047.032,21.484,32.715,-225.586,28.320,12.207
1572497047.036,20.996,28.320,-210.449,23.926,18.066
1572497047.040,24.414,33.691,-211.914,27.832,16.113
1572497047.044,25.391,34.668,-224.121,26.367,25.879
1572497047.048,24.414,36.133,-244.141,22.461,36.621
1572497047.052,25.391,35.645,-278.809,22.949,28.809
1572497047.056,36.621,34.180,-294.922,32.715,16.602
1572497047.059,42.480,30.273,-312.988,24.902,-30.273
1572497047.063,31.250,26.855,-319.824,16.602,-37.109
1572497047.067,25.391,24.414,-307.617,25.879,-1.953
1572497047.071,26.855,22.461,-295.410,18.555,-4.395
1572497047.075,30.762,28.809,-287.598,20.020,-3.418
1572497047.079,29.785,35.645,-281.738,25.879,-1.953
1572497047.083,22.949,32.715,-261.719,22.949,6.348
1572497047.087,21.973,31.250,-240.723,21.973,41.016
1572497047.091,20.020,31.250,-224.609,20.508,39.551
1572497047.095,22.949,28.809,-209.473,19.531,19.043
1572497047.099,24.902,25.391,-207.520,24.902,29.785
1572497047.102,23.926,25.879,-195.312,22.949,41.504
1572497047.106,24.902,30.762,-183.594,16.602,28.320
1572497047.110,32.227,35.645,-198.242,21.484,36.133
1572497047.114,41.992,36.133,-223.633,28.320,40.527
1572497047.118,34.668,24.414,-214.355,27.344,12.695
1572497047.122,26.855,27.344,-176.758,26.855,19.043
1572497047.126,27.832,39.551,-168.457,32.227,44.434
1572497047.130,29.297,37.598,-187.988,33.691,26.367
1572497047.134,23.438,33.203,-211.426,24.414,6.836
1572497047.138,12.207,31.738,-219.238,19.531,14.160
1572497047.142,14.648,33.203,-230.957,26.367,23.926
1572497047.145,23.438,32.715,-249.023,32.227,24.902
1572497047.149,22.949,28.809,-250.488,27.832,16.602
1572497047.153,25.391,30.762,-245.605,16.113,-1.465
1572497047.157,29.785,37.109,-238.770,20.020,28.809
1572497047.161,34.180,33.691,-239.746,30.762,22.461
1572497047.165,38.574,30.762,-195.312,28.320,-6.348
1572497047.169,38.086,36.133,-186.523,28.320,22.461
1572497047.173,37.598,38.086,-247.559,30.762,26.367
1572497047.177,38.574,32.227,-290.527,29.785,14.648
1572497047.181,35.156,31.738,-315.430,33.691,20.020
1572497047.184,30.273,40.527,-307.617,33.691,33.691
1572497047.188,31.738,42.480,-304.199,34.180,32.227
1572497047.192,33.691,41.016,-310.547,36.621,16.602
1572497047.196,37.598,46.387,-286.621,34.180,16.113
1572497047.200,42.480,52.734,-282.227,36.133,35.156
1572497047.204,36.133,46.387,-315.430,33.203,24.414
1572497047.208,28.809,39.062,-341.309,24.902,6.348
1572497047.212,36.133,40.039,-339.355,22.461,-8.301
1572497047.216,36.133,41.016,-312.500,30.273,13.672
1572497047.220,30.273,41.016,-301.758,34.180,52.734
1572497047.224,37.598,45.898,-307.617,34.180,31.738
1572497047.227,34.668,44.434,-315.918,25.879,25.879
1572497047.231,24.414,41.016,-302.246,25.879,26.367
1572497047.235,24.902,34.180,-298.340,32.715,15.137
1572497047.239,24.414,31.250,-317.383,29.785,17.578
1572497047.243,17.578,34.668,-303.223,27.344,9.766
1572497047.247,17.090,36.133,-258.789,20.996,27.832
1572497047.251,13.184,35.156,-247.070,16.602,32.715
1572497047.255,11.719,36.133,-244.141,14.648,0.488
1572497047.259,14.648,40.039,-243.652,10.742,3.418
1572497047.263,12.695,41.016,-261.230,14.648,24.414
1572497047.267,9.766,36.133,-275.879,13.672,26.855
1572497047.270,12.695,35.645,-282.715,13.672,11.230
1572497047.274,22.949,39.551,-262.207,17.578,25.391
1572497047.278,21.973,36.621,-245.605,14.160,28.809
1572497047.282,16.113,31.738,-247.559,15.137,10.254
1572497047.286,16.602,29.297,-238.281,22.949,-9.766
1572497047.290,19.043,29.785,-187.988,25.391,10.254
1572497047.294,23.926,33.203,-143.066,27.832,32.227
1572497047.298,19.043,38.086,-125.488,20.508,27.344
1572497047.302,13.672,39.062,-119.141,8.789,-0.977
1572497047.306,13.184,35.156,-96.680,15.625,8.301
1572497047.309,15.625,35.156,-103.516,25.879,20.996
1572497047.313,25.879,42.480,-127.930,31.250,-13.184
1572497047.317,29.785,45.898,-119.629,33.691,-13.672
1572497047.321,29.785,40.039,-104.004,36.621,20.508
1572497047.325,44.434,31.738,-145.508,49.316,14.160
1572497047.329,57.129,34.668,-190.918,53.711,2.441
1572497047.333,46.387,42.480,-220.215,40.527,2.441
1572497047.337,39.551,51.270,-249.023,31.738,-13.184
1572497047.341,44.922,54.688,-256.348,32.227,-13.672
1572497047.345,43.945,53.223,-261.230,30.762,-4.395
1572497047.349,39.062,51.270,-279.785,26.855,19.043
1572497047.352,42.480,43.457,-304.688,30.762,36.133
1572497047.356,41.992,42.480,-333.008,36.133,19.531
1572497047.360,37.109,43.945,-346.680,20.020,-9.277
1572497047.364,35.645,43.945,-338.867,11.230,13.184
1572497047.368,43.457,45.898,-329.102,25.391,35.645
1572497047.372,44.922,44.922,-341.797,28.809,10.742
1572497047.376,42.969,36.621,-377.930,26.367,5.859
1572497047.380,36.621,35.156,-408.691,26.855,20.508
1572497047.384,27.344,40.527,-419.922,22.461,24.414
1572497047.388,36.133,34.668,-433.105,24.414,15.625
1572497047.392,34.668,38.086,-422.363,20.020,-9.277
1572497047.395,28.320,45.410,-395.996,15.137,2.930
1572497047.399,29.297,43.945,-401.367,22.949,48.340
1572497047.403,29.785,43.945,-395.020,30.762,25.879
1572497047.407,32.227,46.387,-314.453,29.785,12.695
1572497047.411,35.645,45.898,-257.812,24.414,54.688
1572497047.415,35.645,40.039,-298.340,23.438,37.109
1572497047.419,36.133,39.062,-326.660,27.832,24.414
1572497047.423,42.480,40.039,-336.426,33.203,20.508
1572497047.427,36.133,32.715,-362.793,25.391,-2.441
1572497047.431,27.832,27.832,-373.535,23.926,13.184
1572497047.434,35.156,28.320,-372.070,30.762,27.344
1572497047.438,35.645,24.414,-369.141,18.555,-0.488
1572497047.442,26.855,26.367,-371.582,19.043,19.043
1572497047.446,23.926,31.250,-379.883,25.391,3.418
1572497047.450,22.461,32.715,-365.723,21.484,-24.902
1572497047.454,27.832,37.109,-333.984,24.902,-0.488
1572497047.458,36.133,42.969,-306.641,34.180,19.531
1572497047.462,35.156,41.016,-264.648,34.180,16.113
1572497047.466,32.227,35.156,-210.938,29.297,7.812
1572497047.470,34.668,33.691,-143.555,30.273,3.906
1572497047.474,40.039,32.715,-110.840,33.203,11.719
1572497047.477,43.945,33.691,-110.840,32.715,27.344
1572497047.481,41.992,36.133,-80.566,29.785,8.789
1572497047.485,36.133,41.992,-40.527,30.273,16.113
1572497047.489,32.227,37.598,-29.785,24.414,24.414
1572497047.493,34.668,34.180,-38.086,24.414,-3.906
1572497047.497,40.039,33.691,-37.109,31.250,-20.508
1572497047.501,36.133,28.809,-31.250,30.273,18.555
1572497047.505,34.668,34.180,-54.688,32.715,34.668
1572497047.509,38.086,39.551,-74.219,35.645,15.625
1572497047.513,31.738,37.109,-93.262,25.879,44.922
1572497047.517,20.996,30.273,-125.977,16.602,46.875
1572497047.520,12.695,25.391,-156.250,17.090,11.230
1572497047.524,19.043,31.250,-184.082,21.484,-3.906
1572497047.528,29.297,37.109,-208.008,23.926,39.062
1572497047.532,31.250,34.668,-227.539,23.438,82.031
1572497047.536,33.203,34.180,-251.953,26.367,47.363
1572497047.540,30.273,33.691,-250.977,24.414,14.160
1572497047.544,28.809,34.668,-223.145,22.949,31.738
1572497047.548,32.715,36.133,-241.211,29.785,75.195
1572497047.552,22.949,28.809,-287.598,26.855,58.105
1572497047.556,17.578,22.949,-284.180,15.137,28.320
1572497047.559,15.625,27.344,-239.746,12.695,32.715
1572497047.563,5.371,27.832,-214.355,17.090,59.570
1572497047.567,3.418,20.996,-221.191,11.719,47.852
1572497047.571,3.418,17.578,-219.238,5.859,6.348
1572497047.575,5.371,24.414,-208.496,10.254,28.320
1572497047.579,5.859,22.949,-229.980,11.230,55.176
1572497047.583,11.719,17.578,-257.812,14.648,32.715
1572497047.587,15.625,23.926,-274.414,19.043,15.137
1572497047.591,13.184,26.367,-283.203,17.090,37.109
1572497047.595,11.719,20.508,-287.109,16.602,46.875
1572497047.599,11.230,14.648,-272.461,16.602,53.223
1572497047.602,18.555,21.484,-254.395,15.137,39.062
1572497047.606,25.391,29.785,-241.699,17.578,35.645
1572497047.610,17.090,24.414,-248.535,18.555,41.504
1572497047.614,15.137,22.461,-251.465,13.672,32.715
1572497047.618,17.578,30.273,-221.680,15.625,35.156
1572497047.622,21.973,41.504,-186.035,17.578,57.617
1572497047.626,24.902,41.016,-185.547,15.137,60.059
1572497047.630,25.391,33.691,-187.012,19.043,21.484
1572497047.634,32.715,33.203,-140.137,25.879,9.766
1572497047.638,26.367,30.273,-112.305,24.902,52.734
1572497047.642,27.344,29.785,-115.723,26.855,57.617
1572497047.645,33.203,32.227,-86.914,32.715,28.320
1572497047.649,32.715,34.180,-60.059,39.062,22.949
1572497047.653,31.738,31.738,-95.215,35.645,29.785
1572497047.657,35.156,30.762,-161.133,34.668,29.297
1572497047.661,40.039,31.250,-204.102,39.551,17.090
1572497047.665,30.762,30.273,-217.773,34.180,25.879
1572497047.669,30.273,27.344,-230.469,37.598,35.645
1572497047.673,34.180,21.973,-251.465,39.551,28.320
1572497047.677,32.715,27.344,-233.887,35.645,35.645
1572497047.681,28.320,31.250,-223.633,28.809,31.738
1572497047.684,23.926,29.297,-234.375,29.785,28.320
1572497047.688,24.414,22.949,-254.883,30.273,25.391
1572497047.692,28.320,24.414,-258.789,20.020,9.766
1572497047.696,32.715,38.574,-232.422,22.949,36.133
1572497047.700,31.250,33.691,-239.258,20.020,50.293
1572497047.704,25.391,24.902,-250.000,17.090,38.574
1572497047.708,22.461,21.484,-229.980,21.973,44.434
1572497047.712,25.879,25.879,-226.074,21.484,27.832
1572497047.716,29.297,34.180,-224.121,23.438,31.250
1572497047.720,25.391,24.902,-222.168,15.625,37.109
1572497047.724,21.973,20.996,-209.473,11.719,14.648
1572497047.727,26.367,31.250,-186.523,18.066,34.180
1572497047.731,34.180,34.180,-188.477,24.414,54.199
1572497047.735,35.645,34.668,-191.406,23.926,41.016
1572497047.739,32.227,40.039,-191.406,12.695,34.180
1572497047.743,36.621,37.598,-196.777,18.066,51.758
1572497047.747,30.762,34.668,-195.312,29.297,55.664
1572497047.751,26.367,33.203,-210.938,24.414,54.199
1572497047.755,34.180,29.297,-235.840,24.902,47.363
1572497047.759,28.320,27.344,-254.395,22.949,23.438
1572497047.763,22.461,20.508,-300.293,17.090,16.602
1572497047.767,20.508,20.020,-345.703,16.113,5.859
1572497047.770,23.926,30.762,-345.215,18.066,13.184
1572497047.774,35.645,31.250,-306.641,28.320,34.668
1572497047.778,37.598,22.949,-252.930,29.297,29.297
1572497047.782,29.785,24.414,-232.422,22.949,28.320
1572497047.786,30.762,31.250,-234.375,16.602,24.902
1572497047.790,38.574,31.738,-277.344,20.996,34.668
1572497047.794,39.062,31.250,-354.492,22.949,36.133
1572497047.798,33.203,31.250,-390.625,22.949,38.086
1572497047.802,28.320,27.832,-401.855,27.344,20.020
1572497047.806,20.508,22.949,-410.645,20.020,29.785
1572497047.809,20.996,23.438,-428.223,23.926,33.691
1572497047.813,30.273,32.715,-471.680,21.973,40.527
1572497047.817,27.832,33.691,-257.324,15.625,52.734
1572497047.821,30.273,27.832,168.457,26.367,48.340
1572497047.825,34.668,25.391,379.395,25.391,9.277
1572497047.829,33.203,28.320,492.676,22.949,20.996
1572497047.833,39.551,26.367,545.410,22.461,60.059
1572497047.837,44.434,19.531,563.477,23.926,32.715
1572497047.841,39.551,23.438,602.051,29.297,39.551
1572497047.845,32.715,28.320,652.344,30.273,79.590
1572497047.849,33.203,30.762,696.777,30.273,86.426
1572497047.852,38.574,34.180,714.844,29.785,32.715
1572497047.856,40.527,37.598,723.633,18.066,17.578
1572497047.860,36.133,37.598,725.098,17.578,35.156
1572497047.864,30.762,37.109,691.406,23.438,48.828
1572497047.868,31.738,33.691,659.180,22.461,46.875
1572497047.872,34.668,27.344,649.902,23.926,49.805
1572497047.876,31.250,31.250,641.113,23.926,62.500
1572497047.880,26.367,33.691,583.008,20.996,39.551
1572497047.884,26.855,33.691,489.746,22.461,28.809
1572497047.888,21.973,30.762,365.723,14.160,40.527
1572497047.892,17.090,28.320,192.383,11.230,30.762
1572497047.895,20.508,28.809,32.227,20.508,29.297
1572497047.899,20.020,28.320,-101.562,19.531,22.461
1572497047.903,14.160,30.762,-215.820,14.160,38.086
1572497047.907,9.766,34.180,-301.758,11.719,47.852
1572497047.911,13.672,30.273,-341.797,13.672,50.781
1572497047.915,17.578,21.973,-380.371,15.137,41.016
1572497047.919,18.066,26.367,-419.922,12.695,25.879
1572497047.923,16.113,33.691,-460.449,15.137,36.133
1572497047.927,19.531,34.668,-488.281,19.531,20.508
1572497047.931,22.949,34.668,-484.375,23.438,32.227
1572497047.934,20.020,31.738,-499.023,24.902,37.598
1572497047.938,17.578,27.344,-501.465,20.996,26.367
1572497047.942,17.578,28.320,-481.445,15.625,34.668
1572497047.946,23.438,34.668,-451.660,15.625,47.363
1572497047.950,29.785,38.086,-418.945,24.902,49.316
1572497047.954,33.203,36.133,-404.785,25.879,67.871
1572497047.958,35.645,32.227,-387.207,22.461,66.406
1572497047.962,35.645,34.668,-360.352,26.855,53.711
1572497047.966,32.715,40.527,-338.379,25.879,87.891
1572497047.970,33.203,41.504,-326.660,29.297,79.590
1572497047.974,29.297,40.527,-319.824,22.461,47.363
1572497047.977,28.320,39.062,-318.848,14.648,47.852
1572497047.981,34.180,35.156,-318.359,17.090,88.379
1572497047.985,36.133,32.227,-307.617,20.508,85.938
1572497047.989,35.645,34.180,-301.270,28.320,67.871
1572497047.993,34.180,33.691,-288.574,25.879,70.801
1572497047.997,40.527,36.621,-260.254,26.367,75.195
1572497048.001,44.922,40.039,-271.973,32.227,53.711
1572497048.005,38.086,34.668,-285.645,27.832,11.719
1572497048.009,32.227,38.086,-246.094,26.367,19.043
1572497048.013,35.156,43.457,-224.121,34.180,55.176
1572497048.017,30.762,41.016,-231.934,38.574,77.637
1572497048.020,25.879,32.715,-221.191,38.574,75.195
1572497048.024,29.297,28.320,-200.195,39.551,91.797
1572497048.028,28.320,37.598,-196.777,37.109,104.004
1572497048.032,21.484,43.945,-210.938,38.574,81.055
1572497048.036,14.160,38.086,-227.051,37.598,49.805
1572497048.040,14.648,35.156,-231.445,34.180,60.547
1572497048.044,19.043,37.598,-232.910,28.320,65.430
1572497048.048,19.043,32.715,-258.301,20.020,39.551
1572497048.052,20.508,29.297,-272.949,19.531,37.109
1572497048.056,24.414,35.645,-247.559,22.949,73.730
1572497048.059,30.273,35.156,-234.375,30.273,87.402
1572497048.063,26.855,28.809,-224.121,25.391,69.824
1572497048.067,19.531,30.273,-209.961,16.602,80.078
1572497048.071,22.461,30.273,-218.262,18.066,65.430
1572497048.075,28.809,32.715,-233.398,21.973,60.547
1572497048.079,32.227,31.738,-246.094,18.555,57.617
1572497048.083,25.391,30.762,-238.770,14.160,33.691
1572497048.087,23.926,30.762,-231.934,16.113,42.969
1572497048.091,28.809,27.344,-243.652,19.043,53.711
1572497048.095,31.738,30.762,-255.371,22.461,30.273
1572497048.099,32.715,35.645,-253.906,20.508,48.340
1572497048.102,33.203,35.645,-252.441,24.902,78.125
1572497048.106,38.086,31.738,-277.344,31.738,56.641
1572497048.110,31.250,30.762,-294.922,30.762,27.832
1572497048.114,26.367,34.180,-286.133,21.973,27.344
1572497048.118,32.227,35.645,-283.203,21.484,41.504
1572497048.122,30.273,31.738,-282.227,24.902,61.523
1572497048.126,29.785,27.832,-294.434,21.484,59.082
1572497048.130,28.809,30.273,-310.059,20.996,44.434
1572497048.134,28.320,34.668,-303.711,23.438,80.078
1572497048.138,34.180,31.250,-314.941,25.391,65.430
1572497048.142,31.738,28.809,-332.031,23.926,29.785
1572497048.145,29.785,34.668,-337.402,24.414,45.898
1572497048.149,34.668,38.574,-363.770,32.715,70.312
1572497048.153,33.203,40.527,-406.738,34.668,75.195
1572497048.157,37.598,39.551,-449.707,31.738,51.270
1572497048.161,38.574,35.645,-459.473,34.180,63.477
1572497048.165,27.832,34.668,-469.727,30.273,81.543
1572497048.169,29.785,34.668,-489.746,26.367,59.082
1572497048.173,33.691,29.785,-489.746,29.297,30.762
1572497048.177,28.320,29.297,-465.820,24.902,21.484
1572497048.181,22.949,33.203,-425.781,18.555,16.113
1572497048.184,23.926,27.344,-400.391,17.090,32.715
1572497048.188,24.902,25.879,-379.883,20.020,52.246
1572497048.192,26.367,32.715,-380.371,24.414,57.617
1572497048.196,24.414,30.762,-414.062,22.949,48.340
1572497048.200,19.531,25.391,-404.297,19.043,19.531
1572497048.204,20.996,24.902,-368.164,21.973,32.715
1572497048.208,17.090,22.949,-344.238,21.484,77.148
1572497048.212,12.695,28.320,-331.543,20.996,62.988
1572497048.216,19.043,37.109,-321.777,24.414,55.176
1572497048.220,23.438,38.086,-303.223,22.949,71.777
1572497048.224,23.926,33.203,-306.152,21.973,65.918
1572497048.227,25.879,29.297,-332.031,13.672,43.457
1572497048.231,22.461,26.855,-335.449,12.207,38.574
1572497048.235,18.066,24.414,-325.684,13.184,46.875
1572497048.239,13.672,23.438,-340.332,15.625,58.594
1572497048.243,14.160,23.438,-375.000,18.066,32.227
1572497048.247,21.973,25.391,-375.488,8.789,31.250
1572497048.251,24.414,28.809,-349.609,7.324,65.430
1572497048.255,26.367,23.926,-369.629,13.672,23.926
1572497048.259,25.391,18.555,-381.836,18.555,18.555
1572497048.263,24.902,25.879,-379.883,25.879,53.711
1572497048.267,27.832,33.203,-389.160,27.832,45.898
1572497048.270,22.949,32.715,-372.070,29.785,42.480
1572497048.274,21.973,29.785,-328.125,28.809,46.387
1572497048.278,27.344,30.762,-313.965,21.484,51.758
1572497048.282,29.785,30.762,-291.504,24.902,39.062
1572497048.286,33.691,25.391,-260.742,32.715,28.809
1572497048.290,33.691,23.926,-247.070,30.273,20.020
1572497048.294,36.133,29.297,-209.961,33.203,15.625
1572497048.298,33.691,29.785,-182.617,38.574,40.039
1572497048.302,29.297,28.320,-183.594,35.645,26.855
1572497048.306,37.109,33.203,-169.922,34.180,4.883
1572497048.309,42.969,37.598,-141.602,32.227,28.320
1572497048.313,36.133,35.645,-125.977,37.598,37.109
1572497048.317,35.645,27.832,-116.699,38.574,13.672
1572497048.321,44.922,23.438,-99.121,28.809,20.996
1572497048.325,43.457,31.250,-66.895,29.297,33.691
1572497048.329,32.227,35.156,-35.645,30.273,39.551
1572497048.333,28.809,34.668,-15.137,21.484,37.598
1572497048.337,29.297,34.668,-18.555,13.672,40.039
1572497048.341,26.855,33.691,-36.621,24.902,42.969
1572497048.345,26.855,36.133,-66.895,26.367,41.992
1572497048.349,30.762,35.645,-68.359,16.113,16.113
1572497048.352,27.344,28.320,-55.176,11.719,13.184
1572497048.356,19.043,28.809,-72.266,16.602,42.480
1572497048.360,21.484,30.273,-49.805,29.297,48.340
1572497048.364,25.879,24.902,-16.113,24.414,37.109
1572497048.368,24.414,23.926,-49.805,9.277,41.504
1572497048.372,22.461,28.320,-71.289,13.184,50.293
1572497048.376,21.973,30.762,-85.449,17.090,46.387
1572497048.380,20.020,19.531,-97.656,14.648,2.930
1572497048.384,16.602,14.648,-72.266,20.020,-5.371
1572497048.388,16.602,20.020,-56.641,19.531,46.875
1572497048.392,17.578,17.578,-71.289,17.578,33.203
1572497048.395,12.207,20.508,-79.102,19.531,-5.859
1572497048.399,13.672,28.320,-84.473,18.555,6.348
1572497048.403,13.672,27.344,-101.562,20.020,41.504
1572497048.407,24.414,30.273,-117.188,18.555,49.805
1572497048.411,38.574,35.645,-110.352,19.043,41.016
1572497048.415,37.598,32.227,-117.676,23.438,35.645
1572497048.419,37.598,30.762,-142.578,22.949,59.570
1572497048.423,37.109,31.250,-101.074,26.855,55.176
1572497048.427,32.227,34.668,-59.082,23.926,8.301
1572497048.431,30.273,40.039,-103.027,24.414,9.766
1572497048.434,28.320,35.645,-181.641,27.344,33.691
1572497048.438,22.461,29.297,-235.352,25.879,11.230
1572497048.442,29.785,34.668,-218.750,33.691,4.395
1572497048.446,29.785,34.668,-203.613,39.062,42.480
1572497048.450,30.762,34.668,-220.703,38.086,42.480
1572497048.454,33.203,36.133,-209.961,29.785,53.711
1572497048.458,20.996,31.738,-213.867,24.902,59.082
1572497048.462,21.484,27.832,-237.793,35.645,29.297
1572497048.466,23.438,25.879,-249.023,38.086,25.879
1572497048.470,23.926,27.832,-273.438,26.367,38.086
1572497048.474,27.344,28.809,-285.645,15.137,29.297
1572497048.477,31.738,28.320,-278.809,16.113,44.922
1572497048.481,31.250,24.902,-301.270,18.555,43.457
1572497048.485,27.344,24.902,-312.500,14.648,29.785
1572497048.489,22.461,25.391,-300.781,11.230,24.902
1572497048.493,20.996,22.949,-295.898,13.184,42.969
1572497048.497,28.809,27.344,-308.105,18.555,56.152
1572497048.501,28.809,25.391,-311.523,21.484,41.504
1572497048.505,29.297,20.996,-301.758,18.555,9.277
1572497048.509,31.250,29.785,-287.598,14.648,9.766
1572497048.513,24.902,30.762,-300.293,10.742,10.254
1572497048.517,18.066,31.250,-295.410,7.324,-17.090
1572497048.520,14.160,37.598,-259.766,6.348,0.000
1572497048.524,14.160,37.109,-250.488,9.277,47.852
1572497048.528,18.555,34.668,-255.859,11.719,20.020
1572497048.532,23.926,36.621,-247.559,11.230,-30.762
1572497048.536,26.367,40.527,-219.238,18.555,19.531
1572497048.540,30.273,40.527,-204.590,23.438,31.250
1572497048.544,33.203,38.574,-207.031,24.902,-4.395
1572497048.548,35.645,40.039,-208.984,24.414,5.371
1572497048.552,34.668,36.621,-231.445,18.555,22.949
1572497048.556,31.738,27.832,-242.188,21.484,3.906
1572497048.559,32.715,23.438,-243.652,19.531,-9.766
1572497048.563,26.855,30.273,-246.582,13.184,-17.578
1572497048.567,28.320,36.621,-237.305,17.090,4.883
1572497048.571,36.621,38.086,-248.535,25.391,29.297
1572497048.575,34.668,41.504,-245.117,31.250,6.348
1572497048.579,27.832,42.969,-240.234,30.273,0.000
1572497048.583,27.344,37.598,-236.328,30.273,20.508
1572497048.587,32.227,31.738,-219.238,29.785,7.812
1572497048.591,30.762,31.738,-228.516,23.926,-13.184
1572497048.595,24.902,32.227,-246.094,18.555,0.000
1572497048.599,20.020,28.809,-257.812,23.438,6.836
1572497048.602,25.879,27.344,-260.254,27.832,1.465
1572497048.606,27.832,30.762,-249.023,18.555,-18.555
1572497048.610,22.949,35.645,-217.773,18.066,-1.465
1572497048.614,30.762,32.715,-208.496,33.203,12.695
1572497048.618,36.133,32.715,-219.238,37.598,16.113
1572497048.622,34.180,39.062,-226.074,32.715,18.066
1572497048.626,29.297,40.039,-243.164,33.691,2.930
1572497048.630,23.926,33.691,-233.398,39.551,-1.953
1572497048.634,23.926,29.297,-208.984,33.203,3.418
1572497048.638,28.809,31.738,-190.918,34.668,7.324
1572497048.642,34.668,32.715,-176.270,31.738,21.484
1572497048.645,34.180,30.273,-188.477,28.320,9.766
1572497048.649,34.180,30.762,-190.430,34.180,-21.484
1572497048.653,24.414,32.227,-165.527,27.832,-9.766
1572497048.657,18.066,33.691,-149.414,27.344,22.461
1572497048.661,26.367,35.156,-165.039,30.762,25.879
1572497048.665,29.297,36.133,-179.688,26.367,23.926
1572497048.669,31.250,37.598,-188.477,25.879,14.648
1572497048.673,29.297,33.691,-198.730,22.461,-0.488
1572497048.677,27.832,29.785,-205.078,22.949,0.977
1572497048.681,30.762,34.180,-216.309,23.926,17.090
1572497048.684,34.668,39.551,-218.262,24.902,24.414
1572497048.688,38.086,43.457,-212.891,27.832,13.184
1572497048.692,42.480,44.434,-221.191,28.809,1.465
1572497048.696,38.574,43.945,-186.523,23.438,-3.906
1572497048.700,29.785,44.434,-133.789,15.625,4.395
1572497048.704,31.250,41.504,-108.887,20.020,5.859
1572497048.708,30.762,38.086,-71.777,23.438,15.137
1572497048.712,28.320,36.133,-53.711,18.066,13.184
1572497048.716,30.762,35.156,-75.195,15.137,13.184
1572497048.720,28.809,33.691,-96.680,17.578,37.598
1572497048.724,34.180,37.109,-107.422,24.414,23.438
1572497048.727,40.527,41.504,-95.215,32.227,-9.277
1572497048.731,37.109,41.504,-83.984,35.645,5.859
1572497048.735,34.180,37.598,-98.145,33.691,14.648
1572497048.739,33.691,32.715,-101.562,32.715,-0.977
1572497048.743,27.832,34.668,-92.773,37.109,6.836
1572497048.747,27.832,37.598,-101.074,39.062,-2.930
1572497048.751,28.809,33.203,-103.516,39.551,-7.812
1572497048.755,26.855,32.227,-67.871,32.715,-1.465
1572497048.759,27.832,34.668,-19.043,24.902,2.930
1572497048.763,22.461,28.809,8.301,27.344,16.113
1572497048.767,19.531,22.949,13.672,29.297,1.953
1572497048.770,21.973,22.949,6.348,25.391,-28.809
1572497048.774,20.996,26.855,31.738,19.043,6.836
1572497048.778,25.879,25.879,33.691,20.508,44.434
1572497048.782,31.738,28.320,-7.812,22.949,4.883
1572497048.786,26.855,30.762,-46.875,23.926,-19.531
1572497048.790,21.973,29.297,-58.594,29.785,-15.625
1572497048.794,20.996,29.785,-56.152,28.320,12.695
1572497048.798,26.855,27.832,-78.125,28.809,-3.906
1572497048.802,31.250,30.273,-65.430,22.949,-42.480
1572497048.806,24.902,37.598,-32.715,17.090,-10.254
1572497048.809,20.020,36.621,-38.574,21.973,26.367
1572497048.813,20.020,34.180,-50.781,19.043,20.996
1572497048.817,25.879,36.133,-70.801,18.066,16.602
1572497048.821,25.879,37.109,-100.098,13.672,11.719
1572497048.825,20.508,35.156,-125.488,9.277,17.090
1572497048.829,28.809,33.203,-135.742,7.324,15.137
1572497048.833,44.434,36.621,-153.809,20.996,-6.836
1572497048.837,46.875,37.598,-151.855,35.156,-7.324
1572497048.841,28.320,33.691,-134.766,25.879,-2.441
1572497048.845,16.602,28.320,-143.066,21.484,-10.742
1572497048.849,19.043,24.414,-123.047,26.855,-25.391
1572497048.852,18.066,20.508,-100.098,31.738,-0.977
1572497048.856,18.066,16.113,-106.934,33.203,12.207
1572497048.860,22.461,20.020,-91.309,30.762,-12.695
1572497048.864,24.902,24.902,-61.035,28.320,0.977
1572497048.868,27.832,22.949,-61.035,25.879,2.930
1572497048.872,32.715,17.578,-75.684,32.227,-26.855
1572497048.876,30.762,24.414,-72.266,34.668,-22.461
1572497048.880,27.832,30.762,-52.734,30.762,4.883
1572497048.884,32.227,29.785,-50.293,33.691,19.531
1572497048.888,29.785,27.832,-88.379,34.668,0.977
1572497048.892,21.973,27.344,-89.355,28.809,-11.719
1572497048.895,26.855,31.738,-60.547,29.785,14.160
1572497048.899,34.668,29.785,-71.777,32.227,0.000
1572497048.903,24.414,28.320,-73.242,24.414,-22.949
1572497048.907,16.602,30.273,-55.664,20.508,-5.859
1572497048.911,19.043,25.879,-23.926,21.484,-0.488
1572497048.915,27.832,26.855,-9.277,28.320,19.531
1572497048.919,39.062,32.715,-38.086,28.809,0.000
1572497048.923,38.574,34.668,-18.066,28.320,-2.441
1572497048.927,37.598,33.691,11.719,35.156,0.977
1572497048.931,37.109,30.762,-9.766,42.969,-32.227
1572497048.934,36.621,29.297,-39.551,40.527,-38.086
1572497048.938,31.738,34.180,-52.734,29.785,-17.578
1572497048.942,21.973,38.086,-61.523,23.926,19.531
1572497048.946,21.484,33.691,-92.285,23.926,10.254
1572497048.950,25.391,33.203,-103.516,29.297,-6.348
1572497048.954,21.973,35.156,-114.258,30.273,7.812
1572497048.958,21.484,34.180,-119.141,25.879,6.836
1572497048.962,21.484,30.762,-107.910,23.926,1.953
1572497048.966,24.902,33.203,-101.074,25.879,-9.277
1572497048.970,28.320,36.133,-96.191,25.879,-20.508
1572497048.974,29.785,34.180,-107.910,23.438,-18.555
1572497048.977,32.227,32.715,-117.188,24.414,-15.625
1572497048.981,30.762,30.273,-122.070,19.531,6.348
1572497048.985,31.738,31.250,-116.211,14.648,23.438
1572497048.989,32.227,26.855,-116.699,13.184,42.969
1572497048.993,33.691,24.414,-112.305,17.578,33.691
1572497048.997,38.574,30.762,-87.402,24.902,-5.371
1572497049.001,44.922,34.668,-71.289,23.926,2.930
1572497049.005,41.016,31.250,-72.754,23.926,41.016
1572497049.009,42.969,27.832,-83.984,30.762,25.391
1572497049.013,47.363,32.227,-84.961,32.227,17.090
1572497049.017,39.551,33.691,-84.473,25.391,35.156
1572497049.020,41.016,33.691,-82.520,29.297,33.691
1572497049.024,44.434,36.621,-91.309,33.691,12.695
1572497049.028,44.922,43.457,-89.844,33.691,-7.324
1572497049.032,42.480,48.340,-68.848,40.527,20.508
1572497049.036,43.945,43.457,-79.102,42.480,22.461
1572497049.040,52.734,41.016,-95.703,39.062,-10.254
1572497049.044,51.270,37.109,-28.809,34.668,-6.836
1572497049.048,48.828,28.809,115.723,35.156,10.254
1572497049.052,43.945,25.879,126.953,40.527,28.320
1572497049.056,35.156,33.691,41.504,40.039,45.898
1572497049.059,43.945,39.062,15.625,33.691,25.879
1572497049.063,44.434,36.133,-1.953,31.738,32.227
1572497049.067,45.898,32.715,-32.715,35.645,45.898
1572497049.071,47.363,36.621,-34.668,32.227,-1.465
1572497049.075,36.621,33.203,-6.836,23.438,15.137
1572497049.079,31.250,26.367,-5.371,24.902,42.969
1572497049.083,31.738,28.809,-8.301,27.832,26.367
1572497049.087,37.598,25.879,-13.672,37.109,31.250
1572497049.091,36.621,30.273,-33.203,39.062,38.574
1572497049.095,23.438,36.133,-65.430,21.484,39.551
1572497049.099,23.926,39.062,-83.008,20.996,36.621
1572497049.102,29.297,41.992,-73.242,22.949,43.945
1572497049.106,26.367,41.504,-68.848,14.648,47.852
1572497049.110,30.273,42.969,-74.219,23.926,45.410
1572497049.114,26.367,38.086,-88.379,24.414,39.551
1572497049.118,21.484,36.621,-74.219,17.090,16.602
1572497049.122,27.832,37.598,-46.875,17.578,23.926
1572497049.126,23.926,32.715,-47.363,19.043,47.852
1572497049.130,16.602,26.855,-64.453,17.578,25.391
1572497049.134,22.949,30.273,-69.336,7.812,2.930
1572497049.138,31.738,35.156,-78.125,11.719,19.043
1572497049.142,26.367,34.180,-93.262,18.555,26.367
1572497049.145,22.461,35.645,-96.191,18.555,25.391
1572497049.149,28.320,33.691,-92.285,23.926,26.367
1572497049.153,28.809,28.809,-88.867,33.203,7.812
1572497049.157,27.344,25.879,-86.426,34.180,-5.859
1572497049.161,35.645,24.414,-78.125,28.809,-11.230
1572497049.165,38.574,27.832,-73.730,25.879,-2.930
1572497049.169,34.180,31.250,-81.543,26.367,17.090
1572497049.173,27.832,28.320,-86.426,26.855,-7.812
1572497049.177,21.484,26.855,-42.480,19.531,-29.297
1572497049.181,29.785,34.180,51.758,13.184,0.000
1572497049.184,43.457,37.598,112.305,21.484,-2.441
1572497049.188,42.480,33.203,130.371,35.645,-7.324
1572497049.192,41.016,29.297,146.484,36.133,-14.648
1572497049.196,37.109,28.320,150.879,39.062,-28.320
1572497049.200,37.598,29.297,119.629,38.574,-16.602
1572497049.204,42.969,32.715,97.656,39.551,0.977
1572497049.208,43.457,30.273,73.730,44.922,-3.418
1572497049.212,39.062,30.762,54.199,41.504,-2.441
1572497049.216,44.434,41.016,44.434,37.598,-3.906
1572497049.220,51.758,41.992,19.043,33.203,-19.043
1572497049.224,47.852,38.574,15.137,38.086,-43.457
1572497049.227,38.574,38.574,28.809,39.062,-20.508
1572497049.231,35.645,36.133,20.020,33.203,13.672
1572497049.235,37.598,38.086,24.902,38.086,-3.418
1572497049.239,43.945,42.969,44.434,35.645,-4.395
1572497049.243,47.852,41.992,36.133,31.250,-6.348
1572497049.247,47.363,40.527,40.039,37.109,-18.555
1572497049.251,48.828,39.551,64.453,41.504,-5.859
1572497049.255,54.688,40.039,89.844,44.434,7.324
1572497049.259,53.711,39.551,103.027,43.945,11.719
1572497049.263,41.504,29.785,106.445,33.203,26.367
1572497049.267,31.738,25.391,137.695,24.414,7.812
1572497049.270,24.414,34.668,140.137,31.250,16.602
1572497049.274,26.855,39.062,94.238,26.855,23.926
1572497049.278,30.273,34.668,60.547,15.137,-10.254
1572497049.282,27.344,31.738,83.008,20.508,12.695
1572497049.286,34.180,31.738,118.652,24.414,26.855
1572497049.290,34.180,33.691,103.027,24.902,10.254
1572497049.294,30.762,41.504,87.402,27.832,-20.020
1572497049.298,25.391,33.203,76.172,17.578,-36.133
1572497049.302,20.020,23.926,52.734,16.602,-26.367
1572497049.306,24.902,25.391,52.246,20.508,-30.273
1572497049.309,17.578,22.949,32.227,15.137,-52.734
1572497049.313,4.883,25.391,5.859,8.301,-33.203
1572497049.317,6.836,27.832,-8.789,5.371,1.953
1572497049.321,8.301,24.902,-29.297,5.859,-8.301
1572497049.325,17.578,31.738,-16.113,12.207,-12.207
1572497049.329,24.414,34.668,1.465,18.555,-4.883
1572497049.333,15.625,26.855,-4.883,19.043,22.949
1572497049.337,21.973,24.902,-21.973,20.996,30.273
1572497049.341,27.344,24.414,-35.645,19.043,20.996
1572497049.345,19.043,24.414,-29.297,22.949,12.207
1572497049.349,15.625,25.391,-23.438,36.621,0.000
1572497049.352,19.043,26.855,-37.109,28.809,4.395
1572497049.356,31.738,31.738,-50.293,14.648,-21.973
1572497049.360,28.809,37.109,-25.391,15.625,-44.434
1572497049.364,23.438,42.480,-9.766,31.250,-7.812
1572497049.368,30.762,44.434,-18.066,30.273,15.137
1572497049.372,23.438,39.551,-25.879,25.391,10.254
1572497049.376,12.695,35.645,-13.184,26.855,22.949
1572497049.380,3.906,36.133,12.695,2.441,54.199
1572497049.384,0.977,41.992,18.066,-7.324,27.344
1572497049.388,4.395,51.758,-2.441,-1.465,9.277
1572497049.392,2.930,52.734,-15.625,-11.230,24.902
1572497049.395,-6.348,51.758,-15.625,-15.137,17.090
1572497049.399,-12.207,59.082,-4.395,-25.391,7.812
1572497049.403,-27.344,63.965,13.184,-35.156,25.391
1572497049.407,-42.480,58.594,15.625,-42.480,47.363
1572497049.411,-42.480,56.641,-0.488,-54.688,45.898
1572497049.415,-50.781,60.547,-8.301,-64.941,29.785
1572497049.419,-65.918,57.129,1.953,-88.379,27.344
1572497049.423,-73.242,58.594,6.348,-94.238,28.809
1572497049.427,-72.266,63.965,-9.766,-82.031,25.391
1572497049.431,-84.961,59.082,-24.414,-81.055,22.949
1572497049.434,-89.355,53.711,-15.137,-99.609,37.598
1572497049.438,-85.938,47.363,4.883,-101.074,18.555
1572497049.442,-84.961,42.969,5.859,-75.195,1.465
1572497049.446,-87.402,40.527,6.836,-84.961,5.859
1572497049.450,-91.797,38.086,16.113,-96.191,27.832
1572497049.454,-80.078,34.668,-2.441,-76.172,43.945
1572497049.458,-69.824,27.832,-5.859,-73.730,19.531
1572497049.462,-68.848,23.926,5.859,-72.754,15.137
1572497049.466,-63.965,22.461,-20.996,-50.781,20.996
1572497049.470,-60.059,17.090,-58.105,-44.922,41.504
1572497049.474,-51.270,16.113,-78.613,-47.852,41.016
1572497049.477,-38.086,20.996,-93.750,-46.875,34.668
1572497049.481,-29.785,19.531,-96.191,-43.457,24.902
1572497049.485,-25.391,12.695,-109.863,-32.227,4.883
1572497049.489,-17.578,9.277,-123.047,-20.996,3.906
1572497049.493,-14.160,7.324,-121.582,-15.625,6.836
1572497049.497,-16.113,5.371,-122.559,-12.207,9.277
1572497049.501,0.977,8.789,-137.207,1.953,26.855
1572497049.505,17.578,17.578,-155.273,8.789,9.277
1572497049.509,24.414,19.043,-136.230,-1.465,10.742
1572497049.513,34.668,18.555,-109.863,4.883,34.668
1572497049.517,36.621,23.438,-110.840,23.438,18.555
1572497049.520,33.203,28.320,-101.562,28.320,21.484
1572497049.524,36.133,29.785,-66.895,33.691,42.480
1572497049.528,46.875,27.344,-62.500,48.828,50.781
1572497049.532,50.781,23.926,-80.078,56.641,29.297
1572497049.536,47.363,23.926,-71.289,55.664,28.320
1572497049.540,58.105,23.438,-72.754,60.547,28.809
1572497049.544,61.035,22.949,-70.312,67.871,34.180
1572497049.548,57.129,21.484,-77.637,63.477,40.527
1572497049.552,61.035,22.461,-82.520,60.547,1.465
1572497049.556,70.801,25.391,-62.988,69.336,14.160
1572497049.559,79.590,27.832,-65.430,77.148,30.762
1572497049.563,86.426,35.156,-70.312,85.938,32.227
1572497049.567,87.891,32.227,-67.383,83.496,20.020
1572497049.571,88.867,28.320,-57.129,69.824,22.461
1572497049.575,90.820,31.738,-49.805,71.289,22.461
1572497049.579,88.867,35.645,-47.363,78.125,14.648
1572497049.583,88.379,39.062,-41.016,78.125,22.949
1572497049.587,88.379,37.598,-41.504,74.219,11.230
1572497049.591,84.473,33.203,-49.805,75.195,6.348
1572497049.595,81.543,32.715,-49.316,70.801,-3.418
1572497049.599,88.867,33.203,-41.504,66.406,-7.812
1572497049.602,83.496,29.785,-31.738,71.289,28.320
1572497049.606,73.242,25.391,-33.203,67.871,28.809
1572497049.610,76.172,23.438,-8.789,67.871,17.090
1572497049.614,70.312,23.926,40.039,64.941,33.203
1572497049.618,62.500,27.832,62.988,64.453,43.457
1572497049.622,57.617,30.762,71.777,70.312,40.039
1572497049.626,51.270,29.297,86.426,59.570,18.555
1572497049.630,52.734,30.273,102.051,58.105,-10.254
1572497049.634,60.059,30.762,114.746,63.477,5.371
1572497049.638,58.594,26.855,112.793,66.406,3.906
1572497049.642,55.176,29.785,108.398,57.129,-1.465
1572497049.645,55.664,30.762,106.934,49.316,15.625
1572497049.649,59.570,32.227,91.309,58.594,28.320
1572497049.653,47.852,28.809,58.105,63.477,6.836
1572497049.657,44.434,23.926,44.434,60.059,0.977
1572497049.661,49.805,23.438,45.410,50.293,30.762
1572497049.665,53.223,25.391,29.785,53.223,17.578
1572497049.669,60.059,27.344,18.555,52.734,-11.230
1572497049.673,55.664,31.738,14.160,44.434,0.977
1572497049.677,52.246,37.109,-4.395,50.293,15.137
1572497049.681,62.988,38.086,-16.602,56.152,29.297
1572497049.684,63.965,34.180,-32.227,48.340,-20.508
1572497049.688,64.941,34.668,-22.949,39.062,-31.738
1572497049.692,70.312,37.598,-11.719,46.387,11.719
1572497049.696,69.824,36.621,-35.156,54.199,43.457
1572497049.700,69.824,36.621,4.395,54.688,31.250
1572497049.704,68.848,39.551,78.613,47.363,-4.883
1572497049.708,65.918,39.062,79.102,48.828,1.465
1572497049.712,61.523,36.133,44.922,50.781,21.484
1572497049.716,57.617,36.133,8.789,52.246,11.230
1572497049.720,62.012,35.645,-17.090,55.176,-5.859
1572497049.724,60.547,37.109,-43.945,49.805,2.441
1572497049.727,59.570,41.992,-75.195,51.270,0.000
1572497049.731,59.082,41.016,-89.355,50.781,13.672
1572497049.735,55.176,40.527,-110.840,41.992,42.480
1572497049.739,62.988,42.969,-138.672,40.039,30.762
1572497049.743,57.129,41.016,-165.527,41.504,8.789
1572497049.747,47.363,42.480,-163.086,37.109,-1.465
1572497049.751,50.781,45.898,-138.672,35.645,17.578
1572497049.755,49.805,44.922,-135.254,37.109,40.527
1572497049.759,40.527,44.922,-129.395,40.527,22.461
1572497049.763,31.250,41.504,-124.512,38.086,15.625
1572497049.767,34.668,36.133,-108.398,33.691,44.434
1572497049.770,37.109,32.715,-91.309,40.527,33.203
1572497049.774,32.715,33.203,-99.121,35.645,2.441
1572497049.778,34.180,36.621,-104.004,22.949,3.418
1572497049.782,31.250,36.621,-96.680,25.879,33.203
1572497049.786,28.809,34.668,-107.910,20.996,32.227
1572497049.790,23.438,33.203,-115.234,16.602,1.465
1572497049.794,21.973,28.320,-103.516,23.926,25.391
1572497049.798,26.367,27.344,-105.469,33.691,29.785
1572497049.802,26.855,31.250,-107.910,34.180,2.441
1572497049.806,34.668,30.273,-105.957,30.762,0.488
1572497049.809,37.109,28.809,-100.098,26.367,31.250
1572497049.813,30.273,22.461,-104.492,21.973,31.738
1572497049.817,32.227,20.020,-107.422,23.438,-12.695
1572497049.821,35.645,19.531,-95.215,33.203,-6.348
1572497049.825,34.668,16.113,-82.520,30.273,25.391
1572497049.829,37.109,20.508,-79.102,28.320,30.762
1572497049.833,42.969,24.902,-106.934,31.250,6.348
1572497049.837,41.992,28.320,-108.398,20.996,-11.230
1572497049.841,42.969,32.227,-60.547,25.879,17.578
1572497049.845,49.316,32.227,-56.641,29.785,28.809
1572497049.849,45.410,30.273,-69.824,26.367,24.414
1572497049.852,45.898,28.809,-65.918,32.715,39.062
1572497049.856,53.711,32.227,-68.848,38.086,28.320
1572497049.860,57.617,34.180,-74.219,34.180,11.719
1572497049.864,60.059,35.156,-75.684,41.504,19.043
1572497049.868,52.734,40.039,-78.125,45.410,28.320
1572497049.872,41.504,36.621,-85.449,35.645,23.438
1572497049.876,49.805,38.574,-99.121,39.551,20.996
1572497049.880,57.129,41.504,-117.188,46.875,-19.043
1572497049.884,54.688,42.969,-105.957,49.316,-19.531
1572497049.888,54.688,41.992,-105.957,49.805,25.391
1572497049.892,61.035,38.574,-80.078,47.363,7.812
1572497049.895,59.570,43.945,2.441,51.758,-0.488
1572497049.899,53.711,48.340,40.039,51.270,14.648
1572497049.903,57.617,47.852,50.781,55.664,15.625
1572497049.907,58.594,45.898,44.434,52.734,-9.766
1572497049.911,54.199,45.410,35.645,53.223,19.043
1572497049.915,45.898,40.039,19.043,54.199,23.926
1572497049.919,38.574,36.133,16.602,43.945,5.859
1572497049.923,36.621,31.738,10.742,47.363,23.926
1572497049.927,42.480,29.785,-9.277,49.805,11.230
1572497049.931,44.922,33.691,-0.977,45.410,27.832
1572497049.934,46.875,38.086,-33.691,46.387,38.086
1572497049.938,40.039,37.109,-71.777,41.504,-3.906
1572497049.942,40.039,29.785,-82.031,36.133,-7.812
1572497049.946,43.457,29.785,-96.191,37.598,16.602
1572497049.950,40.527,38.574,-103.027,40.527,20.508
1572497049.954,41.016,40.039,-96.191,35.645,-1.465
1572497049.958,38.574,34.180,-79.102,27.832,0.488
1572497049.962,36.621,33.691,-57.617,30.273,34.180
1572497049.966,38.574,37.598,-58.105,32.715,44.922
1572497049.970,42.480,38.086,-69.336,32.227,26.367
1572497049.974,33.691,34.668,-56.152,30.762,24.902
1572497049.977,31.738,30.762,-39.062,31.738,40.527
1572497049.981,37.109,30.273,-41.992,29.785,29.785
1572497049.985,41.504,27.832,-44.922,22.461,-8.789
1572497049.989,39.551,26.855,-19.043,28.809,8.789
1572497049.993,37.109,25.879,-4.883,36.133,36.621
1572497049.997,41.992,27.344,-15.137,35.645,22.461
1572497050.001,38.574,33.203,-15.137,35.645,24.414
1572497050.005,30.762,30.273,19.531,34.180,5.371
1572497050.009,25.879,27.832,58.105,29.785,10.742
1572497050.013,27.344,33.691,45.410,30.273,18.066
1572497050.017,28.809,36.621,32.715,36.621,4.395
1572497050.020,29.297,38.086,37.109,37.598,20.996
1572497050.024,31.250,35.645,7.324,39.551,16.113
1572497050.028,40.039,36.621,-24.902,34.180,-3.418
1572497050.032,48.340,35.156,-21.973,25.879,16.113
1572497050.036,42.480,35.156,4.395,38.086,50.781
1572497050.040,41.016,33.691,5.859,43.457,56.641
1572497050.044,48.340,32.715,5.859,35.156,25.879
1572497050.048,44.922,34.180,9.277,35.645,11.230
1572497050.052,29.785,31.250,1.465,34.668,28.320
1572497050.056,31.738,33.691,-0.488,33.691,32.715
1572497050.059,41.016,37.109,-19.043,28.320,16.113
1572497050.063,42.480,36.621,-14.160,16.113,1.465
1572497050.067,46.387,36.621,-2.441,21.973,1.465
1572497050.071,42.969,38.086,-22.461,30.273,-12.207
1572497050.075,35.645,40.527,-22.461,27.344,-5.859
1572497050.079,39.062,41.504,-15.137,27.832,12.695
1572497050.083,38.086,36.621,-20.020,30.273,20.996
1572497050.087,35.645,30.762,-28.809,34.668,17.578
1572497050.091,34.668,32.715,-26.367,31.250,11.230
1572497050.095,32.715,35.156,-20.020,16.113,36.133
1572497050.099,32.227,31.250,-28.320,23.438,41.016
1572497050.102,31.250,30.273,-34.668,40.039,30.762
1572497050.106,36.621,31.250,-31.738,26.367,-7.812
1572497050.110,37.109,27.344,-26.855,13.672,-15.137
1572497050.114,34.668,29.785,-32.227,22.461,13.184
1572497050.118,39.062,26.855,-43.945,30.273,-13.184
1572497050.122,36.133,23.926,-30.273,30.762,-20.020
1572497050.126,33.203,29.297,-16.113,22.949,15.137
1572497050.130,36.621,30.762,-24.414,24.414,31.250
1572497050.134,28.809,24.902,-29.297,18.066,20.020
1572497050.138,19.043,24.902,-16.113,12.695,-0.488
1572497050.142,17.090,24.902,-1.465,19.043,14.648
1572497050.145,24.414,25.391,-5.859,24.414,10.742
1572497050.149,34.180,29.785,-11.719,24.902,-2.441
1572497050.153,37.598,31.738,2.441,28.320,-34.668
1572497050.157,39.062,33.691,33.691,39.551,0.000
1572497050.161,41.504,31.250,36.133,40.039,32.227
1572497050.165,44.434,32.227,33.203,31.738,31.250
1572497050.169,45.898,33.203,42.969,29.297,33.691
1572497050.173,49.316,30.762,52.734,35.645,52.246
1572497050.177,49.316,27.344,46.875,45.898,45.410
1572497050.181,43.945,29.785,50.293,48.340,0.977
1572497050.184,42.969,30.762,62.012,40.039,13.672
1572497050.188,39.551,28.809,55.176,32.715,39.062
1572497050.192,39.551,28.320,30.273,31.250,29.785
1572497050.196,44.922,32.227,25.391,28.320,-10.254
1572497050.200,31.738,40.527,59.082,20.508,-8.301
1572497050.204,19.043,39.062,66.406,21.973,21.973
1572497050.208,27.832,33.691,40.527,25.391,40.039
1572497050.212,38.574,31.250,28.320,27.344,12.695
1572497050.216,35.156,33.203,33.691,29.785,-2.930
1572497050.220,28.809,31.250,44.434,29.785,6.836
1572497050.224,34.180,30.762,49.805,25.391,22.949
1572497050.227,36.621,35.156,41.016,26.367,13.184
1572497050.231,22.949,36.621,35.645,23.438,9.277
1572497050.235,25.879,35.645,21.484,20.508,25.391
1572497050.239,35.156,35.645,7.324,22.461,18.066
1572497050.243,34.180,37.598,11.230,21.484,-16.602
1572497050.247,30.273,41.992,24.902,18.555,-10.254
1572497050.251,28.809,37.109,18.066,21.973,-9.277
1572497050.255,30.273,31.250,3.418,26.855,-46.875
1572497050.259,22.949,32.715,10.742,15.625,-14.160
1572497050.263,20.020,30.762,-4.883,20.020,19.043
1572497050.267,20.996,23.438,-25.879,28.809,7.812
1572497050.270,18.066,22.461,-17.090,19.043,11.719
1572497050.274,20.996,27.832,2.441,11.719,11.230
1572497050.278,13.672,27.344,15.137,20.020,14.160
1572497050.282,16.113,28.809,5.371,20.996,17.090
1572497050.286,24.902,32.227,-9.766,9.766,-15.137
1572497050.290,24.414,33.691,9.766,9.277,2.930
1572497050.294,17.090,30.762,33.203,20.508,32.715
1572497050.298,10.742,21.484,14.648,24.414,22.949
1572497050.302,15.137,19.531,13.184,12.207,9.277
1572497050.306,17.578,27.344,34.180,11.719,17.090
1572497050.309,18.066,21.484,22.949,19.531,30.273
1572497050.313,14.160,16.602,46.387,25.391,41.992
1572497050.317,10.742,28.809,104.492,31.250,49.316
1572497050.321,12.695,34.180,128.906,23.438,48.340
1572497050.325,26.367,33.691,124.023,14.648,20.020
1572497050.329,27.832,34.668,120.117,14.648,2.441
1572497050.333,11.230,27.344,121.094,15.625,8.789
1572497050.337,10.254,28.809,136.719,16.113,23.438
1572497050.341,16.602,34.668,146.484,8.789,36.133
1572497050.345,16.602,35.156,157.715,11.719,29.785
1572497050.349,12.207,38.086,181.641,18.555,42.969
1572497050.352,12.207,36.133,174.805,17.578,41.016
1572497050.356,17.090,35.156,163.574,27.344,20.996
1572497050.360,19.043,34.668,172.852,37.109,11.719
1572497050.364,18.555,36.133,180.176,25.879,22.949
1572497050.368,19.531,38.574,167.969,15.625,16.602
1572497050.372,21.973,38.574,150.391,27.344,-16.602
1572497050.376,18.555,32.715,134.766,28.320,-7.324
1572497050.380,17.090,26.855,132.812,21.484,-12.695
1572497050.384,20.996,27.344,146.484,27.344,-17.578
1572497050.388,24.902,26.367,150.879,28.809,5.859
1572497050.392,23.926,25.879,145.996,25.879,-21.484
1572497050.395,23.926,26.855,152.344,21.484,-7.324
1572497050.399,24.414,16.602,133.301,20.020,37.598
1572497050.403,4.395,2.441,94.238,12.207,1.953
1572497050.407,-13.672,-1.465,91.309,-12.695,-17.090
1572497050.411,-5.859,-2.930,89.844,-16.602,27.344
1572497050.415,-9.766,-10.742,52.246,-14.160,39.551
1572497050.419,-22.949,-9.277,42.480,-13.184,3.906
1572497050.423,-23.926,-1.953,49.805,-17.090,-1.953
1572497050.427,-20.996,-0.977,31.250,-25.391,-1.953
1572497050.431,-27.344,-8.301,16.602,-31.250,-3.906
1572497050.434,-36.133,-22.461,-12.695,-35.645,-24.902
1572497050.438,-42.969,-30.273,-14.648,-40.039,-39.551
1572497050.442,-44.434,-30.762,3.418,-41.992,28.809
1572497050.446,-34.180,-32.227,-9.277,-37.109,36.621
1572497050.450,-38.086,-33.203,-15.625,-39.551,1.465
1572497050.454,-42.969,-31.738,-3.906,-41.016,11.230
1572497050.458,-47.363,-33.203,-1.953,-35.156,18.066
1572497050.462,-44.434,-34.180,-8.789,-42.480,12.207
1572497050.466,-29.297,-30.273,3.906,-49.805,13.672
1572497050.470,-27.832,-25.879,21.484,-43.457,18.555
1572497050.474,-28.809,-24.414,24.902,-26.367,16.602
1572497050.477,-23.926,-25.391,8.301,-20.996,21.973
1572497050.481,-24.414,-23.926,16.113,-42.480,31.738
1572497050.485,-28.809,-15.137,33.691,-39.551,44.922
1572497050.489,-35.156,-12.207,16.113,-32.715,13.184
1572497050.493,-34.180,-5.371,11.230,-36.133,-11.719
1572497050.497,-27.344,2.930,26.855,-40.527,-14.648
1572497050.501,-25.879,2.441,37.109,-55.176,-4.883
1572497050.505,-29.297,4.395,37.109,-46.387,0.977
1572497050.509,-37.598,6.836,38.574,-50.293,13.672
1572497050.513,-43.457,10.742,30.273,-66.406,17.090
1572497050.517,-39.551,19.043,24.902,-59.570,4.883
1572497050.520,-38.574,22.949,22.461,-57.129,-13.184
1572497050.524,-59.570,23.926,39.062,-67.383,-15.625
1572497050.528,-68.359,29.297,53.223,-76.172,11.230
1572497050.532,-72.754,33.203,45.410,-88.379,21.973
1572497050.536,-89.355,33.691,36.133,-99.121,10.742
1572497050.540,-94.727,35.645,27.832,-106.934,-52.734
1572497050.544,-94.727,43.457,64.941,-115.234,-53.223
1572497050.548,-100.586,46.875,68.848,-117.188,4.883
1572497050.552,-103.516,41.992,27.344,-114.746,-15.137
1572497050.556,-104.004,38.086,27.344,-115.723,-39.551
1572497050.559,-104.980,38.086,45.410,-112.793,-14.160
1572497050.563,-100.586,37.109,47.363,-104.980,1.465
1572497050.567,-107.910,37.598,37.109,-104.492,-12.207
1572497050.571,-108.887,41.504,36.133,-112.305,1.953
1572497050.575,-93.262,42.969,40.039,-111.328,2.441
1572497050.579,-82.031,43.945,32.227,-94.238,2.441
1572497050.583,-77.637,39.062,3.418,-84.961,-6.348
1572497050.587,-71.777,32.715,-8.789,-92.285,-19.531
1572497050.591,-57.129,30.762,-0.977,-83.496,-0.977
1572497050.595,-46.875,29.785,-1.953,-63.965,14.648
1572497050.599,-33.691,19.043,-8.301,-54.688,4.883
1572497050.602,-26.855,15.625,0.488,-51.270,-8.301
1572497050.606,-35.156,22.949,8.789,-42.969,12.207
1572497050.610,-31.250,23.438,4.395,-32.715,17.578
1572497050.614,-18.066,20.020,8.789,-29.785,28.320
1572497050.618,-5.859,17.578,8.789,-20.996,19.043
1572497050.622,-1.953,18.066,23.438,-11.719,29.785
1572497050.626,6.836,14.160,19.043,-1.465,30.273
1572497050.630,11.230,13.672,0.000,-0.488,9.766
1572497050.634,11.719,14.648,16.113,-4.395,40.527
1572497050.638,19.043,9.277,26.855,7.324,63.965
1572497050.642,30.273,13.672,4.395,15.137,51.758
1572497050.645,42.480,20.996,-16.113,25.391,39.551
1572497050.649,36.621,13.672,-22.949,34.668,37.598
1572497050.653,36.133,9.766,-25.391,32.715,23.438
1572497050.657,47.852,15.137,-29.785,37.109,19.531
1572497050.661,51.758,16.113,-32.227,46.387,15.137
1572497050.665,57.129,17.578,-33.691,50.293,5.859
1572497050.669,60.547,19.043,-46.387,56.152,15.625
1572497050.673,62.500,16.113,-66.406,57.617,-6.348
1572497050.677,67.383,18.555,-57.617,56.152,8.789
1572497050.681,71.289,22.949,-34.180,61.035,39.062
1572497050.684,70.801,21.484,-22.461,67.383,26.367
1572497050.688,81.055,20.508,-36.621,72.266,0.488
1572497050.692,90.820,21.484,-11.230,71.777,-13.184
1572497050.696,89.355,21.484,53.711,69.824,19.531
1572497050.700,83.984,12.207,65.430,75.195,16.602
1572497050.704,87.891,9.766,76.172,82.031,5.371
1572497050.708,81.055,18.555,89.355,82.031,9.766
1572497050.712,72.754,23.438,72.266,81.055,-4.395
1572497050.716,74.219,26.855,29.785,78.613,0.000
1572497050.720,78.613,21.973,-17.578,71.777,-17.090
1572497050.724,80.078,21.973,-35.645,66.895,-12.695
1572497050.727,83.008,33.691,-35.645,76.172,22.949
1572497050.731,86.914,33.691,-56.641,83.984,9.766
1572497050.735,89.355,32.227,-66.895,77.148,25.879
1572497050.739,87.891,33.691,-45.898,78.125,49.316
1572497050.743,90.332,29.297,-19.043,83.496,45.410
1572497050.747,96.191,28.809,-12.695,85.938,61.523
1572497050.751,98.145,29.297,-23.926,85.449,49.316
1572497050.755,95.703,27.344,-22.949,84.473,24.902
1572497050.759,88.379,27.832,-7.324,86.426,39.551
1572497050.763,83.008,27.832,-25.879,82.031,39.062
1572497050.767,82.031,22.461,-33.203,81.055,20.508
1572497050.770,87.891,23.926,-26.367,77.637,31.250
1572497050.774,88.379,22.461,-44.434,68.848,17.090
1572497050.778,86.426,25.391,-45.410,63.477,-8.301
1572497050.782,78.613,26.855,-22.949,63.477,-1.953
1572497050.786,66.406,18.066,-3.418,69.824,35.645
1572497050.790,66.406,16.113,-2.930,71.777,49.316
1572497050.794,74.219,21.973,0.488,65.430,34.668
1572497050.798,71.289,26.855,3.418,60.059,38.574
1572497050.802,68.359,26.855,8.789,58.594,56.152
1572497050.806,71.289,27.832,14.648,51.270,67.383
1572497050.809,71.777,28.320,14.160,49.805,42.480
1572497050.813,69.824,27.832,41.016,60.059,44.922
1572497050.817,62.988,23.438,85.938,63.477,41.504
1572497050.821,57.129,15.625,120.605,63.477,34.180
1572497050.825,63.477,12.695,161.621,54.688,42.969
1572497050.829,65.430,20.508,188.965,49.316,36.133
1572497050.833,62.988,29.785,160.156,54.688,36.133
1572497050.837,60.059,29.785,129.883,55.176,1.465
1572497050.841,60.059,32.227,124.512,56.152,7.812
1572497050.845,61.523,35.156,117.676,59.570,28.320
1572497050.849,61.523,34.668,100.098,69.824,6.348
1572497050.852,68.359,35.645,87.402,67.383,7.812
1572497050.856,64.941,37.109,77.637,51.758,-7.812
1572497050.860,65.918,39.551,93.750,49.805,-2.441
1572497050.864,70.312,40.039,97.168,53.223,17.090
1572497050.868,57.617,41.504,81.543,54.199,-9.277
1572497050.872,57.129,44.434,90.332,62.012,-24.414
1572497050.876,63.965,47.363,100.586,62.500,-10.254
1572497050.880,60.547,42.480,88.379,56.152,-2.441
1572497050.884,57.129,35.156,77.148,62.988,-20.996
1572497050.888,55.664,37.109,67.383,61.523,-35.156
1572497050.892,56.152,36.621,69.336,49.316,-21.484
1572497050.895,50.293,31.738,73.242,50.781,-35.156
1572497050.899,42.969,28.320,68.848,49.805,-54.199
1572497050.903,40.527,33.203,94.727,36.621,-49.805
1572497050.907,40.527,36.621,115.723,29.297,-20.996
1572497050.911,34.180,33.203,96.680,38.086,-8.789
1572497050.915,20.508,33.203,102.051,42.969,-8.301
1572497050.919,22.461,36.621,124.023,36.621,-8.789
1572497050.923,22.461,34.180,128.906,33.203,12.207
1572497050.927,19.531,26.855,115.234,35.645,14.160
1572497050.931,28.320,27.344,109.375,42.480,-7.324
1572497050.934,25.391,28.320,119.141,41.016,3.906
1572497050.938,24.414,31.250,118.164,38.574,8.301
1572497050.942,33.691,27.344,97.656,32.715,-6.348
1572497050.946,28.320,18.066,83.496,24.902,-16.113
1572497050.950,20.996,18.555,108.887,25.879,-5.371
1572497050.954,23.438,21.484,116.211,28.809,20.508
1572497050.958,27.832,26.855,81.055,32.227,-4.883
1572497050.962,33.691,32.227,111.328,25.391,-14.160
1572497050.966,36.133,40.039,155.273,27.344,12.207
1572497050.970,31.250,39.551,146.484,38.086,0.000
1572497050.974,34.668,35.156,124.512,33.203,-1.953
1572497050.977,41.504,36.621,123.535,27.344,11.719
1572497050.981,42.969,41.992,124.023,36.621,25.391
1572497050.985,41.016,43.457,103.516,40.527,11.719
1572497050.989,30.273,34.668,88.867,44.922,26.367
1572497050.993,37.109,29.785,85.938,42.480,28.809
1572497050.997,45.410,38.086,90.820,31.250,36.621
1572497051.001,45.898,35.645,79.590,37.598,41.504
1572497051.005,44.434,30.762,63.477,36.133,5.859
1572497051.009,41.992,39.551,85.938,27.344,3.906
1572497051.013,37.109,42.969,102.051,34.180,18.066
1572497051.017,38.086,39.551,84.473,33.691,21.973
1572497051.020,41.016,39.551,80.078,28.320,23.438
1572497051.024,38.574,37.598,95.215,37.598,20.996
1572497051.028,40.039,34.668,95.703,34.180,32.715
1572497051.032,34.180,33.203,82.520,29.785,18.066
1572497051.036,35.156,35.645,82.520,32.227,7.812
1572497051.040,37.598,33.691,86.914,30.762,30.273
1572497051.044,35.645,26.855,94.238,33.691,25.391
1572497051.048,36.621,27.832,86.914,32.715,3.906
1572497051.052,36.621,30.273,86.914,27.344,6.836
1572497051.056,34.668,35.156,108.398,29.297,31.738
1572497051.059,29.785,32.715,101.074,29.297,20.020
1572497051.063,23.438,23.926,98.633,26.855,13.184
1572497051.067,20.508,20.508,99.121,29.297,30.273
1572497051.071,20.508,21.973,101.562,24.902,56.641
1572497051.075,24.902,23.926,91.797,20.996,54.688
1572497051.079,24.902,21.973,61.523,17.578,27.344
1572497051.083,15.625,19.531,55.664,15.625,19.531
1572497051.087,11.719,20.020,80.078,17.090,13.672
1572497051.091,7.324,19.043,90.332,23.926,26.855
1572497051.095,6.836,19.531,81.055,22.461,20.996
1572497051.099,8.301,26.855,75.195,12.695,-0.488
1572497051.102,20.020,33.691,69.824,11.230,24.414
1572497051.106,31.738,32.715,51.270,26.855,21.973
1572497051.110,31.250,33.203,38.574,22.461,28.320
1572497051.114,33.691,30.762,25.879,12.695,41.016
1572497051.118,28.809,24.414,20.996,24.902,50.781
1572497051.122,21.973,23.438,19.043,32.715,68.848
1572497051.126,18.555,25.879,16.602,33.203,47.852
1572497051.130,23.438,29.297,14.648,40.039,19.043
1572497051.134,23.926,29.785,25.391,38.086,12.207
1572497051.138,27.832,29.297,14.160,23.438,31.738
1572497051.142,39.062,31.250,-7.324,25.391,2.441
1572497051.145,33.691,34.180,16.602,35.645,6.348
1572497051.149,22.949,38.086,11.230,41.504,42.969
1572497051.153,21.484,38.574,-9.277,32.227,22.949
1572497051.157,29.785,36.133,-10.254,28.809,5.371
1572497051.161,28.809,32.227,-12.207,36.621,11.230
1572497051.165,26.367,27.344,-20.508,52.246,22.461
1572497051.169,26.367,26.367,-30.273,44.434,10.742
1572497051.173,20.508,24.902,-33.203,24.414,-19.043
1572497051.177,20.508,25.391,-37.598,33.691,-23.926
1572497051.181,36.133,28.320,-39.062,37.598,-20.020
1572497051.184,40.039,28.320,-23.438,29.785,-25.879
1572497051.188,30.762,30.762,-2.930,19.531,-12.695
1572497051.192,33.691,33.691,10.254,25.879,-4.395
1572497051.196,36.621,30.762,0.488,27.344,-0.488
1572497051.200,29.785,21.484,-18.555,31.738,-1.953
1572497051.204,22.461,22.949,-26.367,34.180,28.809
1572497051.208,26.367,27.344,-39.062,25.391,44.434
1572497051.212,38.086,26.367,-63.477,27.344,23.926
1572497051.216,36.621,30.273,-87.402,27.832,27.832
1572497051.220,27.832,31.738,-103.516,22.461,5.859
1572497051.224,32.227,27.832,-111.328,26.855,0.000
1572497051.227,32.715,20.508,-119.141,22.949,14.648
1572497051.231,28.809,18.555,-121.094,11.719,9.766
1572497051.235,30.762,20.996,-114.258,16.602,-2.930
1572497051.239,23.926,21.484,-110.840,20.996,3.906
1572497051.243,19.043,17.578,-121.094,20.996,25.391
1572497051.247,16.113,17.090,-120.117,19.043,15.137
1572497051.251,18.555,22.461,-102.539,11.230,33.203
1572497051.255,20.508,18.555,-105.469,11.719,41.016
1572497051.259,13.672,15.625,-102.051,15.625,20.020
1572497051.263,20.508,18.066,-96.191,11.230,3.906
1572497051.267,27.344,12.695,-94.238,19.531,-5.859
1572497051.270,26.367,15.137,-94.238,29.297,0.000
1572497051.274,21.484,21.973,-104.980,9.277,16.602
1572497051.278,17.090,29.785,-103.027,5.371,17.090
1572497051.282,19.531,34.668,-102.539,15.137,31.250
1572497051.286,24.902,31.250,-128.418,14.160,13.184
1572497051.290,27.832,35.156,-126.953,18.066,6.836
1572497051.294,32.715,35.156,-124.023,19.043,11.719
1572497051.298,36.621,31.738,-117.188,21.973,22.461
1572497051.302,36.133,32.227,-110.352,30.762,18.555
1572497051.306,40.527,33.203,-104.492,29.785,18.555
1572497051.309,34.668,30.273,-91.309,17.090,25.391
1572497051.313,31.738,32.227,-92.773,20.508,11.230
1572497051.317,36.133,41.504,-109.375,32.227,1.953
1572497051.321,35.156,45.898,-100.586,32.715,20.508
1572497051.325,40.527,48.340,-78.613,32.227,48.340
1572497051.329,43.945,49.805,-81.543,36.133,63.477
1572497051.333,36.621,44.434,-93.262,32.227,45.410
1572497051.337,38.574,45.898,-80.566,33.203,16.602
1572497051.341,35.156,47.852,-63.965,33.691,17.090
1572497051.345,25.879,45.410,-75.195,34.668,21.484
1572497051.349,28.809,46.875,-79.590,40.527,17.090
1572497051.352,38.086,42.969,-77.148,36.621,17.090
1572497051.356,46.875,39.062,-75.195,46.387,41.992
1572497051.360,43.945,37.598,-90.332,51.758,41.504
1572497051.364,39.062,34.668,-107.910,42.969,15.137
1572497051.368,37.598,28.320,-105.469,32.227,-15.625
1572497051.372,40.039,29.785,-80.566,41.504,9.766
1572497051.376,41.016,33.203,-79.102,53.223,40.039
1572497051.380,38.574,25.391,-98.633,48.828,-3.906
1572497051.384,37.109,24.902,-84.473,42.480,4.883
1572497051.388,35.645,22.949,-76.660,35.645,35.156
1572497051.392,36.621,14.648,-90.332,37.109,45.898
1572497051.395,38.086,15.137,-98.145,44.434,62.988
1572497051.399,40.527,21.484,-85.938,47.363,40.039
1572497051.403,37.109,22.461,-59.082,50.293,42.969
1572497051.407,35.645,16.602,-46.875,43.457,46.875
1572497051.411,36.621,16.113,-39.551,40.039,44.922
1572497051.415,33.691,20.508,-22.949,51.758,53.223
1572497051.419,26.855,20.020,-20.996,38.574,55.176
1572497051.423,24.414,18.555,-43.457,26.367,48.340
1572497051.427,25.879,20.508,-61.523,30.273,26.855
1572497051.431,29.297,20.020,-58.105,19.531,43.457
1572497051.434,36.621,20.508,-63.965,32.227,64.453
1572497051.438,31.738,19.531,-68.848,37.109,61.035
1572497051.442,30.762,23.438,-66.406,22.949,45.898
1572497051.446,40.527,27.832,-64.941,22.461,54.199
1572497051.450,39.551,30.273,-58.594,32.227,66.406
1572497051.454,36.133,40.527,-45.410,36.133,66.895
1572497051.458,33.691,40.527,-43.457,28.320,53.223
1572497051.462,35.645,38.086,-39.062,25.879,51.758
1572497051.466,47.363,42.480,-44.922,31.250,36.621
1572497051.470,50.293,45.898,-48.340,42.969,25.391
1572497051.474,42.480,44.922,-33.203,31.738,68.848
1572497051.477,45.898,40.039,-28.809,26.855,45.898
1572497051.481,44.434,35.156,-33.203,29.297,37.109
1572497051.485,40.039,37.109,-34.180,19.043,39.551
1572497051.489,46.875,38.574,-18.066,16.113,30.273
1572497051.493,47.852,31.738,-25.879,24.902,52.246
1572497051.497,49.316,32.227,-35.645,36.133,36.621
1572497051.501,53.223,37.598,-29.785,35.156,32.227
1572497051.505,49.316,40.039,-39.551,38.574,40.039
1572497051.509,39.062,43.457,-40.527,37.598,42.969
1572497051.513,26.855,40.039,-54.688,22.461,8.301
1572497051.517,21.484,38.574,-57.129,13.672,-20.996
1572497051.520,10.742,43.457,-43.945,10.742,8.301
1572497051.524,11.230,42.480,-48.340,11.719,17.578
1572497051.528,16.602,41.504,-45.898,13.184,14.160
1572497051.532,14.648,40.039,-12.695,14.160,4.395
1572497051.536,14.648,38.574,35.645,17.090,13.672
1572497051.540,14.160,38.574,60.059,20.020,19.531
1572497051.544,18.555,41.504,77.637,15.625,28.320
1572497051.548,19.531,43.457,88.379,16.602,15.137
1572497051.552,14.648,43.457,95.215,17.578,-8.301
1572497051.556,14.160,45.898,110.840,6.836,-13.184
1572497051.559,18.555,49.316,100.586,4.395,-43.945
1572497051.563,15.625,56.152,115.723,3.906,-40.527
1572497051.567,5.371,59.570,155.273,0.977,-11.719
1572497051.571,-3.906,56.152,158.691,-1.953,-28.809
1572497051.575,-13.672,55.176,149.902,-21.973,-40.527
1572497051.579,-19.043,57.129,127.441,-29.785,-16.602
1572497051.583,-26.367,61.523,99.121,-31.250,2.930
1572497051.587,-37.109,60.547,76.660,-51.758,-26.367
1572497051.591,-50.293,62.500,69.824,-61.523,7.324
1572497051.595,-61.035,68.359,67.871,-64.453,34.180
1572497051.599,-70.312,64.453,54.199,-68.848,2.441
1572497051.602,-87.402,57.617,44.922,-77.637,-8.789
1572497051.606,-95.215,61.523,50.293,-92.285,0.000
1572497051.610,-96.191,69.336,58.105,-104.004,19.043
1572497051.614,-105.469,66.406,40.527,-105.469,44.922
1572497051.618,-105.957,66.406,21.484,-102.051,44.922
1572497051.622,-108.398,71.289,7.324,-103.516,13.184
1572497051.626,-111.816,68.848,0.000,-98.633,2.441
1572497051.630,-105.957,57.617,-3.906,-95.703,35.156
1572497051.634,-98.145,60.059,-16.113,-98.145,36.621
1572497051.638,-95.215,68.359,-14.648,-89.355,23.926
1572497051.642,-85.938,65.918,-20.020,-88.867,32.715
1572497051.645,-69.824,65.918,-29.785,-93.750,51.758
1572497051.649,-59.570,64.941,-41.504,-78.613,19.043
1572497051.653,-55.176,61.523,-41.992,-65.918,-17.090
1572497051.657,-43.945,60.547,-29.297,-55.664,47.852
1572497051.661,-26.855,51.758,-42.480,-30.273,52.734
1572497051.665,-14.648,46.875,-54.688,-22.461,1.465
1572497051.669,-15.137,53.223,-37.109,-21.484,51.270
1572497051.673,-19.531,49.316,-34.180,-8.301,71.777
1572497051.677,-9.277,41.504,-46.875,-0.488,27.344
1572497051.681,6.836,40.039,-52.734,9.277,8.789
1572497051.684,9.766,40.039,-45.898,9.277,9.766
1572497051.688,11.719,38.086,-47.852,10.254,15.625
1572497051.692,16.602,29.785,-69.336,20.020,-6.836
1572497051.696,23.438,23.438,-62.500,20.996,-11.719
1572497051.700,36.133,32.715,-39.062,26.855,-9.277
1572497051.704,44.434,40.039,-30.273,40.527,1.465
1572497051.708,51.270,41.016,-35.156,51.758,15.625
1572497051.712,57.129,41.504,-31.738,55.664,9.766
1572497051.716,61.035,38.574,-15.137,51.758,48.828
1572497051.720,62.012,33.203,-20.508,58.594,62.988
1572497051.724,67.383,34.668,-29.297,68.359,-1.953
1572497051.727,76.660,40.527,-8.301,61.035,-15.625
1572497051.731,81.055,43.457,0.488,66.406,20.996
1572497051.735,80.566,40.527,-11.719,73.242,18.555
1572497051.739,80.566,36.621,-9.277,72.754,-4.395
1572497051.743,84.961,36.133,-9.766,75.684,-11.719
1572497051.747,89.844,37.109,-4.395,75.195,0.000
1572497051.751,89.355,37.109,-1.465,78.125,-3.418
1572497051.755,85.449,30.762,-19.043,83.008,-47.363
1572497051.759,90.332,27.832,-5.371,83.496,-40.527
1572497051.763,88.867,27.344,9.766,83.496,-14.648
1572497051.767,92.773,28.320,7.812,86.914,-26.367
1572497051.770,90.820,30.762,16.113,85.938,-5.859
1572497051.774,76.172,30.273,20.508,75.195,27.344
1572497051.778,71.777,29.297,17.090,67.383,2.930
1572497051.782,76.172,31.250,7.812,63.477,-10.742
1572497051.786,78.613,33.203,0.000,58.594,-8.301
1572497051.790,71.289,29.785,6.348,57.617,-11.719
1572497051.794,67.383,26.367,6.836,76.660,-7.324
1572497051.798,71.777,27.344,-10.742,89.844,-9.277
1572497051.802,75.195,27.344,-16.113,65.918,-22.949
1572497051.806,79.102,32.227,-6.348,52.246,6.348
1572497051.809,83.496,35.645,-14.648,53.711,39.551
1572497051.813,85.449,33.203,-10.254,58.594,20.508
1572497051.817,82.520,32.227,0.977,74.707,21.484
1572497051.821,72.266,28.320,-9.277,74.219,43.457
1572497051.825,80.566,30.273,-16.113,74.219,34.180
1572497051.829,83.496,32.227,-13.184,77.148,24.902
1572497051.833,70.801,26.855,-31.738,64.941,-1.953
1572497051.837,66.895,28.809,-29.785,57.617,-9.766
1572497051.841,62.500,28.809,-11.230,55.664,0.977
1572497051.845,55.176,20.996,-3.418,60.059,-20.020
1572497051.849,51.270,12.207,3.906,62.988,-19.043
1572497051.852,50.293,3.418,3.418,56.641,15.625
1572497051.856,49.316,2.441,-2.441,51.270,7.812
1572497051.860,48.828,11.230,-26.367,48.828,-29.297
1572497051.864,43.945,20.020,-14.648,50.781,-9.766
1572497051.868,35.156,20.996,-2.930,47.852,3.906
1572497051.872,31.250,19.043,-27.832,44.434,-3.418
1572497051.876,35.156,25.879,-42.480,45.898,-13.672
1572497051.880,40.527,33.203,-32.227,46.387,-25.391
1572497051.884,42.480,31.738,-10.742,45.410,2.441
1572497051.888,41.016,28.809,-11.230,41.016,7.812
1572497051.892,40.527,27.832,-13.184,33.203,-27.344
1572497051.895,40.527,30.273,14.648,31.250,-2.441
1572497051.899,37.109,31.250,15.137,40.527,22.949
1572497051.903,40.527,36.621,5.859,40.527,30.273
1572497051.907,40.039,36.621,8.301,41.016,27.832
1572497051.911,32.715,26.855,4.883,40.039,13.672
1572497051.915,35.156,28.320,-4.395,35.156,21.973
1572497051.919,39.062,34.668,-17.090,43.457,15.137
1572497051.923,41.016,35.645,-112.305,39.062,-12.695
1572497051.927,34.180,34.668,-231.934,42.969,-6.836
1572497051.931,34.668,31.250,-285.156,47.363,6.836
1572497051.934,41.504,24.902,-321.289,40.527,-5.859
1572497051.938,31.738,30.762,-326.660,39.551,-0.488
1572497051.942,30.762,35.645,-323.730,33.203,21.484
1572497051.946,46.875,29.297,-332.520,36.621,5.859
1572497051.950,55.176,26.855,-333.008,39.551,-3.906
1572497051.954,41.504,34.668,-325.195,40.039,0.977
1572497051.958,33.203,36.133,-315.430,48.828,31.738
1572497051.962,32.227,32.227,-335.938,35.156,31.250
1572497051.966,33.691,35.645,-333.496,28.809,26.855
1572497051.970,46.387,38.086,-312.012,40.527,47.363
1572497051.974,45.898,35.156,-308.594,44.434,24.902
1572497051.977,47.852,34.180,-286.621,51.270,4.395
1572497051.981,46.875,37.598,-259.766,43.457,-14.648
1572497051.985,34.668,40.527,-188.965,27.832,16.602
1572497051.989,34.668,42.969,-103.516,28.320,48.340
1572497051.993,41.992,41.016,-52.734,37.598,28.809
1572497051.997,40.527,40.039,-15.137,41.992,26.367
1572497052.001,43.945,46.387,-41.504,41.016,11.719
1572497052.005,46.387,46.875,-117.676,41.504,33.203
1572497052.009,44.922,41.992,-164.551,40.527,53.711
1572497052.013,44.434,45.898,-187.012,48.340,39.551
1572497052.017,47.852,47.363,-198.730,47.852,36.621
1572497052.020,46.387,44.434,-213.379,32.715,7.324
1572497052.024,36.133,43.457,-211.914,33.691,20.020
1572497052.028,40.527,42.480,-210.938,45.898,32.227
1572497052.032,42.969,48.828,-208.984,38.574,31.738
1572497052.036,45.898,54.688,-205.566,30.762,46.875
1572497052.040,43.457,48.340,-223.145,32.227,5.859
1572497052.044,29.785,46.875,-214.355,28.320,-26.855
1572497052.048,22.949,50.781,-199.707,26.367,14.648
1572497052.052,23.926,50.781,-208.008,26.367,44.922
1572497052.056,34.668,44.922,-202.637,23.438,51.270
1572497052.059,38.086,42.969,-183.594,27.344,48.828
1572497052.063,31.250,44.922,-173.828,30.762,44.922
1572497052.067,30.273,43.457,-186.035,28.320,62.012
1572497052.071,40.527,47.363,-154.785,24.414,61.523
1572497052.075,42.969,45.898,-100.098,23.926,40.039
1572497052.079,34.180,39.062,-94.238,29.297,30.762
1572497052.083,29.785,38.086,-110.352,29.297,54.688
1572497052.087,25.391,39.062,-131.348,30.273,58.594
1572497052.091,17.090,39.062,-135.254,27.832,48.828
1572497052.095,20.508,41.992,-126.953,21.973,60.547
1572497052.099,22.949,49.805,-121.094,20.020,51.270
1572497052.102,19.043,50.293,-116.211,15.625,39.551
1572497052.106,19.043,46.875,-104.492,9.277,65.918
1572497052.110,15.137,44.434,-101.562,14.648,59.570
1572497052.114,19.043,47.852,-111.816,20.508,35.156
1572497052.118,20.020,47.852,-106.445,18.555,11.719
1572497052.122,14.160,43.457,-83.496,16.602,23.438
1572497052.126,8.789,41.992,-66.895,25.391,62.500
1572497052.130,15.625,40.039,-69.336,13.672,55.664
1572497052.134,11.719,38.086,-49.316,9.766,50.781
1572497052.138,4.395,36.621,-36.133,15.625,59.082
1572497052.142,14.160,37.598,-49.805,9.766,60.547
1572497052.145,15.137,38.086,-49.316,18.066,64.453
1572497052.149,20.996,32.227,-62.012,6.836,48.340
1572497052.153,25.879,29.785,-79.102,7.812,36.621
1572497052.157,24.902,37.598,-82.031,29.297,47.363
1572497052.161,30.762,43.457,-85.938,28.809,18.555
1572497052.165,21.484,43.457,-76.660,29.297,12.695
1572497052.169,15.625,42.969,-69.824,27.832,32.227
1572497052.173,24.902,41.016,-84.473,32.227,47.852
1572497052.177,23.926,41.016,-92.285,31.250,37.598
1572497052.181,18.066,46.875,-67.871,26.367,29.785
1572497052.184,28.320,46.387,-61.035,24.414,41.992
1572497052.188,34.668,41.504,-77.148,17.578,38.086
1572497052.192,34.668,39.551,-80.078,23.438,49.805
1572497052.196,29.785,38.574,-67.871,24.414,74.707
1572497052.200,25.879,46.387,-69.336,16.602,61.035
1572497052.204,24.414,51.270,-76.660,16.113,32.715
1572497052.208,27.344,47.852,-68.359,15.137,25.391
1572497052.212,35.156,48.340,-60.059,10.742,53.711
1572497052.216,29.297,43.457,-64.941,10.254,88.867
1572497052.220,23.926,37.598,-78.613,2.441,46.875
1572497052.224,22.949,41.504,-63.477,-4.883,23.926
1572497052.227,16.113,48.340,-47.363,2.441,59.082
1572497052.231,11.719,49.805,-64.453,11.719,54.199
1572497052.235,11.719,50.293,-68.359,19.531,43.457
1572497052.239,20.508,52.246,-43.945,21.973,36.621
1572497052.243,16.113,43.945,-28.320,8.789,41.992
1572497052.247,14.648,43.457,-48.340,8.301,49.316
1572497052.251,21.484,51.758,-58.105,19.043,48.828
1572497052.255,19.043,47.852,-57.617,9.766,32.227
1572497052.259,14.648,42.969,-55.176,13.184,39.551
1572497052.263,10.742,41.504,-60.547,15.625,49.316
1572497052.267,15.137,43.457,-57.617,8.301,24.414
1572497052.270,20.020,49.316,-52.734,14.648,7.324
1572497052.274,18.066,50.781,-51.270,16.113,41.992
1572497052.278,23.926,44.434,-55.664,19.531,56.641
1572497052.282,22.461,38.086,-51.270,16.113,14.648
1572497052.286,16.602,40.527,-19.043,11.719,44.922
1572497052.290,21.484,43.945,-27.344,23.438,46.875
1572497052.294,31.738,48.828,-41.992,28.320,24.414
1572497052.298,42.480,51.758,-39.062,27.344,25.391
1572497052.302,43.457,51.758,-42.969,36.621,17.578
1572497052.306,62.500,49.805,-40.039,55.664,39.551
1572497052.309,54.688,39.551,-19.043,50.293,34.668
1572497052.313,32.227,37.109,-2.930,28.809,23.926
1572497052.317,36.133,36.133,-9.277,29.785,13.672
1572497052.321,40.039,30.273,-26.855,37.109,6.836
1572497052.325,40.039,26.367,-37.598,42.969,14.648
1572497052.329,36.621,29.785,-44.922,38.086,7.324
1572497052.333,38.086,39.062,-51.270,28.809,17.090
1572497052.337,43.457,39.551,-51.270,29.297,25.879
1572497052.341,45.410,38.086,-44.922,36.133,30.762
1572497052.345,44.434,38.086,-44.434,44.434,15.137
1572497052.349,50.293,37.598,-41.016,53.711,17.090
1572497052.352,46.875,35.645,-39.062,55.664,39.551
1572497052.356,40.527,36.133,-44.922,36.133,0.000
1572497052.360,38.086,36.621,-28.320,38.574,14.160
1572497052.364,39.551,30.273,-22.461,48.828,41.992
1572497052.368,44.922,33.203,-41.992,40.039,39.551
1572497052.372,40.039,41.504,-73.242,41.016,25.879
1572497052.376,44.434,41.016,-83.496,41.992,11.719
1572497052.380,50.781,30.273,-76.172,42.969,17.578
1572497052.384,42.969,31.250,-77.148,38.574,9.766
1572497052.388,41.016,39.551,-76.660,38.086,8.789
1572497052.392,39.062,33.691,-81.055,40.527,12.207
1572497052.395,40.527,30.762,-93.750,37.598,18.066
1572497052.399,44.922,36.621,-94.727,40.039,7.812
1572497052.403,44.434,37.109,-81.055,40.527,0.000
1572497052.407,48.340,37.109,-75.195,43.457,9.277
1572497052.411,47.363,41.504,-77.148,43.945,40.039
1572497052.415,45.898,37.109,-88.867,41.504,20.020
1572497052.419,44.434,33.691,-77.148,39.551,10.254
1572497052.423,44.434,38.574,-60.059,35.645,48.340
1572497052.427,41.992,38.574,-64.941,41.016,27.832
1572497052.431,39.062,33.691,-73.730,37.109,9.766
1572497052.434,38.574,35.645,-68.359,23.926,10.254
1572497052.438,31.250,36.621,-66.406,27.832,31.250
1572497052.442,30.762,34.180,-77.148,30.273,22.949
1572497052.446,27.344,41.504,-62.988,16.602,22.949
1572497052.450,29.785,45.898,-47.363,11.719,33.203
1572497052.454,25.391,44.922,-35.156,16.602,19.531
1572497052.458,17.578,38.086,-31.250,19.043,19.531
1572497052.462,29.297,37.598,-26.367,13.184,8.789
1572497052.466,29.297,45.898,-7.324,7.324,30.762
1572497052.470,21.973,44.922,-20.508,10.254,60.547
1572497052.474,29.297,41.016,-20.020,14.648,31.738
1572497052.477,28.320,38.574,-9.766,20.020,28.809
1572497052.481,25.879,39.062,-30.273,24.414,40.039
1572497052.485,18.555,31.738,-5.859,19.531,32.227
1572497052.489,6.836,25.391,44.922,15.625,20.996
1572497052.493,12.695,25.879,49.805,12.695,8.789
1572497052.497,16.113,28.320,45.410,16.113,7.324
1572497052.501,17.578,29.297,40.039,27.344,-2.930
1572497052.505,25.391,17.578,25.391,29.785,-16.602
1572497052.509,30.762,18.555,19.531,22.949,5.859
1572497052.513,28.809,33.691,15.625,25.391,5.371
1572497052.517,31.250,38.574,1.465,30.762,17.090
1572497052.520,44.434,30.273,-2.441,23.438,26.367
1572497052.524,46.387,28.320,6.348,19.043,41.504
1572497052.528,42.480,33.203,-5.859,28.320,40.039
1572497052.532,37.598,31.738,-14.160,37.109,15.137
1572497052.536,44.922,31.250,-6.836,43.457,30.273
1572497052.540,45.898,30.762,-2.930,44.922,30.762
1572497052.544,30.273,32.715,-4.395,29.297,20.020
1572497052.548,27.344,33.203,-28.320,18.555,15.137
1572497052.552,22.461,32.715,-31.250,20.996,-5.859
1572497052.556,24.902,38.574,-23.438,30.762,37.109
1572497052.559,36.133,41.504,35.645,39.062,87.402
1572497052.563,40.527,40.527,102.051,38.574,35.156
1572497052.567,46.387,42.480,52.246,39.062,30.762
1572497052.571,46.875,43.457,15.137,42.969,36.621
1572497052.575,37.598,39.551,6.348,41.992,23.438
1572497052.579,27.832,37.109,3.418,38.574,43.945
1572497052.583,23.926,34.180,-6.348,34.668,32.227
1572497052.587,25.391,31.738,-12.695,30.762,24.414
1572497052.591,21.973,27.832,-20.996,31.250,32.227
1572497052.595,21.484,20.020,-42.480,27.832,31.738
1572497052.599,26.855,20.508,-43.457,20.508,17.090
1572497052.602,31.738,26.855,-27.832,28.809,36.133
1572497052.606,26.367,20.508,-48.828,27.344,29.297
1572497052.610,27.344,18.555,-66.895,19.531,11.230
1572497052.614,30.273,22.949,-67.871,22.461,48.340
1572497052.618,30.273,18.555,-74.707,25.879,46.875
1572497052.622,41.504,22.461,-91.797,29.785,25.391
1572497052.626,48.828,31.250,-96.680,34.668,35.156
1572497052.630,57.129,34.668,-85.449,41.992,32.227
1572497052.634,56.641,36.621,-70.312,41.016,18.066
1572497052.638,52.246,36.133,-66.895,38.574,49.316
1572497052.642,56.641,31.250,-77.637,39.551,28.320
1572497052.645,51.270,28.320,-67.383,35.156,1.953
1572497052.649,42.969,25.879,-54.199,34.668,27.344
1572497052.653,41.504,22.461,-70.312,42.969,10.742
1572497052.657,46.387,23.926,-80.566,36.621,8.301
1572497052.661,43.457,30.762,-71.289,29.297,5.859
1572497052.665,41.992,32.227,-64.941,29.785,4.883
1572497052.669,45.898,28.320,-61.035,23.926,22.949
1572497052.673,45.898,31.250,-58.105,24.414,8.301
1572497052.677,53.223,35.156,-57.129,26.855,25.879
1572497052.681,44.922,34.180,-58.105,32.227,30.762
1572497052.684,38.574,28.320,-62.500,39.551,-2.930
1572497052.688,47.363,29.297,-58.594,30.762,-18.066
1572497052.692,47.852,31.250,-41.992,29.297,39.551
1572497052.696,43.945,25.879,-39.551,35.156,63.965
1572497052.700,44.434,31.250,-33.691,36.621,42.480
1572497052.704,50.781,41.504,-28.809,46.875,26.367
1572497052.708,40.527,37.598,-16.602,41.992,46.387
1572497052.712,17.090,26.367,-21.973,25.391,36.133
1572497052.716,16.113,21.484,-27.344,28.320,14.648
1572497052.720,19.043,15.625,-12.207,30.762,19.043
1572497052.724,16.113,19.043,-8.789,29.297,21.973
1572497052.727,21.484,25.879,-9.277,33.691,23.926
1572497052.731,20.508,26.367,-31.250,31.250,-20.020
1572497052.735,21.973,34.180,-24.414,22.949,-16.602
1572497052.739,27.344,34.668,-15.625,28.809,25.391
1572497052.743,32.715,32.227,-33.203,33.203,10.742
1572497052.747,31.250,29.297,-34.668,27.344,24.414
1572497052.751,27.344,30.762,-33.203,30.273,33.691
1572497052.755,26.855,31.250,-44.922,33.691,20.020
1572497052.759,26.855,29.297,-52.734,33.691,34.668
1572497052.763,31.250,33.691,-41.992,34.180,36.133
1572497052.767,31.250,34.180,-38.574,33.691,46.875
1572497052.770,27.832,28.809,-48.340,34.668,27.344
1572497052.774,21.973,23.926,-54.688,35.156,2.930
1572497052.778,18.066,23.926,-47.363,29.297,12.695
1572497052.782,22.461,29.297,-36.133,27.832,34.180
1572497052.786,21.973,28.320,-43.457,37.109,32.227
1572497052.790,24.902,30.273,-47.852,27.832,28.320
1572497052.794,27.344,38.574,-39.551,26.855,44.922
1572497052.798,33.203,41.016,-37.598,39.062,26.367
1572497052.802,37.109,35.645,-50.781,33.203,6.836
1572497052.806,30.273,34.180,-65.918,24.902,11.230
1572497052.809,23.926,33.203,-68.359,15.625,32.227
1572497052.813,22.461,29.297,-64.941,20.020,48.828
1572497052.817,24.902,26.855,-56.641,27.832,39.551
1572497052.821,19.043,28.320,-29.785,24.414,15.625
1572497052.825,10.742,30.762,4.395,22.949,3.418
1572497052.829,13.672,26.855,11.230,28.809,24.902
1572497052.833,16.113,29.785,22.949,31.250,28.809
1572497052.837,16.113,35.645,32.715,29.297,39.062
1572497052.841,20.020,35.645,24.902,30.762,42.969
1572497052.845,22.461,29.297,11.719,30.762,36.133
1572497052.849,19.043,27.832,3.418,26.855,32.715
1572497052.852,14.648,29.297,1.953,21.484,8.301
1572497052.856,10.254,29.297,3.418,22.949,-4.883
1572497052.860,14.648,38.086,14.160,28.809,11.230
1572497052.864,20.508,43.945,16.113,22.461,-10.742
1572497052.868,20.020,42.480,22.949,15.625,-44.922
1572497052.872,23.438,43.457,34.668,20.996,-20.020
1572497052.876,24.414,44.434,40.527,26.367,14.160
1572497052.880,31.738,40.039,23.926,26.367,-3.906
1572497052.884,34.180,43.457,25.879,18.066,-27.832
1572497052.888,32.715,48.828,46.387,17.578,22.949
1572497052.892,33.691,45.898,33.691,21.973,43.945
1572497052.895,35.645,41.992,27.344,19.043,7.324
1572497052.899,37.109,44.434,36.133,20.508,19.043
1572497052.903,30.762,45.898,27.344,20.508,38.574
1572497052.907,32.715,45.410,14.160,20.508,16.113
1572497052.911,36.621,44.922,13.672,20.508,-7.812
1572497052.915,30.762,41.016,27.832,18.066,15.625
1572497052.919,29.785,41.992,36.621,24.414,26.367
1572497052.923,25.391,44.922,26.367,24.902,18.066
1572497052.927,20.020,46.875,19.531,18.555,15.137
1572497052.931,20.996,50.293,98.145,14.648,40.527
1572497052.934,25.391,45.898,198.730,7.324,23.438
1572497052.938,18.555,41.016,254.395,8.789,-0.977
1572497052.942,23.926,41.992,222.656,15.137,-2.441
1572497052.946,40.039,46.387,166.504,20.020,1.953
1572497052.950,35.156,42.969,207.031,16.602,19.043
1572497052.954,33.203,38.086,262.207,16.113,40.527
1572497052.958,40.039,39.551,291.992,20.508,56.641
1572497052.962,36.133,36.621,314.453,25.391,36.133
1572497052.966,32.715,35.645,343.750,34.180,25.879
1572497052.970,32.227,40.039,346.680,31.250,15.137
1572497052.974,35.645,42.480,370.605,19.531,7.812
1572497052.977,38.574,45.898,407.715,23.438,45.898
1572497052.981,37.598,42.480,404.785,27.344,47.363
1572497052.985,32.715,39.062,419.922,25.391,33.691
1572497052.989,34.668,39.551,447.266,24.902,19.531
1572497052.993,41.992,37.598,464.355,29.785,21.973
1572497052.997,36.133,40.527,429.688,34.668,38.086
1572497053.001,31.250,42.480,381.348,34.180,15.137
1572497053.005,38.086,40.039,358.398,43.945,2.441
1572497053.009,31.250,38.574,341.309,39.062,18.555
1572497053.013,28.809,35.645,306.641,38.574,34.668
1572497053.017,37.598,35.156,270.508,32.715,9.277
1572497053.020,34.180,37.109,267.578,24.414,2.930
1572497053.024,31.250,35.156,236.816,33.691,32.715
1572497053.028,35.645,33.691,189.453,38.574,32.715
1572497053.032,39.062,39.062,164.062,43.945,25.879
1572497053.036,36.621,42.969,139.648,39.551,36.133
1572497053.040,33.691,41.992,116.699,35.156,8.301
1572497053.044,35.156,44.434,78.613,35.645,4.883
1572497053.048,30.762,44.434,3.906,28.809,2.441
1572497053.052,28.809,44.434,-34.180,28.809,6.836
1572497053.056,36.621,45.410,-45.898,34.668,39.551
1572497053.059,41.992,42.480,-62.988,36.133,19.531
1572497053.063,44.922,43.945,-63.477,37.109,20.508
1572497053.067,39.062,42.969,-58.594,35.156,44.434
1572497053.071,40.039,38.086,-65.918,31.738,34.668
1572497053.075,43.457,38.574,-85.449,24.414,-16.602
1572497053.079,41.504,41.504,-71.777,24.414,-12.695
1572497053.083,35.156,33.691,-56.641,25.879,39.062
1572497053.087,34.180,29.297,-69.336,24.902,21.973
1572497053.091,45.410,38.086,-64.941,24.414,17.578
1572497053.095,47.363,42.969,-57.617,23.926,7.324
1572497053.099,39.062,41.992,-49.805,28.320,-7.324
1572497053.102,38.574,40.527,-47.363,32.227,12.695
1572497053.106,42.480,40.527,-47.363,29.785,-0.977
1572497053.110,44.434,44.922,-24.902,24.414,12.695
1572497053.114,41.992,44.922,-23.438,29.297,33.203
1572497053.118,35.645,40.527,-43.945,35.645,32.715
1572497053.122,32.715,39.551,-46.387,31.738,23.926
1572497053.126,29.785,41.016,-38.574,27.344,34.180
1572497053.130,32.715,45.898,-44.922,26.367,38.574
1572497053.134,38.574,49.316,-43.457,34.668,19.043
1572497053.138,41.992,47.852,-38.086,38.574,17.578
1572497053.142,44.922,45.898,-40.527,38.086,28.320
1572497053.145,41.992,45.898,-49.316,42.969,42.969
1572497053.149,35.645,44.922,-57.129,31.250,32.715
1572497053.153,41.992,43.457,-39.551,32.227,26.855
1572497053.157,48.340,46.875,-24.902,44.922,37.109
1572497053.161,35.645,45.898,-48.828,30.273,23.926
1572497053.165,35.156,45.898,-56.641,26.367,20.508
1572497053.169,40.039,48.828,-58.594,27.344,21.973
1572497053.173,40.039,50.293,-72.754,32.715,23.926
1572497053.177,49.805,44.922,-95.215,44.922,52.734
1572497053.181,52.246,38.574,-112.793,46.387,54.199
1572497053.184,47.363,47.363,-98.145,46.875,54.688
1572497053.188,50.781,50.293,-104.980,52.734,47.852
1572497053.192,53.223,42.480,-132.812,51.270,35.645
1572497053.196,51.758,44.922,-136.719,44.922,52.246
1572497053.200,54.688,50.781,-123.047,44.434,37.109
1572497053.204,57.617,51.270,-119.629,47.852,16.113
1572497053.208,57.617,47.852,-140.137,51.758,39.551
1572497053.212,49.316,42.969,-145.508,47.363,35.156
1572497053.216,45.410,43.945,-128.906,45.898,11.719
1572497053.220,53.711,44.434,-142.578,43.945,1.465
1572497053.224,54.688,45.898,-142.090,37.109,22.949
1572497053.227,51.270,47.852,-129.395,38.086,27.832
1572497053.231,54.199,48.340,-123.535,39.062,24.902
1572497053.235,52.246,49.805,-119.629,40.039,28.809
1572497053.239,49.316,44.922,-118.652,43.945,19.531
1572497053.243,50.781,45.410,-112.793,38.086,14.648
1572497053.247,50.781,51.270,-101.562,30.273,24.902
1572497053.251,45.898,52.246,-89.355,37.598,22.949
1572497053.255,42.480,47.852,-98.633,35.156,-1.953
1572497053.259,41.016,43.945,-99.121,23.438,16.602
1572497053.263,33.691,42.969,-95.215,27.344,30.762
1572497053.267,32.715,44.434,-71.289,34.668,19.531
1572497053.270,35.156,43.945,-50.781,32.715,40.527
1572497053.274,38.574,43.945,-37.598,29.785,37.109
1572497053.278,39.551,44.434,-3.418,30.762,40.039
1572497053.282,37.109,43.457,16.602,30.762,56.641
1572497053.286,39.551,42.480,23.438,32.715,28.320
1572497053.290,38.086,44.922,46.875,29.297,7.812
1572497053.294,38.086,45.898,66.406,30.762,53.223
1572497053.298,38.574,39.551,42.480,34.180,42.480
1572497053.302,35.156,34.668,37.109,23.926,-7.812
1572497053.306,39.551,38.574,55.176,20.996,4.883
1572497053.309,39.551,43.457,45.898,22.461,21.484
1572497053.313,36.133,41.992,23.926,22.949,-0.488
1572497053.317,28.809,40.527,22.949,17.090,5.371
1572497053.321,20.020,38.086,26.367,8.301,22.461
1572497053.325,24.902,34.668,6.836,14.648,22.461
1572497053.329,22.461,27.832,-8.789,11.230,31.738
1572497053.333,14.648,18.066,-18.066,5.371,20.996
1572497053.337,11.719,14.160,-25.879,4.395,25.391
1572497053.341,9.277,13.672,-36.133,5.859,7.812
1572497053.345,15.137,6.348,-51.758,12.695,-17.090
1572497053.349,17.090,3.906,-45.898,7.812,-6.836
1572497053.352,10.742,8.301,-32.715,3.418,19.531
1572497053.356,10.254,10.742,-47.852,3.906,35.156
1572497053.360,10.742,12.207,-53.711,1.953,33.203
1572497053.364,6.348,10.254,-52.734,-1.953,26.855
1572497053.368,4.883,10.742,-58.594,-2.441,27.832
1572497053.372,7.324,14.648,-68.359,-1.465,35.645
1572497053.376,10.742,15.137,-72.266,-2.441,21.484
1572497053.380,11.719,13.672,-62.500,-5.371,38.086
1572497053.384,13.184,14.648,-57.129,0.000,36.621
1572497053.388,16.602,13.672,-57.129,5.859,1.953
1572497053.392,19.531,14.160,-50.293,5.859,-6.348
1572497053.395,19.531,19.531,-35.645,6.836,16.602
1572497053.399,20.020,24.414,-39.551,5.859,46.387
1572497053.403,21.973,25.391,-53.711,2.930,50.293
1572497053.407,21.484,24.902,-52.734,3.418,54.688
1572497053.411,21.973,25.391,-47.852,10.742,45.410
1572497053.415,21.973,20.020,-66.406,11.230,23.926
1572497053.419,20.996,21.484,-63.477,14.648,32.227
1572497053.423,18.066,28.320,-62.500,17.578,42.480
1572497053.427,16.602,27.344,-84.473,7.324,23.438
1572497053.431,20.508,28.809,-73.242,0.977,43.457
1572497053.434,16.602,26.367,-83.496,7.812,20.020
1572497053.438,12.207,25.391,-85.449,0.000,-0.488
1572497053.442,19.531,33.203,-65.918,-3.418,42.969
1572497053.446,20.020,34.668,-74.219,8.789,40.527
1572497053.450,14.648,33.691,-68.848,6.348,7.324
1572497053.454,16.602,36.133,-62.988,9.766,2.441
1572497053.458,17.090,36.621,-70.801,18.555,41.992
1572497053.462,15.625,34.180,-97.168,12.207,36.621
1572497053.466,19.531,34.180,-107.422,10.254,21.973
1572497053.470,22.949,38.086,-96.191,7.812,69.824
1572497053.474,30.273,36.133,-99.121,6.836,38.574
1572497053.477,31.738,28.809,-97.168,14.160,-11.719
1572497053.481,30.273,31.738,-83.496,17.090,-1.465
1572497053.485,31.250,42.969,-60.547,19.531,21.973
1572497053.489,26.367,48.340,-63.477,18.555,40.527
1572497053.493,28.320,46.875,-77.637,21.973,31.250
1572497053.497,22.949,40.527,-72.754,22.461,43.457
1572497053.501,18.066,33.691,-70.801,23.438,57.129
1572497053.505,23.926,34.668,-87.891,20.020,38.086
1572497053.509,29.785,35.156,-99.121,22.949,25.391
1572497053.513,36.133,40.527,-89.355,24.414,12.207
1572497053.517,33.203,42.969,-81.055,25.879,22.949
1572497053.520,33.691,34.180,-87.891,32.227,33.691
1572497053.524,32.715,33.691,-96.191,27.832,4.395
1572497053.528,24.414,37.598,-86.426,22.461,-11.719
1572497053.532,19.043,38.574,-74.707,15.625,6.836
1572497053.536,17.090,37.109,-84.473,21.484,4.395
1572497053.540,26.367,31.738,-85.938,34.180,0.000
1572497053.544,27.344,30.273,-83.984,27.344,28.809
1572497053.548,30.273,34.668,-91.309,20.996,36.621
1572497053.552,37.598,39.062,-93.262,31.738,25.879
1572497053.556,37.109,40.527,-101.074,30.273,5.371
1572497053.559,39.062,38.086,-95.703,29.785,17.578
1572497053.563,38.574,37.109,-89.355,42.480,57.129
1572497053.567,36.133,34.180,-105.957,44.922,46.875
1572497053.571,40.039,32.227,-112.793,39.062,13.672
1572497053.575,43.457,37.598,-100.098,36.621,15.137
1572497053.579,50.781,38.574,-93.750,30.762,43.945
1572497053.583,59.570,40.039,-90.332,36.621,48.828
1572497053.587,56.641,38.574,-84.961,39.062,30.273
1572497053.591,55.176,35.645,-79.102,39.062,37.598
1572497053.595,56.641,37.109,-81.543,41.992,55.664
1572497053.599,50.293,35.156,-82.031,43.457,55.664
1572497053.602,51.758,38.086,-81.055,46.875,36.133
1572497053.606,51.758,40.527,-86.426,35.645,7.324
1572497053.610,42.969,39.551,-90.332,32.715,21.484
1572497053.614,42.969,39.062,-94.238,38.086,52.734
1572497053.618,44.434,41.016,-98.145,37.109,18.066
1572497053.622,48.828,44.434,-98.633,25.391,-7.324
1572497053.626,43.457,40.527,-99.609,15.625,34.668
1572497053.630,47.363,36.133,-118.164,20.508,30.273
1572497053.634,53.711,40.527,-107.422,27.832,-5.859
1572497053.638,48.828,40.527,-76.172,30.273,26.855
1572497053.642,49.805,39.551,-67.871,34.180,56.641
1572497053.645,50.293,41.016,-62.012,35.645,45.898
1572497053.649,56.152,43.945,-42.480,35.645,31.738
1572497053.653,53.223,49.316,-36.621,47.852,27.344
1572497053.657,45.410,51.270,-49.805,45.898,24.414
1572497053.661,40.039,50.293,-48.340,31.738,29.297
1572497053.665,47.852,52.246,-32.715,32.227,23.438
1572497053.669,50.293,51.758,-23.438,29.785,10.254
1572497053.673,41.016,45.410,-41.504,30.762,20.508
1572497053.677,37.109,45.898,-49.805,33.203,12.207
1572497053.681,41.504,48.828,-29.297,36.133,0.488
1572497053.684,38.574,46.875,-29.297,43.457,39.062
1572497053.688,31.738,41.992,-45.410,38.086,50.781
1572497053.692,35.645,36.621,-45.410,35.156,15.137
1572497053.696,37.598,37.109,-33.691,31.738,-5.859
1572497053.700,39.062,33.691,-40.039,27.344,3.418
1572497053.704,41.016,34.180,-41.504,27.832,9.277
1572497053.708,46.387,36.621,-40.527,30.273,-22.949
1572497053.712,41.992,39.551,-31.738,33.203,9.277
1572497053.716,31.250,39.062,-36.621,31.738,19.043
1572497053.720,27.832,33.691,-51.758,20.996,-3.906
1572497053.724,30.762,34.668,-35.156,19.043,-9.766
1572497053.727,31.738,36.133,-5.859,23.926,-1.953
1572497053.731,34.668,32.715,-3.906,20.996,2.441
1572497053.735,41.016,33.691,18.066,23.438,-11.230
1572497053.739,43.457,41.016,63.477,24.902,3.418
1572497053.743,44.434,43.945,80.078,30.273,22.949
1572497053.747,47.363,37.598,83.008,37.109,7.812
1572497053.751,48.340,34.180,79.102,29.297,-12.207
1572497053.755,42.480,36.133,67.383,30.762,-14.160
1572497053.759,41.992,38.086,69.336,34.180,5.859
1572497053.763,41.504,30.762,76.172,21.973,29.297
1572497053.767,38.086,25.879,84.961,28.320,18.555
1572497053.770,40.039,34.668,107.910,27.832,22.949
1572497053.774,33.691,37.598,116.699,24.414,41.016
1572497053.778,29.297,37.598,118.652,23.926,30.273
1572497053.782,33.203,39.062,134.277,18.066,27.344
1572497053.786,30.762,40.527,139.160,25.391,41.504
1572497053.790,25.879,36.621,124.023,19.043,32.715
1572497053.794,34.668,36.621,115.234,18.066,24.414
1572497053.798,35.645,40.039,117.188,23.926,56.641
1572497053.802,31.738,38.574,104.980,31.738,47.363
1572497053.806,39.551,41.016,99.121,33.203,19.531
1572497053.809,52.246,39.551,89.844,34.668,8.301
1572497053.813,44.922,45.410,93.750,36.621,2.930
1572497053.817,36.133,48.828,104.492,34.668,25.879
1572497053.821,34.668,40.039,89.844,36.621,11.230
1572497053.825,23.926,38.574,88.379,25.879,25.391
1572497053.829,26.367,40.039,84.473,23.438,22.461
1572497053.833,27.832,40.527,84.961,29.297,-6.836
1572497053.837,31.738,44.922,83.008,35.645,-16.113
1572497053.841,27.832,43.945,76.660,31.250,-6.348
1572497053.845,26.855,36.133,78.613,21.973,1.953
1572497053.849,29.297,37.109,61.523,22.461,-9.766
1572497053.852,27.344,41.504,61.523,17.090,-23.438
1572497053.856,24.414,39.551,99.121,13.672,-25.879
1572497053.860,24.902,35.645,142.578,18.555,2.930
1572497053.864,33.691,32.227,154.297,21.973,48.340
1572497053.868,37.109,33.691,123.047,24.902,20.020
1572497053.872,33.203,40.527,103.027,23.926,-29.785
1572497053.876,31.250,42.480,92.285,27.832,-8.789
1572497053.880,34.180,35.645,68.848,28.809,-3.418
1572497053.884,34.668,32.227,66.895,19.531,-6.836
1572497053.888,39.062,32.227,66.895,27.344,-14.648
1572497053.892,33.691,28.809,82.031,30.273,28.809
1572497053.895,24.902,25.879,82.031,32.227,54.199
1572497053.899,41.992,20.996,62.500,46.875,42.969
1572497053.903,46.387,22.461,47.363,47.363,52.734
1572497053.907,20.020,31.250,25.879,23.438,42.480
1572497053.911,9.766,30.762,9.277,9.766,37.598
1572497053.915,8.789,22.461,-5.859,2.441,14.648
1572497053.919,-6.348,21.973,7.324,-8.301,0.977
1572497053.923,-7.324,28.320,29.297,0.000,21.973
1572497053.927,-4.883,24.414,8.789,-8.789,21.484
1572497053.931,-23.926,21.484,-13.672,-25.879,21.973
1572497053.934,-23.438,27.344,-12.695,-18.066,29.785
1572497053.938,-10.742,32.715,-17.090,-13.672,35.156
1572497053.942,-13.184,27.832,-38.086,-13.672,12.207
1572497053.946,-5.371,28.809,-22.949,-5.859,0.977
1572497053.950,3.418,37.598,16.113,-8.301,16.602
1572497053.954,-3.906,35.156,14.648,-15.625,11.230
1572497053.958,0.977,31.250,8.301,-6.836,-0.977
1572497053.962,10.254,35.645,10.742,-10.254,16.113
1572497053.966,12.695,37.109,5.371,-9.277,36.133
1572497053.970,22.461,37.109,-10.742,11.230,42.969
1572497053.974,24.414,40.527,-21.973,12.695,11.719
1572497053.977,16.602,40.039,-21.484,7.324,-10.254
1572497053.981,16.602,37.598,-16.113,8.301,22.461
1572497053.985,24.902,35.645,-19.043,11.230,47.363
1572497053.989,34.180,32.715,-17.090,14.648,18.555
1572497053.993,28.809,38.086,-0.977,20.508,17.578
1572497053.997,24.902,44.922,6.836,21.973,38.086
1572497054.001,28.320,43.945,-2.930,22.949,35.645
1572497054.005,35.645,47.852,-17.090,30.762,33.691
1572497054.009,33.203,42.969,-14.648,16.602,23.438
1572497054.013,40.039,34.668,-11.230,16.602,34.180
1572497054.017,41.504,42.969,-17.578,28.809,50.781
1572497054.020,30.762,43.457,-17.090,22.461,51.270
1572497054.024,36.621,36.133,-17.090,23.438,47.852
1572497054.028,37.109,34.668,-11.230,16.602,55.176
1572497054.032,30.273,29.785,-17.090,16.113,63.477
1572497054.036,41.016,30.762,-24.414,24.414,37.109
1572497054.040,44.434,36.133,-8.301,13.184,22.461
1572497054.044,32.227,37.109,11.230,9.766,35.156
1572497054.048,32.227,35.156,10.742,21.484,42.969
1572497054.052,32.227,30.762,3.418,16.113,45.410
1572497054.056,23.926,23.438,8.789,19.043,52.246
1572497054.059,23.438,30.762,-1.953,26.855,39.062
1572497054.063,28.809,39.062,0.488,22.949,14.160
1572497054.067,30.762,40.527,11.230,19.043,18.555
1572497054.071,27.832,34.180,22.461,30.762,51.758
1572497054.075,44.434,33.203,35.645,49.316,52.734
1572497054.079,39.551,42.480,38.086,35.156,25.391
1572497054.083,31.250,44.922,27.344,20.996,28.320
1572497054.087,43.945,49.316,15.137,27.344,39.551
1572497054.091,40.039,47.852,11.230,20.020,27.832
1572497054.095,31.250,40.527,-7.812,22.949,-27.344
1572497054.099,25.879,41.504,15.137,36.621,-41.992
1572497054.102,28.809,46.875,65.430,32.715,0.977
1572497054.106,28.320,50.293,80.566,24.414,13.184
1572497054.110,43.945,52.734,97.656,32.715,3.418
1572497054.114,52.734,52.734,101.562,33.203,-6.348
1572497054.118,45.410,49.805,96.191,41.992,12.695
1572497054.122,45.410,48.340,89.844,40.039,-8.301
1572497054.126,48.340,44.434,87.402,29.785,-43.945
1572497054.130,38.574,40.527,82.520,31.738,-37.598
1572497054.134,32.227,44.922,84.961,26.855,-40.039
1572497054.138,40.527,48.828,81.543,23.438,-33.691
1572497054.142,49.316,41.992,66.406,29.297,-35.645
1572497054.145,47.852,37.109,75.195,26.367,-14.648
1572497054.149,44.922,43.945,66.406,33.203,-17.090
1572497054.153,48.828,42.969,76.172,43.945,-58.105
1572497054.157,42.480,40.527,162.109,36.133,-66.895
1572497054.161,41.504,40.527,234.375,39.551,-42.969
1572497054.165,42.969,37.109,284.668,47.852,-33.691
1572497054.169,57.129,41.992,308.594,49.805,-55.664
1572497054.173,62.500,41.504,292.969,52.734,-64.453
1572497054.177,47.852,31.250,295.898,46.875,-80.566
1572497054.181,46.875,28.320,303.223,48.340,-92.773
1572497054.184,50.781,29.297,270.020,48.828,-95.703
1572497054.188,45.898,28.320,243.164,31.738,-92.285
1572497054.192,45.410,32.715,237.305,35.156,-72.266
1572497054.196,51.270,34.668,204.590,54.199,-70.312
1572497054.200,51.758,33.203,191.406,54.688,-76.660
1572497054.204,55.176,35.645,264.160,48.828,-80.566
1572497054.208,51.758,35.156,271.484,56.152,-64.453
1572497054.212,43.945,34.180,180.664,57.617,-64.941
1572497054.216,52.734,41.504,127.441,49.805,-93.750
1572497054.220,61.035,41.992,110.352,50.781,-62.988
1572497054.224,52.734,35.156,104.004,53.223,-30.762
1572497054.227,40.527,36.621,82.031,48.340,-45.410
1572497054.231,49.805,39.551,56.641,49.805,-62.500
1572497054.235,60.059,48.340,78.125,45.410,-44.434
1572497054.239,54.199,53.223,73.242,41.504,-17.090
1572497054.243,62.012,54.199,52.246,46.875,-12.207
1572497054.247,67.871,50.781,59.082,54.688,-18.066
1572497054.251,51.758,39.551,54.688,40.527,-20.996
1572497054.255,38.574,34.180,38.086,21.484,-31.738
1572497054.259,38.086,28.809,31.738,30.762,-18.555
1572497054.263,36.621,23.926,39.062,37.598,-2.930
1572497054.267,42.480,30.273,40.527,37.109,-26.367
1572497054.270,54.199,38.574,39.551,43.945,-24.414
1572497054.274,47.363,38.086,38.574,24.902,-25.391
1572497054.278,38.574,36.133,56.152,22.949,-38.574
1572497054.282,32.227,36.621,74.219,33.203,0.977
1572497054.286,41.992,30.762,52.734,23.926,14.160
1572497054.290,47.363,27.832,33.203,32.715,4.883
1572497054.294,32.715,32.715,43.457,33.203,34.180
1572497054.298,32.715,38.086,67.383,36.133,39.062
1572497054.302,37.598,42.969,73.730,40.527,27.832
1572497054.306,39.551,42.480,63.477,38.086,15.625
1572497054.309,42.969,34.668,62.012,39.551,19.531
1572497054.313,45.898,32.715,56.641,44.922,52.734
1572497054.317,52.246,37.598,32.227,44.434,30.273
1572497054.321,50.781,33.691,36.133,43.945,-6.348
1572497054.325,40.527,21.973,50.293,36.133,-2.441
1572497054.329,42.480,23.438,43.457,33.691,40.039
1572497054.333,50.293,30.762,46.387,38.574,35.645
1572497054.337,51.270,37.109,74.707,28.320,24.902
1572497054.341,52.246,44.434,105.957,27.344,37.109
1572497054.345,57.617,44.434,108.887,32.227,53.223
1572497054.349,51.270,40.527,81.055,28.320,38.574
1572497054.352,46.875,41.992,57.617,33.203,9.277
1572497054.356,44.434,42.969,64.941,37.109,20.996
1572497054.360,44.922,40.527,68.848,35.156,42.969
1572497054.364,48.340,38.574,45.898,38.086,54.688
1572497054.368,38.574,33.691,40.527,27.832,41.992
1572497054.372,30.762,26.855,38.086,22.949,35.156
1572497054.376,31.250,27.832,25.391,33.203,29.785
1572497054.380,25.879,31.250,20.508,30.273,39.062
1572497054.384,24.414,29.785,11.230,23.438,58.594
1572497054.388,24.414,26.367,-1.465,22.461,61.035
1572497054.392,18.555,16.113,-21.973,20.996,10.254
1572497054.395,20.996,13.184,-27.344,21.484,-9.766
1572497054.399,28.809,21.973,-8.301,24.902,17.090
1572497054.403,28.320,32.715,3.906,25.879,34.180
1572497054.407,23.926,35.645,-4.395,24.902,32.715
1572497054.411,29.297,32.715,-9.766,31.250,15.625
1572497054.415,32.715,28.809,8.789,34.180,5.371
1572497054.419,27.344,29.785,26.367,29.297,9.277
1572497054.423,30.273,29.297,20.996,31.250,35.645
1572497054.427,39.551,30.762,34.180,32.227,12.207
1572497054.431,41.016,33.691,72.266,33.691,7.812
1572497054.434,46.875,33.203,78.613,42.969,41.016
1572497054.438,41.016,28.320,67.871,33.203,32.715
1572497054.442,23.926,25.391,69.336,27.344,15.625
1572497054.446,34.180,26.855,80.566,38.574,18.555
1572497054.450,40.039,28.809,86.914,35.156,29.297
1572497054.454,21.973,28.809,86.426,25.879,25.879
1572497054.458,20.508,26.855,94.238,30.762,29.297
1572497054.462,29.297,26.855,101.074,31.250,22.461
1572497054.466,32.715,25.391,96.191,24.414,8.789
1572497054.470,35.645,19.043,79.590,24.902,-10.742
1572497054.474,28.320,20.996,88.867,25.391,-4.883
1572497054.477,27.832,30.273,100.586,25.391,34.180
1572497054.481,32.715,23.926,88.379,29.297,27.344
1572497054.485,41.016,27.832,90.332,37.109,8.301
1572497054.489,46.875,37.109,99.121,35.156,27.832
1572497054.493,36.133,36.133,104.492,30.762,41.992
1572497054.497,29.297,39.062,99.121,33.691,21.973
1572497054.501,32.227,40.527,92.773,30.762,23.926
1572497054.505,37.598,36.621,93.750,27.344,31.250
1572497054.509,42.969,34.180,92.285,34.180,38.086
1572497054.513,40.039,34.668,89.844,41.504,34.180
1572497054.517,45.410,38.086,102.051,39.551,2.930
1572497054.520,43.457,41.016,119.629,36.133,14.160
1572497054.524,28.809,39.551,122.070,38.574,59.570
1572497054.528,32.715,37.109,112.793,41.016,46.387
1572497054.532,33.203,28.809,110.840,28.809,13.672
1572497054.536,29.785,26.367,125.000,13.672,44.922
1572497054.540,32.227,27.832,116.211,16.113,66.895
1572497054.544,30.273,28.320,138.672,14.648,71.289
1572497054.548,30.762,36.133,188.965,23.438,48.828
1572497054.552,37.598,38.086,187.012,34.180,41.016
1572497054.556,41.504,36.621,160.645,28.809,60.059
1572497054.559,40.527,32.715,127.930,22.461,28.320
1572497054.563,30.762,31.250,120.117,15.137,2.441
1572497054.567,29.297,32.715,125.488,17.090,17.090
1572497054.571,24.902,36.621,130.371,26.855,55.176
1572497054.575,9.766,35.645,117.676,20.996,41.016
1572497054.579,11.230,35.156,110.840,10.742,8.789
1572497054.583,19.531,36.133,122.559,16.113,34.668
1572497054.587,22.461,29.297,100.586,19.043,28.809
1572497054.591,15.625,27.832,90.820,16.113,4.883
1572497054.595,8.301,30.273,88.379,9.766,26.367
1572497054.599,7.324,33.203,70.312,13.184,32.715
1572497054.602,6.836,35.156,49.316,18.555,7.812
1572497054.606,5.859,40.527,36.621,12.695,-28.320
1572497054.610,12.207,40.039,53.223,8.301,7.324
1572497054.614,8.789,28.809,53.711,8.789,41.504
1572497054.618,-6.836,33.691,41.992,13.184,25.879
1572497054.622,-1.465,44.922,54.688,18.066,29.785
1572497054.626,1.953,47.363,65.918,18.066,0.977
1572497054.630,-1.465,46.387,60.547,22.461,10.742
1572497054.634,5.371,44.922,62.500,24.414,10.254
1572497054.638,1.465,41.016,71.289,14.648,-24.414
1572497054.642,-5.371,37.598,81.055,13.672,-24.414
1572497054.645,-12.207,29.785,79.102,16.113,-9.277
1572497054.649,0.977,29.785,81.543,24.902,-26.855
1572497054.653,14.160,44.922,95.703,18.555,-13.184
1572497054.657,10.254,51.270,106.445,-0.488,28.320
1572497054.661,17.090,54.688,114.258,6.348,16.602
1572497054.665,24.414,58.594,100.586,7.812,-4.883
1572497054.669,23.926,59.570,99.609,9.277,-2.441
1572497054.673,22.461,56.641,106.445,11.719,23.438
1572497054.677,23.926,47.363,89.844,6.348,35.156
1572497054.681,16.602,42.969,74.707,6.836,26.855
1572497054.684,6.348,47.363,75.195,0.000,39.551
1572497054.688,6.348,51.758,73.730,1.465,20.020
1572497054.692,5.859,48.340,62.500,9.766,17.578
1572497054.696,10.254,43.457,54.199,5.371,-1.465
1572497054.700,14.648,45.410,104.980,0.977,-33.203
1572497054.704,16.602,45.898,158.203,3.906,31.250
1572497054.708,30.273,42.480,137.207,9.766,33.691
1572497054.712,35.156,43.457,132.324,10.254,-2.441
1572497054.716,33.203,43.457,148.438,10.254,17.090
1572497054.720,35.156,41.016,145.508,20.020,13.672
1572497054.724,33.203,41.992,141.602,20.508,-8.789
1572497054.727,28.809,41.992,144.043,14.160,9.766
1572497054.731,31.738,31.250,147.461,16.113,27.344
1572497054.735,40.527,26.855,148.438,23.438,21.484
1572497054.739,41.504,39.062,179.688,25.879,11.230
1572497054.743,43.457,45.410,262.695,26.855,4.395
1572497054.747,46.875,50.293,337.402,30.273,-2.930
1572497054.751,43.945,56.641,377.441,29.785,14.160
1572497054.755,37.598,55.176,411.621,28.320,18.555
1572497054.759,34.668,50.781,440.430,21.484,-16.602
1572497054.763,38.086,52.734,454.590,20.020,-21.973
1572497054.767,42.969,49.316,429.199,19.531,10.742
1572497054.770,44.434,42.969,364.746,16.602,34.668
1572497054.774,37.598,44.922,294.922,21.973,55.664
1572497054.778,33.691,46.387,238.281,24.902,57.129
1572497054.782,40.527,39.551,198.730,17.578,36.133
1572497054.786,40.527,35.645,166.992,18.555,22.461
1572497054.790,36.621,31.738,142.578,18.066,20.996
1572497054.794,29.785,23.926,133.301,14.160,36.621
1572497054.798,28.320,28.320,117.188,21.484,15.137
1572497054.802,26.855,41.016,102.051,24.902,-22.461
1572497054.806,18.555,42.969,98.145,18.555,-14.160
1572497054.809,18.066,32.715,88.867,12.695,-8.301
1572497054.813,27.344,27.344,79.102,15.137,23.438
1572497054.817,40.527,28.809,67.871,20.508,15.137
1572497054.821,37.598,27.832,65.918,16.602,-17.090
1572497054.825,32.715,26.367,53.223,20.996,2.441
1572497054.829,34.180,27.344,47.852,26.367,-0.488
1572497054.833,25.879,28.320,49.805,21.484,1.953
1572497054.837,24.902,25.879,42.480,18.066,9.766
1572497054.841,27.344,27.832,27.344,9.766,13.672
1572497054.845,26.855,30.273,2.930,7.812,0.000
1572497054.849,27.344,24.902,0.000,9.277,-45.898
1572497054.852,24.414,24.414,15.625,9.277,3.418
1572497054.856,31.738,34.180,7.812,15.625,25.391
1572497054.860,33.691,38.574,2.930,17.090,5.371
1572497054.864,34.668,33.691,2.441,12.207,47.363
1572497054.868,42.480,30.762,-10.254,18.066,73.730
1572497054.872,37.598,30.273,10.742,24.902,66.406
1572497054.876,33.691,25.879,53.711,22.949,25.879
1572497054.880,29.785,24.902,75.195,20.996,-35.156
1572497054.884,24.902,28.320,96.680,20.508,7.812
1572497054.888,40.527,30.762,87.402,27.344,38.086
1572497054.892,37.598,25.391,68.359,23.926,-14.648
1572497054.895,25.391,22.949,70.801,20.508,-28.809
1572497054.899,27.344,31.738,80.078,25.391,-26.367
1572497054.903,23.926,28.809,92.285,19.531,-37.109
1572497054.907,28.809,17.578,90.820,11.230,-40.039
1572497054.911,26.855,22.461,90.820,14.160,-13.184
1572497054.915,12.695,26.367,75.195,19.043,1.465
1572497054.919,11.230,27.344,69.824,16.113,-15.137
1572497054.923,13.184,27.344,69.336,8.789,-18.066
1572497054.927,23.926,22.949,53.711,16.602,-22.949
1572497054.931,30.762,20.996,70.312,31.738,-27.344
1572497054.934,15.137,24.902,98.145,17.090,-38.086
1572497054.938,6.348,28.809,126.465,-3.418,-33.203
1572497054.942,19.043,32.227,142.090,5.859,6.836
1572497054.946,20.996,32.715,142.090,19.043,5.859
1572497054.950,16.113,28.320,165.039,18.066,5.371
1572497054.954,19.531,31.250,175.781,18.555,16.602
1572497054.958,19.531,37.598,166.992,22.949,35.156
1572497054.962,20.508,34.668,151.367,24.414,33.691
1572497054.966,18.066,33.691,150.391,24.414,21.484
1572497054.970,13.184,36.621,150.879,20.020,34.668
1572497054.974,17.090,33.203,140.137,18.555,45.410
1572497054.977,20.508,30.762,131.836,16.113,46.875
1572497054.981,21.973,30.273,122.070,10.254,39.551
1572497054.985,25.391,35.645,129.395,11.719,43.457
1572497054.989,21.973,41.992,127.441,13.672,39.062
1572497054.993,24.414,45.410,117.676,17.090,32.227
1572497054.997,30.273,49.316,118.164,20.508,37.109
1572497055.001,27.344,41.992,116.211,18.066,45.410
1572497055.005,23.438,34.668,87.891,18.555,36.621
1572497055.009,20.996,37.598,77.637,19.043,46.387
1572497055.013,18.555,36.621,79.102,20.508,57.617
1572497055.017,20.508,38.574,62.988,20.020,59.082
1572497055.020,20.996,37.109,46.875,18.555,58.594
1572497055.024,20.508,34.668,26.367,19.531,41.016
1572497055.028,19.531,38.574,62.500,22.949,43.945
1572497055.032,15.137,40.039,174.805,26.855,61.523
1572497055.036,13.672,38.574,208.496,32.715,61.035
1572497055.040,17.578,40.039,203.613,31.250,38.086
1572497055.044,18.066,42.480,219.238,29.785,30.273
1572497055.048,22.461,42.969,209.961,31.250,49.805
1572497055.052,27.832,40.527,184.082,28.320,43.945
1572497055.056,29.297,41.504,152.344,26.367,31.250
1572497055.059,22.461,43.457,128.418,27.344,67.871
1572497055.063,18.555,43.457,98.145,29.297,74.219
1572497055.067,20.508,40.527,62.500,31.250,61.035
1572497055.071,16.602,34.668,40.039,23.926,62.012
1572497055.075,13.672,39.551,55.176,14.648,74.219
1572497055.079,14.160,46.387,63.477,20.020,81.543
1572497055.083,18.066,44.434,38.574,26.855,60.547
1572497055.087,20.996,41.016,26.855,21.973,36.133
1572497055.091,16.602,41.504,41.992,17.090,45.410
1572497055.095,13.672,41.992,46.875,25.879,67.383
1572497055.099,18.555,42.969,35.156,36.133,43.457
1572497055.102,22.949,38.086,18.555,35.645,57.617
1572497055.106,21.484,38.574,0.000,28.809,89.355
1572497055.110,21.973,43.945,-18.066,27.344,75.684
1572497055.114,28.320,38.086,-33.203,29.785,69.824
1572497055.118,23.926,33.691,-40.039,34.668,65.918
1572497055.122,26.367,34.668,-41.504,39.062,60.059
1572497055.126,31.250,39.062,-42.969,40.527,74.707
1572497055.130,28.809,37.598,-64.941,29.297,62.500
1572497055.134,21.484,38.086,-70.312,21.484,62.012
1572497055.138,19.531,39.062,-54.199,31.250,77.637
1572497055.142,29.297,32.227,-63.477,39.062,75.195
1572497055.145,31.250,30.762,-71.289,41.504,84.961
1572497055.149,26.367,29.785,-70.801,34.668,58.105
1572497055.153,24.414,31.738,-60.059,35.645,55.176
1572497055.157,31.250,34.668,-58.594,39.551,56.152
1572497055.161,32.715,35.645,-60.059,38.574,43.457
1572497055.165,30.273,39.062,-54.199,40.527,70.801
1572497055.169,31.250,39.062,-49.316,39.062,69.336
1572497055.173,35.156,40.527,-41.992,41.992,54.688
1572497055.177,35.156,43.945,-19.531,41.504,54.688
1572497055.181,29.297,44.922,22.949,36.621,64.941
1572497055.184,30.762,43.457,45.410,39.551,74.707
1572497055.188,38.574,37.598,42.969,43.457,61.523
1572497055.192,34.180,33.203,38.574,34.668,28.320
1572497055.196,32.715,38.086,44.434,27.832,39.551
1572497055.200,38.086,33.203,2.441,33.691,61.035
1572497055.204,33.691,24.902,-41.504,31.250,61.523
1572497055.208,32.715,33.691,-41.504,31.250,47.363
1572497055.212,29.297,41.992,-43.945,33.691,34.180
1572497055.216,30.273,46.387,-57.617,31.250,37.109
1572497055.220,38.086,42.969,-80.566,26.367,10.254
1572497055.224,27.832,39.062,-77.637,20.508,19.531
1572497055.227,25.879,42.480,-62.988,26.855,59.570
1572497055.231,31.250,40.039,-51.270,33.203,50.293
1572497055.235,34.180,37.109,-34.668,26.855,26.855
1572497055.239,30.273,36.621,-44.922,24.414,38.574
1572497055.243,31.250,38.086,-68.848,31.250,40.039
1572497055.247,39.062,40.527,-90.332,32.227,11.230
1572497055.251,37.109,40.527,-86.914,28.320,23.438
1572497055.255,32.227,41.992,-80.566,24.902,48.828
1572497055.259,33.203,45.410,-85.938,20.508,62.500
1572497055.263,22.461,41.016,-80.078,11.230,42.480
1572497055.267,3.906,30.273,-51.270,6.836,8.301
1572497055.270,8.301,30.273,-36.621,15.625,33.691
1572497055.274,14.648,36.133,-50.293,20.996,49.805
1572497055.278,12.207,34.668,-72.754,23.926,38.574
1572497055.282,11.230,35.645,-80.566,14.160,25.879
1572497055.286,9.766,38.574,-73.730,6.836,39.551
1572497055.290,19.043,38.574,-83.008,11.230,46.875
1572497055.294,20.020,40.039,-93.262,12.695,25.391
1572497055.298,14.160,41.504,-83.984,12.207,39.551
1572497055.302,17.090,39.551,-70.312,13.672,59.082
1572497055.306,17.090,30.762,-67.871,20.996,58.105
1572497055.309,21.484,29.785,-86.914,14.648,39.551
1572497055.313,21.973,36.133,-99.121,1.465,17.090
1572497055.317,28.320,39.551,-87.402,9.277,50.293
1572497055.321,25.391,31.738,-99.121,10.742,55.176
1572497055.325,14.160,23.926,-104.980,6.836,15.137
1572497055.329,19.043,34.180,-95.215,14.648,28.809
1572497055.333,30.762,41.992,-95.703,24.902,57.617
1572497055.337,43.945,39.062,-109.375,26.855,54.688
1572497055.341,34.668,40.039,-113.281,26.855,35.156
1572497055.345,24.902,46.875,-103.516,42.969,56.152
1572497055.349,27.344,44.922,-107.910,49.805,68.359
1572497055.352,22.461,41.992,-111.816,29.785,49.805
1572497055.356,25.879,43.945,-111.816,17.090,36.133
1572497055.360,33.203,42.480,-110.352,19.531,29.297
1572497055.364,29.785,41.504,-116.699,23.926,42.480
1572497055.368,18.555,40.039,-137.695,14.160,13.184
1572497055.372,29.297,39.062,-140.137,12.695,11.230
1572497055.376,41.504,41.016,-118.652,19.531,63.965
1572497055.380,35.156,41.992,-120.605,23.438,83.984
1572497055.384,25.879,41.504,-124.023,13.672,52.246
1572497055.388,21.484,33.691,-104.492,-4.883,41.504
1572497055.392,20.508,32.715,-84.473,0.977,79.590
1572497055.395,28.320,37.598,-91.309,8.301,58.105
1572497055.399,35.645,39.551,-106.445,18.555,44.434
1572497055.403,34.180,42.480,-107.422,28.809,54.199
1572497055.407,28.809,39.062,-103.027,5.859,43.945
1572497055.411,17.578,32.227,-118.652,-2.930,67.871
1572497055.415,11.230,36.133,-129.395,8.301,65.430
1572497055.419,13.184,39.062,-120.605,3.906,31.738
1572497055.423,18.555,35.156,-112.793,1.953,30.762
1572497055.427,30.273,32.715,-116.699,6.348,45.410
1572497055.431,27.832,35.645,-119.141,-5.859,32.715
1572497055.434,23.926,37.598,-105.469,-3.418,26.855
1572497055.438,32.227,33.691,-101.562,21.973,40.527
1572497055.442,31.738,33.203,-110.840,20.020,26.855
1572497055.446,13.184,36.133,-97.656,0.000,36.621
1572497055.450,15.137,41.504,-85.938,7.812,39.062
1572497055.454,41.504,40.039,-91.309,12.695,57.617
1572497055.458,41.992,32.715,-100.098,11.230,41.992
1572497055.462,20.996,33.203,-90.332,13.184,11.719
1572497055.466,10.742,37.109,-68.848,6.348,55.176
1572497055.470,16.602,37.109,-70.312,-2.441,44.434
1572497055.474,37.109,41.016,-74.707,14.648,22.461
1572497055.477,35.156,39.551,-73.242,-0.977,23.438
1572497055.481,12.207,34.180,-71.777,-18.555,30.762
1572497055.485,11.230,38.086,-84.473,-9.277,63.477
1572497055.489,19.531,40.039,-96.680,-2.930,34.668
1572497055.493,13.672,33.691,-89.355,6.836,12.207
1572497055.497,7.812,37.598,-77.148,-1.953,66.406
1572497055.501,8.789,39.551,-94.238,-15.137,82.031
1572497055.505,13.672,40.039,-103.027,-17.090,55.664
1572497055.509,0.977,44.922,-97.168,-24.902,60.547
1572497055.513,-27.344,38.086,-104.492,-42.969,42.969
1572497055.517,-35.645,39.062,-106.445,-49.805,46.387
1572497055.520,-33.691,49.316,-98.145,-49.316,83.008
1572497055.524,-36.621,54.688,-93.750,-59.082,85.449
1572497055.528,-68.848,52.734,-91.797,-89.844,80.566
1572497055.532,-88.867,58.594,-85.938,-95.215,68.359
1572497055.536,-82.520,67.383,-90.332,-93.750,27.832
1572497055.540,-90.332,72.754,-74.707,-111.328,53.711
1572497055.544,-107.910,63.965,-71.777,-112.793,70.312
1572497055.548,-93.750,61.035,-90.332,-112.793,50.781
1572497055.552,-92.773,69.336,-98.145,-116.211,39.551
1572497055.556,-121.582,67.871,-79.102,-120.117,65.430
1572497055.559,-111.816,64.941,-80.566,-117.188,99.609
1572497055.563,-101.562,67.383,-93.262,-108.887,86.914
1572497055.567,-99.121,68.848,-93.750,-108.398,59.570
1572497055.571,-84.473,73.242,-85.938,-106.934,50.293
1572497055.575,-79.590,65.430,-81.055,-101.562,68.848
1572497055.579,-77.637,54.199,-86.426,-94.238,57.617
1572497055.583,-54.688,59.082,-80.078,-81.543,34.668
1572497055.587,-47.852,60.059,-78.613,-71.289,36.621
1572497055.591,-48.828,50.781,-71.289,-57.129,40.527
1572497055.595,-36.133,45.410,-61.523,-54.199,48.340
1572497055.599,-21.973,44.434,-52.734,-60.059,71.777
1572497055.602,-7.324,45.898,-27.832,-45.410,87.402
1572497055.606,-1.953,44.434,-32.227,-20.996,70.801
1572497055.610,-0.977,40.527,-31.738,-9.277,39.551
1572497055.614,4.395,35.645,-16.602,-2.441,39.062
1572497055.618,8.789,33.203,-4.883,6.348,65.918
1572497055.622,11.719,34.668,-6.348,6.348,42.969
1572497055.626,24.414,34.180,-6.836,7.812,40.039
1572497055.630,23.926,30.273,-3.418,17.090,29.297
1572497055.634,19.531,29.297,-8.301,27.832,11.230
1572497055.638,26.367,24.902,-45.410,29.785,37.109
1572497055.642,31.250,18.066,-80.078,22.461,2.930
1572497055.645,29.785,21.973,-70.312,27.344,-12.207
1572497055.649,34.668,19.043,-62.012,40.039,22.461
1572497055.653,45.410,21.484,-66.406,48.340,21.484
1572497055.657,44.922,29.785,-63.965,47.363,21.973
1572497055.661,41.504,28.809,-64.453,42.480,23.438
1572497055.665,45.898,26.855,-63.477,49.316,-3.418
1572497055.669,45.410,21.973,-52.246,53.223,-10.742
1572497055.673,51.270,19.531,-46.875,55.176,-3.418
1572497055.677,69.824,30.273,-44.434,58.594,-13.184
1572497055.681,78.125,41.992,-22.949,64.453,3.906
1572497055.684,74.707,39.062,-19.531,65.918,27.344
1572497055.688,79.102,34.180,-19.531,55.176,-8.301
1572497055.692,74.219,37.109,0.488,54.688,-6.836
1572497055.696,70.312,32.227,-4.395,63.477,9.766
1572497055.700,76.172,31.738,-0.488,64.941,9.766
1572497055.704,69.824,32.715,12.207,75.684,39.062
1572497055.708,74.219,32.227,24.414,81.055,42.969
1572497055.712,75.684,26.367,30.762,72.754,39.551
1572497055.716,69.336,23.926,30.273,75.684,13.672
1572497055.720,65.430,30.762,34.668,81.055,-23.926
1572497055.724,63.965,33.203,32.715,72.754,-40.527
1572497055.727,68.848,35.156,49.316,69.336,-21.973
1572497055.731,70.312,34.180,62.500,65.430,-20.508
1572497055.735,68.848,31.250,74.219,60.059,-34.180
1572497055.739,74.219,30.273,77.637,70.312,-4.883
1572497055.743,79.102,25.879,57.129,82.520,-4.883
1572497055.747,75.195,22.949,55.664,81.543,-6.836
1572497055.751,74.219,24.902,60.547,75.684,20.996
1572497055.755,73.242,20.996,53.223,82.031,14.160
1572497055.759,82.520,21.973,60.059,86.426,6.836
1572497055.763,82.031,25.391,66.895,86.426,-12.207
1572497055.767,75.684,25.391,68.359,89.844,-31.738
1572497055.770,74.219,28.320,71.777,98.145,-30.273
1572497055.774,88.379,29.785,69.824,98.633,-54.199
1572497055.778,92.773,27.344,69.336,86.426,-45.410
1572497055.782,82.520,30.762,71.289,78.613,-23.438
1572497055.786,80.078,36.621,75.195,80.566,-15.137
1572497055.790,80.078,37.109,78.613,84.961,-9.766
1572497055.794,76.660,36.133,75.684,84.473,-18.555
1572497055.798,70.312,33.203,78.125,81.543,-28.320
1572497055.802,70.312,30.762,76.172,84.473,-43.457
1572497055.806,64.941,31.738,70.801,83.984,-31.738
1572497055.809,67.383,29.785,75.195,71.289,-22.949
1572497055.813,78.613,31.250,82.031,62.988,8.789
1572497055.817,81.055,34.180,74.219,66.406,24.414
1572497055.821,82.031,34.668,65.430,64.941,-11.230
1572497055.825,71.289,36.133,73.242,56.152,-4.883
1572497055.829,63.477,29.785,81.543,58.594,25.879
1572497055.833,59.570,24.902,77.148,64.453,21.973
1572497055.837,58.594,27.832,69.824,60.059,32.715
1572497055.841,61.035,26.367,68.848,56.641,28.809
1572497055.845,57.129,27.832,75.195,52.734,14.160
1572497055.849,60.059,28.320,72.266,47.363,29.785
1572497055.852,60.547,28.809,77.148,49.805,33.203
1572497055.856,49.316,31.250,104.980,49.805,42.480
1572497055.860,44.434,31.250,111.328,53.711,41.992
1572497055.864,49.316,31.738,91.797,56.152,32.227
1572497055.868,50.781,34.668,85.449,48.828,22.949
1572497055.872,49.316,33.691,93.750,51.758,40.039
1572497055.876,45.410,31.250,77.148,52.734,53.223
1572497055.880,43.457,35.645,60.547,51.270,44.434
1572497055.884,51.758,42.480,54.688,50.781,26.855
1572497055.888,48.828,45.410,51.270,46.387,20.508
1572497055.892,45.410,44.922,76.172,45.410,52.734
1572497055.895,48.340,42.480,135.742,49.805,69.336
1572497055.899,48.828,41.016,177.246,52.246,57.129
1572497055.903,46.387,41.016,153.809,43.457,43.457
1572497055.907,47.852,41.016,110.840,42.969,31.250
1572497055.911,48.828,41.992,89.844,48.828,41.992
1572497055.915,47.363,42.480,87.402,49.805,41.992
1572497055.919,51.758,41.016,91.797,53.711,46.875
1572497055.923,50.293,40.039,82.520,56.641,69.824
1572497055.927,43.945,40.527,71.289,51.758,39.551
1572497055.931,42.480,46.387,82.520,41.992,24.414
1572497055.934,46.875,47.363,79.590,43.945,34.180
1572497055.938,49.316,41.504,73.730,46.387,35.156
1572497055.942,46.875,41.992,77.637,48.340,31.738
1572497055.946,42.480,45.410,79.590,47.852,41.504
1572497055.950,44.922,45.898,84.473,42.969,67.383
1572497055.954,42.480,43.945,82.031,43.945,61.035
1572497055.958,39.551,39.062,66.406,39.062,47.363
1572497055.962,42.969,36.621,62.012,36.133,48.828
1572497055.966,44.922,41.016,62.988,41.016,45.898
1572497055.970,43.945,40.527,52.246,41.504,21.973
1572497055.974,38.574,41.016,58.594,34.668,39.551
1572497055.977,36.621,41.504,54.199,33.691,41.016
1572497055.981,41.504,35.156,43.457,34.668,8.789
1572497055.985,36.621,34.668,54.199,32.227,32.715
1572497055.989,35.645,36.621,64.453,31.250,47.852
