timestamps,TP9,AF7,AF8,TP10,Right AUX
1572496337.035,54.688,-80.566,-205.078,26.855,22.461
1572496337.039,55.664,-16.602,-178.711,18.066,19.531
1572496337.043,61.035,298.828,297.852,16.602,37.598
1572496337.047,65.430,183.105,288.574,31.250,5.859
1572496337.051,56.641,75.684,179.688,36.621,11.719
1572496337.055,52.246,89.355,169.922,33.203,27.832
1572496337.059,48.340,78.613,88.867,34.668,33.203
1572496337.062,43.457,22.949,-49.316,28.809,39.062
1572496337.066,36.133,-143.555,-406.738,23.438,4.395
1572496337.070,25.391,-14.648,-408.691,25.879,5.859
1572496337.074,23.438,129.395,-213.867,31.738,42.480
1572496337.078,27.832,0.488,-368.652,31.250,37.598
1572496337.082,31.738,-82.520,-550.293,28.809,14.648
1572496337.086,33.691,-58.105,-584.473,30.762,8.789
1572496337.090,32.227,-59.570,-686.035,33.203,0.488
1572496337.094,32.227,-201.660,-877.441,33.203,-32.227
1572496337.098,29.297,-301.758,-979.004,24.902,-20.996
1572496337.102,22.461,-71.289,-957.520,20.020,13.672
1572496337.105,18.066,37.598,-945.312,24.414,16.602
1572496337.109,23.926,-52.246,-967.773,29.785,-12.695
1572496337.113,36.133,-19.531,-968.262,38.574,-6.348
1572496337.117,28.809,17.090,-964.355,37.109,0.488
1572496337.121,20.508,-4.883,-970.703,30.762,2.930
1572496337.125,25.879,-45.898,-970.215,24.414,16.113
1572496337.129,30.273,-5.859,-969.727,23.438,17.578
1572496337.133,30.273,47.852,-970.703,30.273,28.809
1572496337.137,36.621,-2.930,-963.379,34.668,22.949
1572496337.141,37.109,-160.156,-980.469,34.180,0.977
1572496337.144,27.344,-38.086,-928.711,27.344,16.602
1572496337.148,32.227,172.363,-763.672,25.391,66.895
1572496337.152,46.387,30.762,-826.660,36.621,36.133
1572496337.156,44.922,-27.344,-923.340,38.574,7.324
1572496337.160,47.852,60.547,-818.848,38.086,18.555
1572496337.164,61.523,87.402,-748.535,41.504,20.020
1572496337.168,54.199,-32.227,-823.730,41.504,12.695
1572496337.172,44.434,-131.348,-949.219,34.668,-17.090
1572496337.176,50.293,119.141,-707.520,25.391,11.719
1572496337.180,49.316,263.672,-384.766,21.973,31.738
1572496337.184,34.668,126.465,-441.406,23.926,-0.488
1572496337.187,27.344,114.258,-432.129,33.691,2.441
1572496337.191,30.273,226.562,-194.824,42.969,42.480
1572496337.195,37.109,122.559,-235.840,43.945,50.293
1572496337.199,42.480,-146.484,-610.840,40.527,10.742
1572496337.203,61.035,-199.707,-811.035,33.691,-11.719
1572496337.207,69.824,95.703,-478.027,35.645,10.254
1572496337.211,60.547,181.152,-244.141,43.457,14.160
1572496337.215,67.383,24.414,-391.602,50.293,-2.441
1572496337.219,61.035,52.734,-369.629,46.875,-4.395
1572496337.223,55.664,159.668,-159.180,43.945,9.277
1572496337.227,47.852,81.543,-155.273,44.922,17.090
1572496337.230,41.504,-72.754,-333.984,30.762,7.324
1572496337.234,46.387,-44.434,-350.586,23.926,11.230
1572496337.238,47.363,73.730,-164.551,22.461,16.602
1572496337.242,42.969,-25.879,-202.148,30.273,14.648
1572496337.246,42.969,-181.641,-419.922,36.621,19.531
1572496337.250,43.457,-104.004,-366.211,26.367,-9.277
1572496337.254,36.621,5.371,-171.387,23.438,-15.137
1572496337.258,31.738,-35.156,-138.672,23.926,2.441
1572496337.262,31.738,-55.664,-140.625,18.066,0.000
1572496337.266,31.738,64.453,57.129,25.879,35.645
1572496337.269,29.785,61.523,131.836,30.273,17.578
1572496337.273,28.320,-125.488,-92.773,21.973,-30.273
1572496337.277,40.039,-157.715,-226.074,27.832,-28.320
1572496337.281,34.668,148.926,172.852,36.133,-6.348
1572496337.285,27.832,218.262,438.965,29.297,0.488
1572496337.289,35.156,56.641,314.453,40.039,-0.488
1572496337.293,40.527,24.902,264.160,52.246,2.930
1572496337.297,33.203,67.871,344.238,34.180,-4.883
1572496337.301,29.785,-20.508,242.676,31.738,-42.969
1572496337.305,34.180,-80.566,123.047,41.016,-38.086
1572496337.309,20.996,-27.832,145.508,27.344,-28.809
1572496337.312,15.625,35.156,255.371,14.160,-16.602
1572496337.316,27.832,-81.543,124.023,24.902,-53.711
1572496337.320,34.668,-170.410,-81.055,32.715,-80.566
1572496337.324,25.391,-43.457,17.090,25.391,-48.828
1572496337.328,22.461,61.523,200.195,23.926,-26.855
1572496337.332,26.367,-24.902,177.246,26.855,-25.879
1572496337.336,35.645,-118.164,83.984,33.203,-34.180
1572496337.340,34.180,-49.316,180.176,31.738,-33.691
1572496337.344,29.785,-33.203,268.555,22.461,-40.527
1572496337.348,35.156,-135.742,223.633,28.809,-32.715
1572496337.352,33.691,-292.480,-9.766,22.461,-56.641
1572496337.355,36.621,-170.410,99.609,23.438,-49.805
1572496337.359,42.969,-48.340,339.844,26.367,-20.020
1572496337.363,44.922,-146.484,250.977,23.926,-31.738
1572496337.367,52.246,-156.250,253.906,33.203,-18.066
1572496337.371,60.059,-118.652,356.445,35.645,-5.859
1572496337.375,57.617,-149.414,347.168,31.250,-29.297
1572496337.379,61.035,-301.758,154.785,30.762,-37.109
1572496337.383,68.359,-383.301,-43.945,37.109,-39.062
1572496337.387,67.871,-191.406,133.301,34.668,-42.480
1572496337.391,53.223,-147.949,231.445,21.973,-31.738
1572496337.394,45.898,-201.660,149.414,29.297,-27.344
1572496337.398,42.480,-179.199,131.836,25.879,-28.320
1572496337.402,38.574,-160.645,105.469,14.648,-36.621
1572496337.406,39.062,-177.246,6.836,26.367,-53.223
1572496337.410,36.133,-306.152,-284.180,30.273,-52.246
1572496337.414,41.992,-293.945,-456.543,31.250,-63.477
1572496337.418,47.363,-32.715,-176.270,26.367,-20.020
1572496337.422,38.574,-64.941,-197.754,24.902,-7.812
1572496337.426,33.203,-137.207,-365.723,20.508,-16.113
1572496337.430,34.668,-75.684,-366.699,18.555,-14.160
1572496337.434,35.156,-51.270,-388.184,20.020,-12.695
1572496337.437,37.109,-126.953,-542.969,20.996,-3.418
1572496337.441,41.016,-201.660,-773.438,19.531,-33.691
1572496337.445,39.062,-81.543,-745.605,18.066,-33.691
1572496337.449,27.832,5.371,-729.492,19.531,-11.230
1572496337.453,26.855,-99.609,-862.793,24.902,-9.766
1572496337.457,34.668,-190.918,-975.098,29.785,-20.996
1572496337.461,35.645,-36.621,-968.262,21.484,-19.531
1572496337.465,29.297,37.598,-967.773,20.508,-20.996
1572496337.469,28.809,-44.922,-970.703,17.578,-31.738
1572496337.473,21.973,-44.434,-970.215,10.254,-43.945
1572496337.477,17.578,89.844,-970.703,10.254,-3.418
1572496337.480,28.320,111.328,-969.238,15.625,18.555
1572496337.484,30.273,-19.531,-966.309,20.508,0.000
1572496337.488,17.578,-18.066,-972.168,20.020,-8.789
1572496337.492,4.883,168.945,-872.559,14.648,-8.789
1572496337.496,3.418,175.293,-723.145,21.484,-9.277
1572496337.500,5.859,127.441,-695.312,32.227,-8.789
1572496337.504,-3.906,181.152,-562.012,27.832,3.906
1572496337.508,2.930,204.102,-442.383,28.320,-11.230
1572496337.512,22.949,216.797,-301.758,30.762,33.203
1572496337.516,40.039,65.918,-439.941,29.785,60.059
1572496337.519,50.293,118.652,-397.461,28.320,65.430
1572496337.523,45.410,290.527,-89.355,20.996,91.797
1572496337.527,47.852,131.348,-232.422,19.531,77.637
1572496337.531,49.316,34.668,-371.582,24.902,70.801
1572496337.535,42.480,87.402,-320.312,24.902,60.059
1572496337.539,37.109,112.793,-262.695,30.762,50.293
1572496337.543,35.645,-16.602,-394.531,31.738,22.949
1572496337.547,45.898,-161.621,-657.227,25.879,13.184
1572496337.551,33.203,59.570,-422.852,24.414,32.715
1572496337.555,14.160,250.977,-28.809,25.879,39.551
1572496337.559,28.809,34.668,-192.383,30.762,35.156
1572496337.562,26.367,-110.840,-440.918,27.344,22.461
1572496337.566,22.461,131.348,-126.465,19.531,40.527
1572496337.570,26.367,78.125,-90.332,33.691,31.738
1572496337.574,31.250,-15.137,-225.586,40.527,25.879
1572496337.578,48.828,122.559,-12.695,28.809,43.457
1572496337.582,51.270,135.254,102.539,27.344,22.949
1572496337.586,44.434,110.352,150.879,22.949,21.484
1572496337.590,58.105,-137.207,-173.828,21.484,-0.977
1572496337.594,62.988,-172.363,-349.609,17.578,-26.367
1572496337.598,53.223,159.668,110.352,16.113,22.949
1572496337.602,48.340,105.957,179.688,23.438,25.391
1572496337.605,40.527,-48.828,-30.762,20.508,8.301
1572496337.609,37.598,33.203,34.668,16.113,8.789
1572496337.613,40.039,107.422,199.707,20.508,12.695
1572496337.617,36.621,-22.461,109.375,24.414,39.062
1572496337.621,37.598,-203.613,-213.379,20.996,30.273
1572496337.625,30.273,-20.996,-50.293,8.789,36.621
1572496337.629,30.762,110.352,215.820,15.625,43.945
1572496337.633,41.504,-13.672,88.379,30.762,29.785
1572496337.637,30.273,-32.715,28.320,21.973,17.578
1572496337.641,24.902,39.062,122.559,21.973,15.625
1572496337.644,29.785,119.629,291.992,27.832,69.824
1572496337.648,40.527,-55.664,88.867,26.855,61.523
1572496337.652,39.062,-306.641,-428.223,23.438,-33.203
1572496337.656,20.020,-47.363,-201.172,18.066,-7.324
1572496337.660,18.555,93.750,106.934,18.555,35.645
1572496337.664,14.648,-75.684,-114.746,10.742,20.508
1572496337.668,13.184,-101.562,-251.953,7.812,9.277
1572496337.672,10.742,13.672,-123.535,5.859,4.395
1572496337.676,9.277,50.293,-7.812,9.766,36.621
1572496337.680,24.902,-111.816,-241.699,17.090,34.180
1572496337.684,25.391,-151.855,-407.715,18.555,15.137
1572496337.687,23.438,30.273,-159.668,20.508,43.457
1572496337.691,31.250,39.062,-47.852,26.855,50.293
1572496337.695,32.715,-222.656,-433.105,23.926,7.812
1572496337.699,31.250,-157.227,-469.238,14.648,16.602
1572496337.703,38.086,75.684,-95.703,26.367,41.992
1572496337.707,41.504,-36.621,-150.879,30.762,19.043
1572496337.711,40.527,-125.488,-283.203,20.020,34.180
1572496337.715,36.621,-88.867,-278.809,20.508,42.969
1572496337.719,28.809,20.020,-118.164,18.066,38.086
1572496337.723,26.367,-35.645,-100.098,19.043,42.480
1572496337.727,33.691,-234.863,-413.574,21.973,14.648
1572496337.730,31.250,-68.848,-275.879,12.207,4.883
1572496337.734,28.809,101.562,61.523,15.625,19.531
1572496337.738,38.086,-37.109,-24.414,23.926,30.762
1572496337.742,42.969,-182.129,-257.812,21.484,-0.488
1572496337.746,46.387,-23.438,-65.918,19.531,3.418
1572496337.750,41.016,98.145,217.285,25.391,49.805
1572496337.754,41.992,-46.875,90.820,30.762,43.457
1572496337.758,51.758,-150.879,-89.844,30.273,34.668
1572496337.762,40.527,-94.238,-37.598,29.297,32.715
1572496337.766,25.879,-45.898,65.918,32.715,15.137
1572496337.769,34.180,-66.406,75.684,35.645,23.926
1572496337.773,41.504,-65.918,78.125,37.109,24.902
1572496337.777,38.086,-22.461,164.062,33.691,20.020
1572496337.781,34.180,-82.520,121.094,32.715,19.043
1572496337.785,34.668,-182.129,-55.176,36.133,2.441
1572496337.789,30.762,-100.098,5.859,34.668,22.949
1572496337.793,31.738,-38.574,134.766,33.691,37.109
1572496337.797,32.227,-164.062,-14.160,34.668,6.348
1572496337.801,25.391,-415.527,-473.145,31.738,-30.762
1572496337.805,22.461,-333.496,-533.203,27.832,-12.207
1572496337.809,20.996,-68.359,-171.875,27.832,41.992
1572496337.812,20.508,-125.977,-179.688,28.809,32.715
1572496337.816,19.043,-187.988,-268.066,28.320,1.465
1572496337.820,14.160,-100.098,-144.043,29.785,9.277
1572496337.824,18.066,-37.109,-12.695,32.715,33.691
1572496337.828,25.879,-179.688,-182.617,41.992,24.414
1572496337.832,24.414,-332.520,-537.109,40.039,-14.160
1572496337.836,14.648,-84.961,-304.199,29.785,5.859
1572496337.840,14.160,67.383,24.902,35.645,55.664
1572496337.844,20.508,-12.695,-35.156,41.504,82.031
1572496337.848,17.090,-90.332,-175.293,44.922,31.738
1572496337.852,12.695,-130.371,-288.086,47.363,-4.883
1572496337.855,14.648,-107.422,-305.176,42.969,38.574
1572496337.859,18.066,-179.688,-466.309,40.527,16.113
1572496337.863,5.859,-119.629,-446.777,29.785,7.324
1572496337.867,1.465,41.016,-141.602,37.109,41.992
1572496337.871,7.324,5.859,-81.543,46.387,41.016
1572496337.875,4.395,-253.906,-477.051,36.621,3.418
1572496337.879,10.742,-262.695,-635.742,36.133,-6.836
1572496337.883,11.719,28.809,-209.473,38.086,32.227
1572496337.887,11.719,-37.109,-171.875,39.062,37.598
1572496337.891,16.602,-191.406,-404.297,39.062,23.438
1572496337.894,15.625,-131.836,-372.070,34.180,12.207
1572496337.898,17.578,-111.328,-328.125,35.156,17.090
1572496337.902,20.020,-199.707,-464.355,36.133,24.902
1572496337.906,19.043,-350.586,-784.180,27.344,-13.672
1572496337.910,10.254,-247.070,-766.602,19.531,-6.348
1572496337.914,2.930,-87.402,-512.207,25.879,6.348
1572496337.918,7.812,-156.250,-580.078,28.809,-24.902
1572496337.922,15.137,-125.000,-496.094,28.320,18.066
1572496337.926,15.137,-23.926,-244.629,28.809,73.242
1572496337.930,22.461,-40.039,-158.203,25.391,78.613
1572496337.934,29.297,-180.176,-349.121,24.414,26.367
1572496337.937,22.461,-201.660,-429.199,23.926,0.977
1572496337.941,15.625,-115.234,-261.230,30.762,15.137
1572496337.945,9.277,-215.332,-354.492,36.621,9.277
1572496337.949,7.812,-285.645,-530.273,29.297,8.301
1572496337.953,11.230,-142.578,-362.305,22.949,52.246
1572496337.957,19.043,-21.484,-104.004,26.367,77.148
1572496337.961,26.367,-33.691,-10.254,33.203,57.617
1572496337.965,25.391,-286.133,-361.816,33.203,17.090
1572496337.969,21.484,-285.156,-493.652,23.438,20.996
1572496337.973,21.973,-4.883,-80.566,25.391,39.551
1572496337.977,27.832,-19.531,33.691,33.203,44.922
1572496337.980,29.785,-112.305,-51.758,42.969,41.504
1572496337.984,32.227,-48.828,31.250,38.574,49.805
1572496337.988,40.527,5.859,155.273,26.855,70.312
1572496337.992,40.039,-183.105,-130.859,33.691,34.180
1572496337.996,23.438,-215.820,-293.945,23.926,29.297
1572496338.000,13.672,-64.453,-103.027,11.719,54.688
1572496338.004,16.602,-32.715,-17.578,16.602,65.430
1572496338.008,14.160,-153.320,-164.551,24.414,44.922
1572496338.012,13.672,-393.066,-613.281,29.297,12.207
1572496338.016,16.113,-230.469,-535.645,21.484,21.973
1572496338.019,14.648,-9.277,-176.270,22.461,15.625
1572496338.023,18.555,-140.625,-317.871,24.902,18.066
1572496338.027,23.438,-149.414,-384.277,24.902,27.344
1572496338.031,25.391,-19.043,-195.312,23.438,15.625
1572496338.035,29.785,7.812,-87.402,22.461,29.785
1572496338.039,28.809,-184.082,-349.121,25.391,32.715
1572496338.043,28.809,-265.137,-620.605,20.508,10.254
1572496338.047,26.367,-5.371,-303.711,20.508,16.602
1572496338.051,26.367,49.805,-87.891,31.250,46.387
1572496338.055,22.949,-52.734,-213.867,34.668,44.434
1572496338.059,17.578,-37.109,-206.543,25.879,48.828
1572496338.062,25.391,4.395,-90.332,24.414,47.852
1572496338.066,35.645,-45.410,-101.562,33.691,40.039
1572496338.070,36.133,-182.617,-354.004,35.156,11.719
1572496338.074,31.250,-101.562,-339.844,31.738,5.859
1572496338.078,29.785,27.344,-89.844,26.855,34.180
1572496338.082,35.645,-96.191,-210.449,23.926,28.320
1572496338.086,35.645,-183.105,-381.348,27.344,10.742
1572496338.090,29.785,-125.000,-360.352,26.855,15.625
1572496338.094,23.926,-4.883,-168.945,26.855,30.762
1572496338.098,23.438,-103.516,-232.422,22.949,5.371
1572496338.102,23.438,-252.441,-543.457,17.090,-11.230
1572496338.105,8.789,-29.785,-304.688,14.648,31.250
1572496338.109,2.930,62.012,-54.199,18.066,39.062
1572496338.113,16.113,-64.453,-200.684,23.926,25.391
1572496338.117,18.555,-62.012,-243.652,24.902,30.273
1572496338.121,11.719,1.953,-128.418,23.438,31.738
1572496338.125,17.090,0.000,-93.750,29.297,36.133
1572496338.129,20.508,-33.691,-153.320,32.715,41.504
1572496338.133,15.625,-80.078,-275.879,26.855,41.504
1572496338.137,9.766,-76.660,-332.031,23.926,43.457
1572496338.141,5.371,-63.965,-355.957,20.996,25.879
1572496338.144,12.695,-152.832,-539.062,21.973,11.719
1572496338.148,18.555,-106.934,-579.590,18.066,14.648
1572496338.152,20.996,152.832,-169.434,9.277,43.457
1572496338.156,27.344,107.422,-108.398,21.973,20.020
1572496338.160,25.879,42.969,-193.848,32.715,27.344
1572496338.164,29.785,82.031,-149.414,28.320,59.082
1572496338.168,32.715,102.539,-108.398,25.391,59.082
1572496338.172,29.785,48.828,-156.250,27.344,54.199
1572496338.176,28.809,-15.625,-284.180,31.738,35.645
1572496338.180,23.926,-11.230,-332.031,35.156,30.762
1572496338.184,17.578,50.293,-254.395,36.133,49.316
1572496338.187,18.066,77.148,-184.082,38.574,57.129
1572496338.191,27.344,-2.930,-295.410,40.527,33.691
1572496338.195,29.785,16.113,-333.984,40.527,14.160
1572496338.199,26.367,143.066,-152.344,40.527,46.387
1572496338.203,33.203,37.109,-247.070,44.434,44.922
1572496338.207,32.715,-85.938,-508.301,40.527,36.621
1572496338.211,27.832,116.211,-247.559,30.762,66.895
1572496338.215,30.273,154.297,-108.398,35.156,52.246
1572496338.219,31.738,64.453,-243.164,38.086,44.922
1572496338.223,30.762,62.988,-273.926,36.133,42.969
1572496338.227,28.320,48.340,-297.363,37.598,37.598
1572496338.230,22.461,6.836,-383.789,35.156,25.391
1572496338.234,23.926,-99.121,-585.938,28.320,0.000
1572496338.238,25.879,-53.711,-604.980,18.555,-4.883
1572496338.242,22.949,178.711,-224.609,20.996,25.391
1572496338.246,31.738,178.223,-104.980,28.809,29.785
1572496338.250,37.109,-56.152,-463.867,23.438,8.789
1572496338.254,24.414,-57.617,-595.703,17.090,5.371
1572496338.258,22.461,185.059,-242.676,21.484,8.301
1572496338.262,31.250,143.555,-218.262,28.320,12.695
1572496338.266,24.902,93.262,-283.691,27.832,35.645
1572496338.269,19.043,160.645,-184.082,24.414,42.480
1572496338.273,22.461,105.957,-252.441,24.902,30.762
1572496338.277,23.926,2.441,-449.219,21.484,19.531
1572496338.281,23.926,-53.223,-630.371,20.020,24.414
1572496338.285,13.672,113.281,-444.336,16.602,40.039
1572496338.289,6.836,251.465,-138.184,11.719,36.621
1572496338.293,14.160,107.910,-244.629,14.648,46.387
1572496338.297,22.949,13.672,-402.344,17.578,33.203
1572496338.301,16.113,147.461,-213.379,17.090,38.574
1572496338.305,4.883,163.086,-105.957,22.461,58.105
1572496338.309,11.719,-64.941,-466.797,25.391,10.254
1572496338.312,7.324,-80.566,-643.555,15.137,5.859
1572496338.316,0.977,187.012,-249.023,18.066,50.293
1572496338.320,5.859,119.629,-229.492,22.949,40.039
1572496338.324,0.488,-21.484,-490.234,12.207,16.602
1572496338.328,-1.953,83.984,-396.973,11.230,10.742
1572496338.332,-6.348,203.125,-132.812,12.695,38.086
1572496338.336,0.488,132.324,-144.043,17.578,26.855
1572496338.340,5.859,42.969,-302.246,26.855,19.043
1572496338.344,-0.977,101.562,-253.906,11.719,49.805
1572496338.348,6.836,141.113,-171.875,3.906,39.062
1572496338.352,11.230,102.539,-161.621,10.742,41.504
1572496338.355,15.137,-106.445,-515.137,26.367,25.879
1572496338.359,20.020,-14.648,-508.301,23.926,52.246
1572496338.363,11.230,152.832,-199.219,3.418,66.895
1572496338.367,6.836,-2.930,-397.461,6.836,32.715
1572496338.371,16.113,-18.555,-465.820,11.230,41.992
1572496338.375,12.695,78.613,-334.961,12.207,38.574
1572496338.379,11.719,184.570,-111.816,16.602,66.895
1572496338.383,22.461,48.340,-231.445,20.020,39.062
1572496338.387,32.715,-127.930,-601.562,24.902,0.488
1572496338.391,27.344,74.219,-394.531,17.090,29.785
1572496338.394,20.020,195.801,-123.535,15.625,40.039
1572496338.398,18.555,94.727,-244.141,23.438,48.828
1572496338.402,12.207,78.613,-286.133,22.461,60.059
1572496338.406,9.766,142.090,-159.668,8.301,62.988
1572496338.410,10.742,129.395,-137.207,6.836,50.293
1572496338.414,16.113,-78.125,-484.375,15.625,13.672
1572496338.418,17.090,-161.621,-772.461,8.789,8.789
1572496338.422,12.695,102.051,-418.945,1.953,64.453
1572496338.426,21.484,165.039,-187.500,3.906,65.918
1572496338.430,25.391,35.645,-330.078,20.996,53.711
1572496338.434,23.926,23.438,-367.188,27.832,48.828
1572496338.437,16.602,77.637,-242.676,19.043,30.762
1572496338.441,12.207,48.340,-229.492,19.043,44.434
1572496338.445,9.766,-20.996,-346.680,26.855,66.406
1572496338.449,1.465,9.277,-347.168,18.066,50.781
1572496338.453,-4.395,66.406,-251.465,8.301,37.109
1572496338.457,0.000,-5.371,-304.688,15.137,35.645
1572496338.461,5.371,-218.262,-701.172,14.648,4.883
1572496338.465,-5.371,-122.559,-726.562,3.418,2.441
1572496338.469,-6.348,119.629,-308.105,10.254,36.133
1572496338.473,-0.977,33.203,-312.012,23.438,40.527
1572496338.477,3.418,-57.129,-443.359,18.066,51.270
1572496338.480,9.766,31.738,-310.059,14.648,67.871
1572496338.484,4.883,101.074,-147.461,13.184,65.430
1572496338.488,5.859,-59.570,-330.566,10.254,57.617
1572496338.492,7.324,-197.754,-633.301,7.324,14.648
1572496338.496,1.465,-7.324,-440.430,4.883,13.672
1572496338.500,6.348,63.477,-272.949,9.277,33.203
1572496338.504,4.395,31.738,-288.086,3.418,56.641
1572496338.508,-1.465,-29.297,-393.066,0.488,56.152
1572496338.512,4.395,-42.480,-458.984,0.000,54.688
1572496338.516,8.301,57.617,-292.480,-0.977,62.988
1572496338.519,13.184,-87.891,-493.164,1.465,29.785
1572496338.523,6.836,-125.000,-669.922,-4.395,18.066
1572496338.527,-0.488,114.258,-300.293,-6.836,48.340
1572496338.531,9.277,95.703,-201.660,-5.859,60.547
1572496338.535,5.371,-20.508,-387.207,-5.371,46.875
1572496338.539,-5.859,41.016,-356.934,0.000,52.734
1572496338.543,4.395,153.809,-138.184,7.324,85.449
1572496338.547,12.207,47.363,-237.793,4.395,67.871
1572496338.551,12.695,-40.039,-403.320,2.930,39.062
1572496338.555,15.137,-54.688,-490.723,11.719,23.926
1572496338.559,8.301,-11.719,-480.957,-0.977,23.926
1572496338.562,8.301,12.207,-424.805,-4.395,23.926
1572496338.566,12.695,-93.750,-621.582,-1.465,20.508
1572496338.570,5.371,27.832,-515.137,-17.578,13.672
1572496338.574,1.465,153.809,-228.027,-16.113,32.715
1572496338.578,8.789,75.684,-260.742,-3.418,59.082
1572496338.582,9.766,48.340,-317.871,-4.883,49.316
1572496338.586,6.836,51.270,-302.246,-11.719,32.715
1572496338.590,3.418,-0.488,-382.812,-10.254,34.180
1572496338.594,10.254,21.973,-390.625,7.812,52.734
1572496338.598,18.066,52.734,-313.477,16.113,52.246
1572496338.602,16.113,14.648,-351.074,1.953,45.898
1572496338.605,17.578,20.996,-351.562,0.000,59.570
1572496338.609,15.625,24.902,-337.402,-0.488,41.992
1572496338.613,12.207,55.176,-273.438,-4.395,41.016
1572496338.617,10.254,119.629,-80.566,-1.465,71.289
1572496338.621,18.555,86.914,-9.277,8.301,77.148
1572496338.625,25.879,-133.301,-330.078,14.648,63.965
1572496338.629,9.766,-156.250,-471.680,2.441,49.316
1572496338.633,5.859,30.762,-170.898,2.930,36.133
1572496338.637,18.555,-26.367,-165.039,14.648,41.992
1572496338.641,19.531,-72.754,-245.605,8.301,49.316
1572496338.644,18.066,-1.953,-149.902,-1.465,55.176
1572496338.648,24.414,-42.969,-182.617,8.301,59.082
1572496338.652,19.531,-162.598,-395.508,17.090,40.039
1572496338.656,13.672,-216.309,-617.676,11.719,14.160
1572496338.660,12.695,-21.973,-415.039,7.324,33.203
1572496338.664,12.695,107.910,-123.535,6.348,50.781
1572496338.668,19.043,-24.902,-300.781,16.602,12.695
1572496338.672,23.926,-35.645,-353.516,19.531,19.043
1572496338.676,23.926,49.805,-192.871,9.766,41.992
1572496338.680,30.273,9.766,-203.613,18.555,24.414
1572496338.684,34.180,-46.875,-302.734,25.879,24.902
1572496338.687,32.227,-29.785,-311.523,25.391,34.668
1572496338.691,35.156,6.836,-211.914,27.344,41.992
1572496338.695,32.227,-99.121,-362.305,32.227,36.621
1572496338.699,38.086,-125.977,-477.051,27.832,33.203
1572496338.703,37.598,-58.594,-416.992,19.043,36.621
1572496338.707,24.902,11.719,-280.762,22.949,61.523
1572496338.711,28.320,19.043,-210.449,30.762,61.035
1572496338.715,25.391,-79.102,-375.488,27.832,29.297
1572496338.719,20.020,-31.738,-323.730,23.438,60.547
1572496338.723,21.973,-7.324,-263.672,26.855,53.711
1572496338.727,16.602,-49.316,-309.570,27.344,31.738
1572496338.730,19.043,-222.168,-640.137,22.949,26.855
1572496338.734,25.391,-166.992,-698.242,16.602,29.785
1572496338.738,21.973,96.680,-234.863,17.578,85.449
1572496338.742,24.902,-60.547,-417.969,27.832,43.945
1572496338.746,28.320,-114.746,-601.562,28.320,19.531
1572496338.750,27.832,41.992,-378.906,24.902,47.852
1572496338.754,24.902,73.242,-256.348,26.367,61.523
1572496338.758,25.391,-77.148,-454.590,30.273,32.715
1572496338.762,26.855,-144.043,-650.879,33.691,-5.859
1572496338.766,18.555,22.949,-421.875,33.691,37.598
1572496338.769,19.531,76.172,-266.113,39.062,62.500
1572496338.773,28.320,-99.121,-530.762,45.410,23.926
1572496338.777,31.738,-166.016,-747.559,41.992,3.418
1572496338.781,29.785,43.945,-451.172,36.133,41.992
1572496338.785,27.832,59.082,-334.961,41.992,48.828
1572496338.789,35.156,-111.328,-623.535,43.945,17.578
1572496338.793,36.133,-121.582,-761.719,33.691,26.855
1572496338.797,31.250,-45.410,-689.453,36.133,20.020
1572496338.801,28.320,-8.301,-643.555,46.875,31.738
1572496338.805,20.508,-102.539,-778.809,41.504,38.086
1572496338.809,10.742,-104.492,-869.141,36.133,-7.324
1572496338.812,-1.953,163.086,-447.266,35.156,35.645
1572496338.816,-0.488,96.191,-416.504,38.086,50.293
1572496338.820,0.000,7.324,-583.008,39.062,28.809
1572496338.824,-5.859,87.402,-498.047,38.086,33.203
1572496338.828,-6.836,116.211,-442.871,41.504,50.781
1572496338.832,-14.648,62.988,-493.164,37.109,70.312
1572496338.836,-22.949,-133.789,-833.496,33.203,43.945
1572496338.840,-19.043,-83.496,-956.543,33.691,33.203
1572496338.844,-5.859,151.855,-600.586,33.203,68.359
1572496338.848,6.348,51.270,-623.535,36.133,48.828
1572496338.852,16.602,-32.227,-789.551,40.039,39.551
1572496338.855,21.973,109.375,-583.984,44.434,61.523
1572496338.859,24.902,150.879,-447.266,46.387,59.570
1572496338.863,25.879,16.602,-586.426,40.527,59.570
1572496338.867,29.297,-106.934,-881.348,33.691,29.785
1572496338.871,19.531,42.480,-721.680,27.832,45.410
1572496338.875,10.254,124.023,-488.770,29.297,79.102
1572496338.879,17.578,2.441,-636.719,28.320,59.570
1572496338.883,20.508,-94.238,-868.164,25.391,21.973
1572496338.887,18.066,56.152,-680.176,24.902,56.641
1572496338.891,19.531,132.812,-473.145,19.043,83.984
1572496338.894,20.996,47.363,-587.402,19.531,41.992
1572496338.898,20.508,34.668,-659.180,21.973,16.602
1572496338.902,25.879,99.121,-538.574,26.855,33.691
1572496338.906,31.250,110.352,-480.957,34.668,59.082
1572496338.910,36.621,-76.660,-746.094,35.645,44.922
1572496338.914,44.922,-92.773,-893.066,35.156,12.695
1572496338.918,43.945,144.531,-573.730,27.832,38.086
1572496338.922,50.781,95.215,-564.941,31.738,34.180
1572496338.926,64.453,68.359,-631.348,33.203,42.480
1572496338.930,70.312,131.836,-546.875,30.273,78.125
1572496338.934,71.289,119.629,-570.801,39.062,73.730
1572496338.937,80.566,78.125,-643.066,46.387,63.477
1572496338.941,90.820,7.324,-854.980,46.875,56.641
1572496338.945,84.961,166.992,-719.727,36.133,76.172
1572496338.949,87.402,312.500,-410.645,41.992,102.051
1572496338.953,104.004,200.195,-533.691,61.523,100.098
1572496338.957,101.562,156.250,-670.410,61.035,86.426
1572496338.961,85.938,234.863,-558.105,53.711,95.703
1572496338.965,78.613,231.445,-583.008,57.129,94.238
1572496338.969,84.961,57.617,-823.242,70.801,51.270
1572496338.973,96.680,24.414,-958.984,82.520,42.969
1572496338.977,94.727,158.203,-932.617,79.102,58.594
1572496338.980,86.914,198.242,-970.215,74.707,51.270
1572496338.984,81.055,138.672,-971.191,79.102,61.035
1572496338.988,75.684,118.652,-969.238,79.102,61.035
1572496338.992,73.242,291.992,-970.215,74.219,64.453
1572496338.996,67.871,267.090,-970.215,74.707,63.965
1572496339.000,64.453,178.711,-970.215,73.730,78.613
1572496339.004,65.918,238.770,-970.215,76.172,93.262
1572496339.008,66.895,258.789,-970.215,82.031,75.195
1572496339.012,66.406,190.430,-970.215,86.426,59.570
1572496339.016,61.035,218.262,-970.215,84.473,81.543
1572496339.019,61.035,269.531,-970.215,76.172,96.680
1572496339.023,69.824,229.492,-970.215,75.195,102.051
1572496339.027,76.172,146.973,-970.215,79.102,90.820
1572496339.031,75.195,201.172,-970.215,73.242,80.566
1572496339.035,74.707,310.547,-970.215,65.430,85.449
1572496339.039,77.637,341.797,-970.215,65.430,88.867
1572496339.043,75.684,236.816,-970.215,72.754,81.055
1572496339.047,70.801,160.645,-970.215,66.895,54.688
1572496339.051,63.965,336.426,-970.215,53.711,56.152
1572496339.055,66.895,396.973,-970.215,55.664,79.590
1572496339.059,66.895,278.809,-970.215,55.176,71.289
1572496339.062,59.570,254.395,-970.215,54.199,50.781
1572496339.066,55.664,305.176,-970.215,52.246,46.875
1572496339.070,54.688,271.484,-970.215,47.363,51.270
1572496339.074,56.641,178.711,-969.727,42.969,61.523
1572496339.078,55.664,200.684,-969.727,36.621,50.293
1572496339.082,51.758,361.328,-973.145,38.086,44.922
1572496339.086,51.270,346.680,-947.754,42.969,58.105
1572496339.090,47.363,243.164,-959.473,40.527,37.598
1572496339.094,44.922,263.184,-955.078,39.062,22.949
1572496339.098,50.781,282.227,-933.594,42.480,42.480
1572496339.102,51.270,240.234,-926.270,42.969,55.664
1572496339.105,47.852,220.215,-936.523,40.039,38.086
1572496339.109,51.270,308.105,-787.598,40.039,51.758
1572496339.113,56.641,357.422,-604.492,41.504,70.801
1572496339.117,55.176,182.129,-764.160,44.434,40.527
1572496339.121,54.199,41.016,-974.121,43.457,13.672
1572496339.125,55.176,241.699,-761.230,38.086,42.969
1572496339.129,57.129,367.188,-481.934,38.086,59.082
1572496339.133,58.105,227.539,-576.660,39.062,39.062
1572496339.137,59.570,196.289,-629.395,37.598,34.180
1572496339.141,59.082,268.066,-493.164,38.086,33.203
1572496339.144,54.688,249.512,-440.430,40.527,26.367
1572496339.148,57.129,160.156,-545.898,47.363,14.648
1572496339.152,57.129,135.742,-576.660,43.945,11.230
1572496339.156,46.875,166.992,-506.348,37.598,22.949
1572496339.160,45.410,180.664,-440.918,41.016,28.320
1572496339.164,49.805,105.957,-520.996,38.086,15.625
1572496339.168,51.270,78.125,-596.680,37.598,20.020
1572496339.172,49.316,178.223,-434.570,35.156,30.273
1572496339.176,45.410,251.465,-221.191,36.133,54.688
1572496339.180,49.805,38.086,-507.812,42.969,27.344
1572496339.184,48.340,-17.578,-704.590,34.180,1.953
1572496339.187,41.016,209.473,-333.984,29.297,32.227
1572496339.191,40.527,176.270,-267.578,31.250,35.645
1572496339.195,34.668,116.699,-336.426,29.297,44.434
1572496339.199,27.832,148.438,-265.625,28.809,55.176
1572496339.203,27.344,151.855,-219.238,30.273,46.387
1572496339.207,23.438,96.680,-254.395,28.320,61.523
1572496339.211,20.020,-25.879,-452.148,25.879,53.223
1572496339.215,19.043,-38.086,-555.176,23.926,31.250
1572496339.219,15.137,-33.203,-596.191,22.461,-4.883
1572496339.223,11.719,-60.059,-679.199,23.438,-15.137
1572496339.227,9.766,43.945,-536.621,21.484,35.156
1572496339.230,9.277,156.250,-319.824,15.137,52.246
1572496339.234,11.719,135.254,-288.086,16.602,35.645
1572496339.238,20.996,11.719,-487.305,26.855,11.719
1572496339.242,20.996,8.789,-569.336,25.879,15.137
1572496339.246,17.578,126.953,-386.719,19.043,50.293
1572496339.250,18.555,158.691,-285.156,21.973,66.406
1572496339.254,23.926,-1.465,-523.438,30.273,45.410
1572496339.258,34.668,-149.414,-900.391,32.715,11.230
1572496339.262,28.809,68.848,-715.820,26.855,15.625
1572496339.266,22.461,207.520,-459.961,17.090,29.297
1572496339.269,26.855,119.141,-580.078,17.578,14.160
1572496339.273,26.367,147.461,-539.551,22.461,34.668
1572496339.277,18.066,201.660,-382.324,18.066,47.363
1572496339.281,12.207,165.039,-388.672,15.137,30.762
1572496339.285,17.090,-28.320,-718.750,11.719,12.695
1572496339.289,15.137,-33.203,-851.562,9.277,9.277
1572496339.293,2.930,186.523,-501.465,7.812,30.762
1572496339.297,4.883,119.141,-503.906,10.254,23.438
1572496339.301,2.930,24.902,-651.855,15.625,10.254
1572496339.305,-4.883,19.531,-711.426,12.695,11.230
1572496339.309,-8.301,40.039,-724.121,6.348,0.488
1572496339.312,-2.930,66.895,-623.535,9.277,20.020
1572496339.316,6.836,-91.797,-865.234,14.160,-8.301
1572496339.320,0.977,61.035,-747.070,5.859,1.953
1572496339.324,-0.488,240.723,-357.422,8.789,69.824
1572496339.328,9.277,40.039,-573.242,29.297,41.992
1572496339.332,6.348,23.438,-669.922,31.738,26.367
1572496339.336,3.418,204.590,-378.906,27.344,52.246
1572496339.340,-0.977,204.590,-272.461,23.926,57.617
1572496339.344,-0.977,111.816,-388.184,15.137,56.152
1572496339.348,4.883,88.379,-407.715,18.555,54.199
1572496339.352,2.441,26.367,-487.793,23.438,35.645
1572496339.355,-0.488,43.457,-490.723,24.414,32.715
1572496339.359,6.836,-16.602,-568.848,21.484,33.203
1572496339.363,11.230,-76.660,-736.328,23.926,13.184
1572496339.367,10.254,130.859,-445.312,28.809,9.766
1572496339.371,13.184,159.180,-286.133,28.809,27.344
1572496339.375,15.625,62.500,-392.578,36.133,28.809
1572496339.379,15.137,35.156,-472.168,32.715,-4.883
1572496339.383,13.184,84.961,-398.926,31.738,22.949
1572496339.387,17.578,83.984,-355.469,36.133,49.316
1572496339.391,19.531,18.555,-463.867,32.715,25.879
1572496339.394,16.602,63.965,-407.227,36.621,21.484
1572496339.398,20.508,71.289,-349.609,39.551,40.039
1572496339.402,21.484,-17.578,-492.676,37.109,36.621
1572496339.406,18.066,-41.992,-583.008,32.715,4.395
1572496339.410,16.113,105.469,-352.539,32.227,36.621
1572496339.414,16.113,181.641,-125.488,33.203,69.336
1572496339.418,20.996,3.418,-334.961,34.668,30.762
1572496339.422,25.879,-122.559,-630.371,30.762,-4.395
1572496339.426,27.832,68.359,-411.133,23.926,8.789
1572496339.430,22.461,97.168,-288.574,26.367,13.184
1572496339.434,26.367,46.387,-345.703,28.320,19.531
1572496339.437,23.926,33.691,-361.816,21.973,18.555
1572496339.441,15.625,48.828,-320.801,20.508,26.367
1572496339.445,18.066,28.320,-332.031,26.855,5.859
1572496339.449,13.184,-29.297,-452.148,26.367,12.207
1572496339.453,14.648,88.867,-281.250,23.438,55.664
1572496339.457,16.113,134.766,-149.902,22.461,15.625
1572496339.461,8.789,127.441,-100.586,20.996,13.184
1572496339.465,20.020,-41.504,-367.188,33.203,11.230
1572496339.469,26.855,-71.777,-532.227,35.156,1.465
1572496339.473,17.578,155.762,-172.852,17.090,28.809
1572496339.477,15.137,100.098,-138.184,16.602,28.320
1572496339.480,24.414,15.625,-255.859,24.414,20.508
1572496339.484,23.438,63.477,-199.707,29.297,23.926
1572496339.488,24.902,46.875,-180.176,34.668,16.113
1572496339.492,30.762,-22.461,-278.320,31.738,28.809
1572496339.496,32.715,-57.617,-378.906,34.180,23.438
1572496339.500,20.996,18.555,-256.836,26.367,19.043
1572496339.504,12.207,95.215,-55.176,19.531,29.297
1572496339.508,34.180,10.742,-142.090,38.574,12.695
1572496339.512,27.344,-17.578,-195.801,24.902,21.973
1572496339.516,-16.113,46.875,-72.266,-17.578,20.508
1572496339.519,-23.926,72.754,20.020,-19.531,21.973
1572496339.523,-14.648,-83.008,-157.227,-10.742,0.977
1572496339.527,-32.227,-181.152,-395.020,-26.367,-15.625
1572496339.531,-48.340,65.430,-88.379,-44.434,6.348
1572496339.535,-72.266,116.699,104.980,-68.359,-7.324
1572496339.539,-76.172,-16.113,-51.758,-66.406,-27.832
1572496339.543,-73.242,-30.762,-118.164,-70.312,-25.391
1572496339.547,-85.938,96.191,122.070,-92.285,-2.441
1572496339.551,-65.430,105.957,254.395,-69.336,25.391
1572496339.555,-57.129,6.836,76.660,-59.082,-8.789
1572496339.559,-64.453,56.152,130.859,-70.312,-22.949
1572496339.562,-67.383,135.742,329.102,-72.754,11.230
1572496339.566,-67.871,105.469,355.957,-72.266,10.254
1572496339.570,-54.688,-101.562,13.184,-62.012,-13.184
1572496339.574,-58.594,-100.098,-92.773,-64.941,-24.902
1572496339.578,-49.316,91.309,242.676,-56.152,-13.184
1572496339.582,-29.297,37.109,265.625,-35.645,1.465
1572496339.586,-27.344,-77.148,104.004,-30.762,4.395
1572496339.590,-21.973,-58.105,60.059,-27.344,-6.348
1572496339.594,-13.184,35.156,205.078,-14.648,-2.930
1572496339.598,3.906,-36.621,199.219,1.465,4.395
1572496339.602,8.789,-211.426,-152.832,-2.441,-18.555
1572496339.605,-0.488,-86.426,-94.727,-15.137,-20.508
1572496339.609,1.465,25.391,150.391,-11.230,4.883
1572496339.613,9.766,-104.492,-5.371,-8.789,-11.230
1572496339.617,9.277,-111.816,-42.480,-5.859,-7.324
1572496339.621,8.789,11.719,196.289,2.441,30.273
1572496339.625,14.160,-20.020,231.934,9.766,29.297
1572496339.629,20.020,-105.957,92.773,11.719,24.902
1572496339.633,20.020,-169.922,-71.289,18.066,15.625
1572496339.637,22.949,-164.551,-114.746,21.484,0.977
1572496339.641,28.320,-181.641,-173.340,18.066,-14.160
1572496339.644,29.297,-171.875,-227.051,19.043,-18.066
1572496339.648,32.715,-48.828,-23.438,20.020,30.762
1572496339.652,32.715,0.000,140.625,20.020,50.293
1572496339.656,30.273,-60.059,115.234,20.508,43.945
1572496339.660,29.297,-211.914,-161.133,21.973,25.879
1572496339.664,25.391,-232.422,-321.777,21.973,4.395
1572496339.668,18.066,-121.094,-196.777,20.508,3.906
1572496339.672,19.531,-72.266,-106.934,26.855,17.090
1572496339.676,26.855,-160.156,-262.207,32.715,35.645
1572496339.680,26.367,-154.297,-350.098,26.855,27.832
1572496339.684,24.902,-69.824,-231.934,30.273,17.578
1572496339.687,27.344,-108.887,-275.879,37.109,13.184
1572496339.691,27.344,-77.637,-229.492,30.762,27.344
1572496339.695,25.879,2.930,-66.895,26.855,33.203
1572496339.699,21.973,9.277,14.648,26.367,37.109
1572496339.703,22.461,-125.000,-137.207,26.855,29.297
1572496339.707,24.902,-234.375,-416.992,23.926,12.207
1572496339.711,21.973,-52.246,-222.656,15.137,29.297
1572496339.715,18.066,37.598,15.137,19.043,48.340
1572496339.719,21.484,-71.289,-122.559,24.902,46.875
1572496339.723,25.879,-126.465,-228.516,27.344,45.410
1572496339.727,21.484,-102.051,-198.242,27.832,49.805
1572496339.730,20.508,-106.934,-231.934,26.855,43.457
1572496339.734,32.227,-238.281,-495.117,29.297,1.953
1572496339.738,37.598,-230.957,-586.426,23.926,-1.465
1572496339.742,35.156,17.090,-207.520,20.020,32.715
1572496339.746,41.504,41.992,-50.781,25.879,42.480
1572496339.750,44.922,-114.258,-299.316,29.297,10.742
1572496339.754,35.156,-102.051,-354.004,23.926,-2.930
1572496339.758,30.273,44.434,-71.777,25.879,48.828
1572496339.762,38.086,-29.297,-91.309,34.180,40.527
1572496339.766,37.109,-156.250,-342.773,34.180,-4.883
1572496339.769,24.414,-53.223,-252.441,22.949,18.555
1572496339.773,18.555,-42.969,-196.289,23.926,37.109
1572496339.777,19.531,-150.391,-378.906,28.809,29.785
1572496339.781,17.090,-127.930,-394.531,21.973,30.273
1572496339.785,18.066,17.578,-155.762,22.461,51.758
1572496339.789,25.879,41.992,-41.016,30.273,47.363
1572496339.793,26.367,-96.191,-248.535,34.668,12.695
1572496339.797,24.902,-126.953,-347.656,33.691,12.207
1572496339.801,32.227,-17.578,-182.617,35.156,39.551
1572496339.805,29.785,7.324,-111.816,29.297,37.598
1572496339.809,26.855,-141.602,-330.566,30.762,23.438
1572496339.812,29.297,-226.074,-587.402,29.785,19.531
1572496339.816,23.438,-35.645,-382.812,19.043,11.230
1572496339.820,22.461,-74.219,-400.391,25.391,-12.207
1572496339.824,21.973,-142.578,-585.449,25.879,-16.113
1572496339.828,20.996,15.625,-353.027,21.484,28.809
1572496339.832,18.066,28.809,-237.793,19.043,38.086
1572496339.836,19.043,-1.953,-275.391,20.508,33.691
1572496339.840,30.762,-116.211,-491.211,25.391,21.484
1572496339.844,32.227,-157.227,-677.246,18.555,7.812
1572496339.848,25.391,90.332,-291.504,16.113,38.574
1572496339.852,26.367,32.227,-256.348,19.043,32.227
1572496339.855,29.785,-58.105,-419.434,19.531,22.461
1572496339.859,24.902,38.086,-301.270,21.484,25.391
1572496339.863,20.508,50.293,-229.004,22.461,16.602
1572496339.867,21.484,-13.672,-274.414,22.949,53.223
1572496339.871,19.531,-206.543,-645.508,20.508,41.504
1572496339.875,18.555,-153.320,-722.168,18.066,2.441
1572496339.879,14.648,126.953,-227.539,8.301,48.340
1572496339.883,17.578,50.781,-201.172,16.113,66.895
1572496339.887,26.367,-24.414,-329.102,31.250,44.434
1572496339.891,23.926,-3.418,-324.219,29.297,21.484
1572496339.894,25.391,-21.973,-357.422,32.227,2.930
1572496339.898,25.391,-41.016,-393.555,28.320,20.996
1572496339.902,20.996,-23.438,-378.906,20.996,58.105
1572496339.906,24.414,91.309,-182.129,24.902,67.871
1572496339.910,26.855,104.492,-94.238,27.344,64.941
1572496339.914,30.762,-89.355,-388.184,26.855,46.387
1572496339.918,30.762,-153.809,-626.465,20.020,34.668
1572496339.922,27.344,68.848,-325.684,24.902,36.621
1572496339.926,29.785,101.074,-159.180,33.691,51.758
1572496339.930,32.715,18.555,-257.324,31.738,58.594
1572496339.934,33.691,0.000,-323.730,30.762,23.926
1572496339.937,30.273,49.316,-232.422,27.832,29.785
1572496339.941,27.344,44.434,-166.504,25.879,51.270
1572496339.945,30.273,-143.066,-483.887,28.320,18.555
1572496339.949,31.738,-119.629,-596.191,29.785,8.789
1572496339.953,25.879,83.984,-259.277,25.391,32.715
1572496339.957,23.926,14.160,-273.926,24.414,15.137
1572496339.961,19.531,-77.637,-432.129,22.949,11.719
1572496339.965,10.742,-40.039,-412.598,14.160,35.645
1572496339.969,14.160,36.621,-275.391,15.625,25.391
1572496339.973,17.578,-19.043,-290.527,27.344,8.789
1572496339.977,15.625,-134.766,-522.461,25.391,25.391
1572496339.980,9.766,8.789,-366.699,14.648,46.387
1572496339.984,4.883,92.285,-149.902,16.113,36.621
1572496339.988,8.789,-27.344,-316.406,25.879,5.371
1572496339.992,11.230,-18.066,-320.312,26.367,28.320
1572496339.996,11.230,53.711,-148.926,18.555,54.199
1572496340.000,12.207,31.738,-135.742,17.090,46.387
1572496340.004,20.996,-54.688,-305.664,21.973,26.367
1572496340.008,25.879,-118.652,-475.098,26.855,9.277
1572496340.012,21.973,-62.012,-416.992,21.973,29.297
1572496340.016,17.578,38.574,-240.234,18.555,29.297
1572496340.019,17.090,-106.445,-437.500,17.578,1.465
1572496340.023,19.043,-199.707,-703.125,13.184,-28.320
1572496340.027,16.113,67.383,-326.660,12.695,6.836
1572496340.031,28.320,124.512,-101.074,22.949,48.828
1572496340.035,32.715,12.207,-231.445,31.738,36.621
1572496340.039,31.250,23.438,-236.816,31.250,36.133
1572496340.043,35.156,84.961,-100.098,30.273,57.129
1572496340.047,40.039,11.719,-177.246,31.250,35.645
1572496340.051,41.504,-86.426,-385.254,27.344,5.371
1572496340.055,36.621,-66.406,-425.781,24.414,7.812
1572496340.059,36.133,-36.621,-390.137,27.832,14.648
1572496340.062,38.086,-83.008,-464.355,31.250,12.207
1572496340.066,40.527,-48.340,-430.176,32.227,22.461
1572496340.070,37.598,62.988,-222.656,26.855,38.086
1572496340.074,31.250,59.082,-159.668,22.461,31.738
1572496340.078,34.668,-83.008,-357.910,27.832,3.418
1572496340.082,38.086,-166.992,-604.980,31.250,5.371
1572496340.086,37.598,20.996,-389.160,29.297,25.391
1572496340.090,42.969,104.492,-149.902,34.180,41.016
1572496340.094,34.668,10.742,-263.184,26.855,43.457
1572496340.098,26.855,-17.578,-349.609,22.461,24.902
1572496340.102,32.227,-12.695,-319.336,33.691,66.895
1572496340.105,42.480,-23.926,-353.516,40.527,60.059
1572496340.109,46.875,-122.070,-559.570,41.992,22.949
1572496340.113,41.504,-168.457,-717.773,38.086,21.484
1572496340.117,39.551,-21.484,-551.270,32.715,14.648
1572496340.121,44.922,29.785,-445.312,40.039,31.250
1572496340.125,54.688,1.953,-476.562,53.711,35.156
1572496340.129,59.082,0.977,-518.555,54.688,15.625
1572496340.133,61.035,43.457,-437.012,52.246,26.855
1572496340.137,73.730,-14.160,-504.883,67.871,21.973
1572496340.141,77.637,-45.898,-586.914,71.289,22.949
1572496340.144,81.055,13.184,-490.723,70.312,53.223
1572496340.148,88.867,-42.969,-594.238,81.055,45.898
1572496340.152,88.379,-107.910,-788.086,81.543,21.484
1572496340.156,92.773,-168.457,-950.684,83.008,-7.324
1572496340.160,91.797,-1.465,-819.336,81.543,17.090
1572496340.164,81.543,191.406,-480.469,77.637,69.336
1572496340.168,83.496,46.875,-629.395,78.125,27.344
1572496340.172,83.008,2.441,-774.414,78.125,3.418
1572496340.176,76.660,81.055,-674.316,78.125,46.387
1572496340.180,76.172,121.094,-591.309,74.219,54.199
1572496340.184,70.312,79.102,-637.695,72.754,37.598
1572496340.187,65.918,63.477,-664.062,73.730,44.434
1572496340.191,70.312,111.816,-548.340,70.801,48.828
1572496340.195,71.777,-8.789,-724.121,75.684,21.973
1572496340.199,70.312,-32.227,-854.004,68.359,32.715
1572496340.203,70.312,106.445,-659.180,61.523,62.500
1572496340.207,63.965,147.949,-533.203,58.594,55.664
1572496340.211,56.152,108.887,-576.172,49.805,39.062
1572496340.215,56.152,53.223,-714.355,55.664,27.832
1572496340.219,49.805,95.703,-683.594,51.758,53.711
1572496340.223,47.363,147.949,-573.242,49.316,63.477
1572496340.227,49.316,133.789,-588.867,48.828,61.523
1572496340.230,42.969,-47.363,-832.520,42.969,49.805
1572496340.234,44.434,-23.438,-912.109,43.945,37.598
1572496340.238,43.457,168.945,-643.555,39.062,60.059
1572496340.242,42.480,59.082,-729.492,38.574,65.918
1572496340.246,49.805,34.180,-815.430,38.574,67.383
1572496340.250,46.387,126.953,-676.758,32.227,52.246
1572496340.254,43.457,165.039,-558.105,34.180,56.641
1572496340.258,48.828,55.664,-658.203,39.062,43.457
1572496340.262,53.711,-96.680,-950.195,35.156,11.230
1572496340.266,51.758,59.082,-828.125,29.785,18.066
1572496340.269,41.016,188.965,-542.969,31.250,42.969
1572496340.273,33.203,85.449,-637.695,34.668,39.551
1572496340.277,36.621,55.664,-716.797,37.598,28.809
1572496340.281,41.016,153.320,-549.316,38.086,33.203
1572496340.285,34.668,168.945,-471.680,38.086,50.293
1572496340.289,31.250,8.301,-720.215,43.457,33.203
1572496340.293,35.156,-36.621,-910.156,36.621,-8.301
1572496340.297,36.133,194.824,-580.566,32.715,7.812
1572496340.301,30.762,280.273,-259.277,38.086,60.547
1572496340.305,32.715,166.992,-347.168,40.527,80.566
1572496340.309,37.109,128.418,-423.340,36.133,55.664
1572496340.312,40.039,209.961,-251.465,37.109,53.223
1572496340.316,40.039,178.223,-219.238,40.527,59.570
1572496340.320,35.645,28.809,-469.238,27.344,34.668
1572496340.324,38.574,74.707,-475.586,24.902,34.668
1572496340.328,35.156,190.918,-212.402,34.180,58.594
1572496340.332,32.227,105.957,-254.395,34.180,39.062
1572496340.336,32.227,32.227,-388.672,35.156,36.133
1572496340.340,25.879,51.758,-411.621,28.320,40.527
1572496340.344,17.090,123.047,-302.734,18.555,48.340
1572496340.348,19.043,93.750,-286.621,17.578,46.387
1572496340.352,23.438,38.086,-374.023,17.578,11.719
1572496340.355,29.785,137.207,-222.168,22.949,26.367
1572496340.359,30.762,182.129,-83.008,23.438,42.969
1572496340.363,24.414,49.316,-240.234,19.043,22.949
1572496340.367,17.090,-42.480,-479.980,17.578,11.230
1572496340.371,-3.418,165.039,-208.008,-0.977,42.480
1572496340.375,-5.371,234.375,49.805,-3.906,56.152
1572496340.379,-3.418,116.699,-64.453,-0.488,33.691
1572496340.383,-5.859,64.941,-175.293,-2.441,25.879
1572496340.387,-4.883,53.711,-214.844,-3.418,9.277
1572496340.391,-19.531,99.121,-105.469,-13.672,3.418
1572496340.394,-23.438,21.973,-204.590,-20.996,-11.719
1572496340.398,-20.508,-62.012,-404.785,-21.973,-18.555
1572496340.402,-20.508,131.836,-86.914,-20.020,17.578
1572496340.406,-18.066,211.914,192.383,-16.602,42.480
1572496340.410,-12.695,115.723,145.508,-13.672,35.645
1572496340.414,-5.859,92.285,130.859,-9.766,12.207
1572496340.418,1.465,128.418,239.746,-3.418,13.184
1572496340.422,11.230,72.266,222.168,11.719,10.742
1572496340.426,18.555,-12.695,78.613,24.414,-3.906
1572496340.430,24.414,20.508,76.660,27.344,13.184
1572496340.434,21.973,32.715,133.789,22.949,23.438
1572496340.437,19.531,-29.297,81.055,22.461,15.625
1572496340.441,17.090,-40.527,62.012,20.996,11.719
1572496340.445,19.531,36.621,201.660,23.926,0.000
1572496340.449,28.809,80.078,377.441,37.598,24.902
1572496340.453,7.812,-37.598,255.859,10.254,30.273
1572496340.457,-7.324,-152.832,0.488,-15.137,8.789
1572496340.461,-12.207,-49.316,106.934,-18.555,4.883
1572496340.465,-14.160,43.945,335.938,-15.625,37.598
1572496340.469,-4.395,-84.473,207.031,-5.371,56.641
1572496340.473,-30.762,-237.305,-129.395,-38.086,10.254
1572496340.477,-65.430,-136.719,-41.504,-62.500,8.789
1572496340.480,-64.453,-124.512,15.625,-51.758,18.555
1572496340.484,-60.059,-161.133,-93.262,-47.852,-2.930
1572496340.488,-63.477,-89.355,20.996,-55.176,8.789
1572496340.492,-62.500,-43.457,129.883,-59.570,2.930
1572496340.496,-47.852,-39.551,168.457,-43.457,0.977
1572496340.500,-42.480,-248.047,-190.430,-37.598,-35.156
1572496340.504,-40.527,-264.648,-397.949,-36.621,-43.945
1572496340.508,-34.180,14.648,45.898,-31.250,10.254
1572496340.512,-26.367,-68.848,47.852,-25.879,-1.465
1572496340.516,-18.555,-157.227,-124.512,-18.066,5.371
1572496340.519,-18.555,-42.480,29.297,-17.090,26.367
1572496340.523,-17.578,-58.594,52.246,-15.137,14.160
1572496340.527,-9.766,-131.348,-43.457,-8.789,24.414
1572496340.531,-2.441,-239.746,-299.805,-6.836,-1.465
1572496340.535,-8.789,-114.258,-216.309,-7.324,-1.465
1572496340.539,-7.324,93.262,197.266,-4.883,44.434
1572496340.543,5.371,-45.410,106.934,3.418,47.852
1572496340.547,6.836,-196.777,-187.988,0.977,9.277
1572496340.551,9.277,-58.594,-67.383,-4.883,8.301
1572496340.555,19.043,12.207,92.773,5.371,23.438
1572496340.559,19.043,-106.445,-100.098,9.277,0.977
1572496340.562,15.137,-118.652,-193.848,13.184,-1.953
1572496340.566,14.160,0.000,-28.809,14.648,21.484
1572496340.570,22.461,-14.648,-51.758,19.043,37.598
1572496340.574,24.414,-183.105,-363.770,27.344,22.949
1572496340.578,18.555,-221.191,-568.359,19.531,-21.484
1572496340.582,17.090,14.648,-250.488,15.137,-2.441
1572496340.586,24.414,62.988,-44.434,20.020,32.227
1572496340.590,17.090,-46.875,-187.012,16.113,23.438
1572496340.594,15.625,-17.578,-167.969,23.926,41.016
1572496340.598,25.391,53.711,-8.789,31.738,70.312
1572496340.602,25.391,-8.301,-59.570,31.250,61.523
1572496340.605,27.344,-140.625,-336.914,27.344,45.898
1572496340.609,21.484,-89.355,-364.258,21.484,40.527
1572496340.613,21.484,-5.859,-205.566,24.902,30.273
1572496340.617,23.926,-124.512,-390.625,27.832,26.855
1572496340.621,21.484,-159.668,-528.809,25.391,14.648
1572496340.625,21.973,-127.441,-517.090,23.438,-19.043
1572496340.629,27.344,-70.801,-446.777,23.438,5.859
1572496340.633,27.344,-56.641,-389.648,21.973,35.645
1572496340.637,24.902,-189.453,-659.180,22.461,13.672
1572496340.641,19.043,-29.297,-484.863,17.578,38.574
1572496340.644,25.879,81.543,-182.617,24.902,61.523
1572496340.648,27.832,-27.344,-279.297,30.273,57.617
1572496340.652,22.949,-67.871,-364.746,25.391,43.457
1572496340.656,17.578,-6.348,-262.695,27.344,52.246
1572496340.660,11.719,-15.137,-226.562,30.273,63.965
1572496340.664,15.137,-124.023,-415.039,30.273,48.828
1572496340.668,20.996,-142.090,-545.898,33.691,43.457
1572496340.672,20.996,-46.387,-434.570,28.809,41.504
1572496340.676,27.344,24.414,-283.691,29.785,41.504
1572496340.680,31.738,-161.133,-581.543,26.367,12.207
1572496340.684,29.297,-239.746,-850.586,20.996,8.789
1572496340.687,21.973,21.973,-483.887,22.461,41.504
1572496340.691,19.043,53.223,-312.500,17.578,34.668
1572496340.695,19.531,-26.367,-413.086,17.090,45.410
1572496340.699,17.578,-11.719,-406.738,18.555,40.039
1572496340.703,14.160,38.574,-302.734,18.066,34.180
1572496340.707,17.578,20.020,-284.180,24.902,43.945
1572496340.711,22.461,-191.895,-673.828,33.203,20.996
1572496340.715,0.000,-111.816,-702.637,13.184,31.738
1572496340.719,4.395,139.648,-251.953,11.230,67.383
1572496340.723,25.879,9.766,-341.797,31.250,44.434
1572496340.727,23.438,-78.613,-524.902,24.902,38.574
1572496340.730,23.438,39.062,-378.906,15.137,51.758
1572496340.734,25.879,65.430,-285.645,15.625,38.086
1572496340.738,24.414,-72.266,-461.914,10.742,34.180
1572496340.742,23.926,-177.246,-721.680,11.719,-11.230
1572496340.746,14.648,-3.906,-510.742,9.277,-5.859
1572496340.750,10.742,82.031,-289.551,7.812,43.945
1572496340.754,21.973,6.348,-375.488,17.090,38.086
1572496340.758,23.438,-52.734,-508.301,20.020,28.320
1572496340.762,22.461,-37.598,-529.785,22.949,33.203
1572496340.766,27.344,13.184,-467.773,26.367,22.461
1572496340.769,27.832,-45.410,-558.594,25.879,12.207
1572496340.773,30.273,-39.062,-603.516,27.344,3.418
1572496340.777,27.344,120.605,-308.105,26.367,41.504
1572496340.781,23.438,94.727,-213.379,25.879,41.016
1572496340.785,26.855,-127.441,-562.988,29.297,2.441
1572496340.789,20.508,-120.605,-668.945,22.949,4.395
1572496340.793,17.090,103.516,-259.277,20.996,48.340
1572496340.797,23.438,16.602,-312.988,31.738,43.457
1572496340.801,17.090,-37.109,-425.293,32.227,24.902
1572496340.805,12.695,-7.324,-386.719,27.832,23.926
1572496340.809,16.113,-5.859,-377.441,27.832,33.691
1572496340.812,22.949,-30.762,-380.371,30.762,35.645
1572496340.816,25.391,-118.164,-586.914,24.902,17.090
1572496340.820,22.461,2.441,-458.496,20.020,16.113
1572496340.824,23.926,139.648,-110.840,26.855,36.133
1572496340.828,27.344,3.906,-220.215,33.691,30.273
1572496340.832,28.809,-67.383,-347.656,30.762,9.766
1572496340.836,22.949,29.297,-181.152,23.926,26.855
1572496340.840,25.391,39.551,-102.051,26.367,35.645
1572496340.844,33.203,-80.078,-312.500,34.668,8.301
1572496340.848,28.809,-93.262,-398.926,30.762,5.371
1572496340.852,24.902,-55.664,-341.309,24.902,15.625
1572496340.855,24.902,-83.008,-422.852,20.996,-4.395
1572496340.859,27.832,-143.066,-543.945,21.484,0.488
1572496340.863,24.414,-168.457,-661.133,24.902,24.414
1572496340.867,19.043,34.180,-367.676,18.555,31.738
1572496340.871,22.949,89.844,-134.766,19.043,36.621
1572496340.875,19.043,6.348,-191.895,18.066,43.945
1572496340.879,18.555,-12.695,-204.102,19.531,37.109
1572496340.883,23.438,16.113,-107.910,24.902,43.457
1572496340.887,27.344,-58.105,-177.246,30.762,30.762
1572496340.891,30.762,-151.855,-367.676,31.250,-14.648
1572496340.894,29.785,-91.797,-301.758,27.344,-4.883
1572496340.898,31.738,-113.281,-340.820,32.227,2.441
1572496340.902,34.180,-143.555,-409.668,36.621,27.832
1572496340.906,34.180,-132.324,-410.645,32.227,35.645
1572496340.910,28.809,-79.102,-361.328,27.344,30.762
1572496340.914,22.949,8.789,-192.383,28.320,37.598
1572496340.918,30.762,-71.777,-251.465,32.715,22.461
1572496340.922,26.855,-229.492,-584.961,26.367,-1.465
1572496340.926,10.742,-34.180,-351.074,12.695,53.223
1572496340.930,17.578,62.988,-93.262,15.625,61.035
1572496340.934,20.508,-65.430,-293.457,21.484,21.973
1572496340.937,16.113,-50.293,-310.547,22.461,35.645
1572496340.941,24.414,-0.977,-228.516,23.926,23.438
1572496340.945,26.855,-66.406,-330.078,28.809,16.113
1572496340.949,29.297,-206.055,-637.695,26.855,-9.766
1572496340.953,29.297,-157.227,-698.242,19.531,-2.441
1572496340.957,21.973,78.613,-291.992,16.602,51.270
1572496340.961,25.391,89.355,-126.953,23.438,52.734
1572496340.965,35.156,-45.410,-344.238,32.227,26.367
1572496340.969,28.320,-45.898,-415.527,22.461,13.184
1572496340.973,18.066,60.059,-215.820,15.137,35.156
1572496340.977,25.391,26.855,-207.520,19.043,40.527
1572496340.980,30.273,-53.711,-369.629,20.020,37.598
1572496340.984,25.879,7.812,-320.801,15.137,51.758
1572496340.988,22.461,37.598,-229.980,18.555,29.785
1572496340.992,27.832,-90.332,-432.617,30.273,8.301
1572496340.996,27.344,-106.934,-547.852,29.785,24.902
1572496341.000,27.832,49.316,-323.730,22.949,52.734
1572496341.004,33.203,96.680,-183.594,18.066,52.246
1572496341.008,26.855,-7.324,-315.918,16.602,38.574
1572496341.012,24.414,-29.297,-385.254,19.531,54.688
1572496341.016,21.484,54.199,-255.371,20.020,64.453
1572496341.019,17.090,60.547,-217.773,20.020,53.711
1572496341.023,21.973,-79.590,-440.918,21.973,40.527
1572496341.027,21.484,-181.641,-743.164,17.578,7.324
1572496341.031,11.230,42.480,-472.656,12.207,35.645
1572496341.035,12.695,114.258,-218.262,18.555,62.988
1572496341.039,22.461,-42.480,-444.824,24.414,31.250
1572496341.043,20.508,-70.312,-579.102,20.996,22.461
1572496341.047,13.184,25.879,-416.992,14.648,32.227
1572496341.051,13.672,90.332,-266.602,16.113,30.273
1572496341.055,17.578,-70.801,-527.832,22.461,14.648
1572496341.059,18.555,-140.137,-755.859,17.090,-6.348
1572496341.062,19.531,89.844,-409.668,16.602,15.625
1572496341.066,26.367,102.539,-257.324,26.855,32.715
1572496341.070,27.344,-30.273,-453.125,25.391,20.020
1572496341.074,27.832,30.762,-397.949,19.531,36.621
1572496341.078,31.250,70.801,-296.387,23.926,44.922
1572496341.082,29.297,9.277,-363.770,28.809,39.062
1572496341.086,30.762,-129.395,-630.371,21.484,23.926
1572496341.090,21.973,-84.473,-664.062,9.277,15.625
1572496341.094,11.719,158.691,-210.938,2.441,58.105
1572496341.098,19.043,56.152,-237.793,8.301,53.223
1572496341.102,23.926,-62.500,-448.730,17.090,26.855
1572496341.105,29.297,65.430,-264.648,26.855,56.152
1572496341.109,33.691,115.234,-93.262,29.785,67.871
1572496341.113,32.715,-38.574,-310.059,27.344,35.645
1572496341.117,41.504,-128.906,-567.871,29.297,6.836
1572496341.121,42.480,18.555,-399.414,23.438,12.695
1572496341.125,34.668,114.746,-148.438,23.438,50.781
1572496341.129,35.645,-34.668,-336.914,31.738,35.645
1572496341.133,38.574,-169.922,-664.062,27.832,-14.648
1572496341.137,29.785,-40.527,-529.785,23.926,15.137
1572496341.141,21.484,52.246,-314.941,25.391,28.320
1572496341.144,19.531,41.992,-301.758,23.438,24.414
1572496341.148,14.648,50.293,-290.527,20.020,37.109
1572496341.152,16.113,76.660,-196.289,20.020,31.250
1572496341.156,18.555,52.246,-178.711,24.902,18.555
1572496341.160,14.648,-164.062,-556.152,23.438,-22.461
1572496341.164,13.672,-142.578,-674.316,17.578,-17.090
1572496341.168,10.742,100.098,-248.047,15.625,32.715
1572496341.172,9.277,62.500,-175.781,18.066,46.875
1572496341.176,15.137,-6.348,-280.762,20.508,40.527
1572496341.180,22.949,-29.785,-358.398,24.414,23.926
1572496341.184,16.113,-33.691,-402.344,17.578,17.578
1572496341.187,8.789,-38.086,-418.457,11.719,22.949
1572496341.191,17.578,-136.230,-628.906,16.113,15.625
1572496341.195,19.531,-32.715,-534.180,20.996,7.812
1572496341.199,13.184,140.137,-156.250,20.020,34.668
1572496341.203,20.020,21.973,-228.027,24.414,47.363
1572496341.207,23.438,-41.992,-359.863,20.508,41.504
1572496341.211,12.207,88.867,-167.480,8.301,57.129
1572496341.215,7.324,83.984,-104.980,13.672,50.293
1572496341.219,15.137,-8.789,-244.629,20.020,40.039
1572496341.223,18.066,-18.555,-296.387,18.066,35.156
1572496341.227,18.555,-28.809,-332.520,16.602,41.016
1572496341.230,25.879,-19.043,-366.211,25.391,22.461
1572496341.234,30.273,-100.586,-523.926,29.297,-18.066
1572496341.238,26.367,-131.348,-641.113,19.043,-7.812
1572496341.242,23.438,119.629,-226.074,19.531,46.387
1572496341.246,33.203,83.496,-143.066,26.367,37.598
1572496341.250,41.016,-47.363,-368.164,29.785,-2.930
1572496341.254,49.805,40.039,-255.371,41.504,24.902
1572496341.258,47.852,83.496,-131.836,39.062,30.762
1572496341.262,29.297,23.926,-180.664,21.973,27.344
1572496341.266,26.855,-36.621,-299.316,21.973,25.391
1572496341.269,33.203,6.836,-275.391,31.738,22.949
1572496341.273,33.691,-28.320,-321.777,28.809,20.996
1572496341.277,27.832,-96.191,-479.492,23.926,11.719
1572496341.281,18.555,-58.105,-476.074,25.879,-0.977
1572496341.285,15.625,42.969,-295.898,24.414,12.695
1572496341.289,11.230,68.359,-181.641,24.414,14.160
1572496341.293,10.742,-41.992,-324.707,26.855,-5.371
1572496341.297,9.766,-133.301,-573.242,19.531,-7.324
1572496341.301,-1.953,17.578,-390.625,7.812,13.672
1572496341.305,-0.488,62.500,-213.379,16.113,33.203
1572496341.309,7.324,-66.406,-414.551,23.926,20.996
1572496341.312,3.906,-12.207,-362.305,14.648,30.762
1572496341.316,6.836,60.059,-174.805,17.578,34.180
1572496341.320,9.277,-25.879,-287.109,19.531,18.066
1572496341.324,16.113,-152.344,-561.523,20.508,-1.953
1572496341.328,22.461,-133.301,-635.254,25.879,-4.883
1572496341.332,19.043,65.918,-303.711,24.414,32.715
1572496341.336,18.555,116.699,-84.473,25.391,44.434
1572496341.340,19.531,-89.844,-406.250,25.391,13.672
1572496341.344,22.949,-88.379,-517.090,22.461,25.879
1572496341.348,23.438,139.648,-105.469,20.508,72.754
1572496341.352,26.855,64.453,-107.910,23.438,48.340
1572496341.355,23.438,-47.852,-333.008,23.438,8.789
1572496341.359,17.090,12.695,-287.109,18.066,28.809
1572496341.363,20.020,35.156,-221.191,22.461,52.246
1572496341.367,20.996,-46.387,-334.473,30.762,40.527
1572496341.371,19.531,-181.152,-652.832,21.484,12.695
1572496341.375,17.578,-74.219,-619.141,13.672,1.953
1572496341.379,17.090,108.398,-257.812,19.043,14.160
1572496341.383,22.461,31.250,-278.809,25.391,29.297
1572496341.387,24.902,-21.484,-373.047,22.461,33.203
1572496341.391,25.391,53.223,-257.812,12.695,39.062
1572496341.394,20.508,70.801,-167.969,11.719,39.551
1572496341.398,20.020,-65.918,-372.070,18.555,18.555
1572496341.402,21.484,-111.328,-520.020,21.484,19.043
1572496341.406,15.625,41.992,-295.410,15.625,29.297
1572496341.410,18.555,44.922,-209.473,17.090,16.602
1572496341.414,21.973,-132.324,-495.605,24.414,-7.324
1572496341.418,18.555,-190.918,-727.539,22.461,-25.391
1572496341.422,24.902,1.465,-476.074,21.973,-0.488
1572496341.426,33.691,94.727,-226.562,30.762,21.973
1572496341.430,31.738,2.930,-335.938,30.762,13.672
1572496341.434,25.879,22.461,-306.152,20.508,40.527
1572496341.437,23.438,98.145,-101.562,15.625,56.152
1572496341.441,33.691,50.293,-108.398,30.273,47.363
1572496341.445,36.621,-18.555,-202.637,35.156,37.598
1572496341.449,22.461,-31.250,-255.859,20.996,3.906
1572496341.453,20.508,1.465,-199.219,16.113,7.812
1572496341.457,21.484,-18.555,-192.383,18.555,19.531
1572496341.461,20.996,-96.680,-336.426,21.484,4.395
1572496341.465,23.926,-79.102,-382.324,22.949,11.230
1572496341.469,21.973,50.293,-166.504,23.926,41.504
1572496341.473,22.949,50.781,-57.617,25.391,55.176
1572496341.477,29.785,-142.578,-428.711,26.855,19.043
1572496341.480,31.250,-56.152,-450.195,26.855,-6.348
1572496341.484,27.344,128.906,-67.383,22.949,31.738
1572496341.488,29.297,33.203,-126.953,23.926,39.062
1572496341.492,32.227,20.508,-166.016,26.367,45.898
1572496341.496,34.180,82.520,-56.152,25.391,44.922
1572496341.500,35.156,67.383,-49.805,21.973,33.691
1572496341.504,37.109,6.836,-148.926,23.438,32.715
1572496341.508,39.551,-41.016,-264.648,33.203,35.645
1572496341.512,39.062,-33.203,-294.434,37.598,23.926
1572496341.516,33.203,12.695,-236.816,39.062,18.555
1572496341.519,34.668,23.926,-223.633,37.598,22.949
1572496341.523,35.156,50.293,-177.246,34.180,37.598
1572496341.527,27.344,89.355,-61.035,25.391,38.086
1572496341.531,29.785,-0.977,-180.664,28.320,4.395
1572496341.535,32.715,-157.227,-479.980,31.250,-5.371
1572496341.539,30.273,-124.023,-551.758,25.391,2.930
1572496341.543,33.203,83.496,-230.469,25.391,18.066
1572496341.547,34.180,80.078,-120.605,21.973,31.738
1572496341.551,31.250,-8.301,-256.836,25.879,20.508
1572496341.555,34.180,-3.906,-314.453,30.273,23.438
1572496341.559,28.320,-1.465,-345.215,22.949,20.508
1572496341.562,21.973,-15.137,-370.605,23.438,30.762
1572496341.566,21.973,-15.625,-412.109,21.484,48.340
1572496341.570,22.949,74.219,-312.500,22.461,29.785
1572496341.574,27.832,134.277,-163.574,26.855,20.020
1572496341.578,31.250,30.273,-257.812,24.902,32.715
1572496341.582,32.227,-71.289,-493.164,23.438,41.992
1572496341.586,27.832,14.648,-439.453,26.367,33.203
1572496341.590,28.320,64.453,-304.688,34.668,34.668
1572496341.594,29.785,41.992,-333.008,30.762,37.598
1572496341.598,26.855,62.988,-272.949,28.320,53.711
1572496341.602,24.902,28.809,-313.477,26.367,54.688
1572496341.605,26.855,59.082,-308.105,17.578,60.059
1572496341.609,26.367,0.977,-378.418,20.508,49.805
1572496341.613,21.484,-94.238,-599.609,20.508,21.484
1572496341.617,19.043,85.938,-342.285,20.020,26.855
1572496341.621,22.461,99.121,-207.520,30.762,23.438
1572496341.625,27.344,-0.488,-367.676,24.414,7.324
1572496341.629,27.344,21.973,-375.977,22.949,10.254
1572496341.633,23.926,83.008,-236.816,28.809,23.438
1572496341.637,25.391,67.871,-205.566,28.809,47.363
1572496341.641,22.949,-18.555,-344.238,20.020,44.922
1572496341.644,11.230,-47.363,-470.215,14.160,6.836
1572496341.648,5.859,-0.977,-417.480,16.113,14.648
1572496341.652,5.859,-24.414,-445.312,11.230,24.902
1572496341.656,-0.488,-25.879,-488.281,13.672,19.531
1572496341.660,5.371,58.594,-360.840,17.578,6.348
1572496341.664,11.719,115.723,-202.148,17.090,11.230
1572496341.668,8.789,18.066,-290.527,20.996,11.719
1572496341.672,0.488,-45.410,-428.223,21.484,18.066
1572496341.676,-0.977,52.246,-288.574,20.508,30.273
1572496341.680,7.324,73.242,-202.637,20.996,20.508
1572496341.684,21.973,-61.035,-404.297,25.391,4.883
1572496341.687,25.879,-143.555,-653.809,27.832,3.906
1572496341.691,20.020,56.641,-382.324,22.461,36.133
1572496341.695,23.926,58.594,-298.340,25.391,41.504
1572496341.699,30.762,-63.965,-520.020,25.879,41.016
1572496341.703,27.344,-15.625,-478.516,22.461,30.273
1572496341.707,20.508,93.262,-233.887,23.926,38.574
1572496341.711,23.926,87.891,-148.926,21.973,31.738
1572496341.715,24.414,-87.891,-449.707,15.137,0.977
1572496341.719,20.508,-125.488,-658.203,9.766,-5.371
1572496341.723,9.766,110.840,-277.832,9.277,29.785
1572496341.727,5.371,117.188,-128.906,12.695,42.480
1572496341.730,12.207,22.461,-254.883,17.578,40.039
1572496341.734,17.090,50.293,-208.984,17.090,46.875
1572496341.738,21.973,68.359,-145.996,15.137,34.180
1572496341.742,20.996,-10.254,-242.676,18.555,45.898
1572496341.746,16.602,-156.738,-564.941,17.578,35.156
1572496341.750,12.207,-75.684,-571.777,18.555,25.879
1572496341.754,9.277,120.605,-194.824,17.090,54.199
1572496341.758,16.113,12.207,-277.832,19.043,41.016
1572496341.762,23.438,-70.312,-476.074,26.855,10.254
1572496341.766,20.996,72.754,-244.141,16.113,39.551
1572496341.769,19.043,110.352,-83.008,13.184,53.711
1572496341.773,21.484,-58.594,-315.430,18.555,18.555
1572496341.777,25.391,-159.180,-575.195,19.043,-0.977
1572496341.781,21.973,9.766,-371.582,20.508,9.277
1572496341.785,16.602,72.754,-188.477,20.508,18.066
1572496341.789,21.484,-75.195,-411.133,24.414,21.973
1572496341.793,24.902,-101.562,-549.316,18.066,16.602
1572496341.797,20.020,57.617,-302.246,15.137,15.137
1572496341.801,18.066,60.059,-215.820,14.648,12.695
1572496341.805,16.602,-27.832,-353.516,11.719,5.859
1572496341.809,18.066,-0.977,-312.012,18.066,24.902
1572496341.812,24.414,14.160,-233.887,24.902,37.109
1572496341.816,26.367,-15.625,-256.836,26.855,56.641
1572496341.820,22.461,-35.156,-318.359,25.879,48.828
1572496341.824,24.414,-20.508,-347.168,27.344,21.484
1572496341.828,30.273,43.945,-213.867,25.879,26.855
1572496341.832,27.344,-11.230,-246.094,22.949,22.461
1572496341.836,24.414,-105.957,-427.734,22.461,1.465
1572496341.840,20.996,-88.379,-469.727,22.461,15.137
1572496341.844,18.066,-17.090,-361.328,19.531,21.973
1572496341.848,18.555,-43.945,-338.867,20.996,9.277
1572496341.852,22.949,-164.062,-570.801,22.461,14.648
1572496341.855,24.902,-29.297,-453.613,20.020,28.809
1572496341.859,25.879,105.469,-165.039,21.484,33.691
1572496341.863,28.320,-26.855,-350.098,24.902,-10.742
1572496341.867,29.297,-55.176,-446.777,20.996,-17.090
1572496341.871,33.691,-14.160,-386.230,21.484,2.441
1572496341.875,32.227,-5.371,-296.875,23.438,24.902
1572496341.879,27.344,-83.496,-343.750,17.578,18.066
1572496341.883,29.785,-164.551,-506.348,23.438,1.953
1572496341.887,30.273,-110.352,-461.426,27.344,32.227
1572496341.891,30.273,-26.367,-312.012,24.902,50.781
1572496341.894,37.598,-134.766,-457.031,30.273,25.391
1572496341.898,40.039,-201.172,-656.738,27.832,7.324
1572496341.902,29.785,26.855,-319.336,19.043,38.574
1572496341.906,32.715,51.758,-159.180,20.020,52.246
1572496341.910,35.156,-41.016,-295.898,21.973,41.992
1572496341.914,28.320,-11.230,-287.109,20.020,38.574
1572496341.918,32.715,25.391,-222.168,28.320,15.137
1572496341.922,37.598,-22.461,-285.156,34.180,-0.488
1572496341.926,33.203,-111.816,-469.238,29.297,2.930
1572496341.930,31.250,-127.930,-571.777,27.832,-2.930
1572496341.934,31.738,-30.762,-440.918,23.926,9.766
1572496341.937,36.133,1.465,-361.816,31.738,12.207
1572496341.941,37.598,-17.090,-375.977,36.133,11.230
1572496341.945,34.180,50.781,-268.555,27.344,24.902
1572496341.949,33.203,90.332,-165.527,27.832,29.785
1572496341.953,38.086,-19.043,-303.223,30.762,11.230
1572496341.957,30.762,-133.301,-593.262,27.344,-3.418
1572496341.961,21.973,5.371,-448.242,20.508,30.762
1572496341.965,20.508,82.520,-217.773,19.531,46.875
1572496341.969,22.461,10.254,-288.574,21.973,31.250
1572496341.973,26.855,-1.953,-312.988,23.438,33.203
1572496341.977,24.414,-37.598,-360.840,25.879,32.227
1572496341.980,27.344,-26.367,-376.953,31.250,27.344
1572496341.984,32.227,-79.590,-482.422,29.785,18.066
1572496341.988,26.367,-143.555,-697.754,21.484,-10.254
1572496341.992,20.020,51.270,-433.105,20.996,-9.277
1572496341.996,22.461,102.051,-234.863,27.832,5.371
1572496342.000,23.926,-9.766,-400.879,26.367,23.438
1572496342.004,28.320,21.973,-381.836,22.461,52.246
1572496342.008,29.785,112.793,-167.480,24.414,45.410
1572496342.012,27.832,62.012,-192.871,28.809,34.668
1572496342.016,32.715,20.508,-270.020,34.180,37.598
1572496342.019,35.645,35.645,-268.066,29.785,23.926
1572496342.023,31.250,16.113,-328.613,30.273,20.020
1572496342.027,26.855,-5.859,-400.879,28.809,28.809
1572496342.031,35.645,-116.699,-663.574,27.832,-0.488
1572496342.035,36.621,-4.395,-579.102,24.902,8.301
1572496342.039,34.668,135.254,-287.598,31.250,20.996
1572496342.043,37.598,29.297,-421.875,35.645,16.602
1572496342.047,34.180,61.035,-378.418,27.832,30.273
1572496342.051,29.297,122.559,-237.305,24.414,23.926
1572496342.055,25.391,124.023,-178.711,24.414,32.227
1572496342.059,25.879,42.480,-296.387,25.879,27.832
1572496342.062,26.367,11.719,-378.418,23.926,17.090
1572496342.066,25.391,85.938,-219.727,21.973,39.551
1572496342.070,26.367,5.859,-320.312,27.344,44.922
1572496342.074,34.180,-83.984,-565.430,30.273,16.113
1572496342.078,34.180,-4.883,-499.023,21.973,-1.953
1572496342.082,25.391,79.590,-310.547,22.949,17.578
1572496342.086,16.602,121.094,-142.090,22.461,63.477
1572496342.090,19.531,-37.109,-369.629,28.320,59.082
1572496342.094,26.855,-104.492,-597.656,25.879,30.762
1572496342.098,30.762,55.176,-381.836,29.785,38.574
1572496342.102,30.762,70.312,-281.738,40.039,43.945
1572496342.105,28.809,23.926,-335.938,32.715,28.809
1572496342.109,25.879,52.734,-299.805,27.832,38.574
1572496342.113,22.461,100.098,-156.738,27.832,64.941
1572496342.117,25.391,-19.043,-322.266,26.367,50.781
1572496342.121,20.996,-80.078,-503.906,21.973,17.090
1572496342.125,12.207,28.809,-348.633,9.766,19.531
1572496342.129,14.160,71.289,-207.520,10.742,35.156
1572496342.133,14.160,-11.719,-268.555,17.090,36.133
1572496342.137,19.531,-179.688,-646.973,17.578,-2.930
1572496342.141,20.020,-53.223,-595.703,21.484,-11.719
1572496342.144,16.113,116.699,-214.844,20.996,30.762
1572496342.148,27.344,3.906,-309.082,23.438,19.531
1572496342.152,27.344,-80.078,-500.977,22.461,0.000
1572496342.156,18.555,-1.953,-411.621,16.602,16.113
1572496342.160,19.531,65.918,-252.930,18.066,11.230
1572496342.164,26.367,-83.496,-466.309,22.949,-0.488
1572496342.168,25.879,-148.438,-696.289,23.438,-0.977
1572496342.172,26.855,46.875,-415.039,23.438,31.250
1572496342.176,28.809,95.215,-223.145,24.902,38.086
1572496342.180,25.391,-31.250,-425.781,26.855,-4.395
1572496342.184,25.879,-21.484,-466.309,29.297,-0.488
1572496342.187,24.414,110.352,-201.660,26.367,35.156
1572496342.191,23.926,79.102,-172.363,26.855,28.809
1572496342.195,30.762,-50.781,-418.945,30.762,11.719
1572496342.199,32.227,-13.184,-437.988,33.691,23.926
1572496342.203,32.227,112.793,-159.180,38.574,60.547
1572496342.207,36.133,37.109,-205.566,39.062,44.922
1572496342.211,37.109,-93.262,-487.793,40.527,-14.648
1572496342.215,36.133,-82.520,-555.664,39.062,-10.254
1572496342.219,36.133,-19.043,-459.961,41.016,20.020
1572496342.223,29.297,-49.805,-484.863,40.527,25.391
1572496342.227,22.461,-52.246,-501.465,30.273,32.715
1572496342.230,23.926,27.832,-397.949,25.391,4.883
1572496342.234,21.484,74.219,-273.438,23.926,0.000
1572496342.238,16.113,0.977,-302.246,28.809,32.715
1572496342.242,21.973,-134.766,-602.051,26.367,9.766
1572496342.246,22.949,14.160,-457.031,15.625,16.113
1572496342.250,23.926,106.445,-197.754,21.484,32.715
1572496342.254,30.762,14.648,-305.176,21.484,23.438
1572496342.258,27.344,-28.320,-422.363,18.555,26.367
1572496342.262,25.391,-17.578,-450.684,24.414,11.230
1572496342.266,31.250,7.324,-433.105,24.902,6.348
1572496342.269,31.250,-66.895,-567.871,19.531,2.441
1572496342.273,31.250,-72.754,-662.109,15.137,-11.230
1572496342.277,28.320,135.742,-293.457,14.160,27.344
1572496342.281,28.809,151.367,-95.703,20.996,54.688
1572496342.285,31.738,42.969,-233.398,23.438,45.898
1572496342.289,36.621,38.086,-251.953,29.785,40.039
1572496342.293,43.457,76.660,-141.602,34.668,44.434
1572496342.297,43.945,42.480,-159.668,35.645,49.805
1572496342.301,38.574,-31.738,-320.801,36.621,37.109
1572496342.305,35.156,-43.945,-427.246,39.062,18.555
1572496342.309,34.180,-31.250,-455.566,44.922,-8.301
1572496342.312,34.668,-25.879,-444.336,47.363,-17.578
1572496342.316,38.086,-16.113,-437.500,47.852,9.766
1572496342.320,37.598,75.684,-272.949,39.551,44.434
1572496342.324,35.645,82.031,-182.129,37.598,55.176
1572496342.328,31.738,-27.344,-333.496,38.086,30.762
1572496342.332,31.250,-67.383,-441.895,34.180,13.184
1572496342.336,31.738,37.598,-306.152,29.785,20.508
1572496342.340,29.785,101.562,-125.977,21.973,53.223
1572496342.344,28.809,-25.391,-277.832,24.902,54.199
1572496342.348,31.250,-166.016,-629.395,32.227,6.836
1572496342.352,26.855,-19.531,-486.328,25.879,30.762
1572496342.355,26.855,26.855,-361.816,26.367,47.363
1572496342.359,28.320,-33.691,-463.379,24.902,23.438
1572496342.363,25.879,31.250,-325.684,26.367,39.551
1572496342.367,28.809,79.590,-179.199,32.715,31.250
1572496342.371,31.738,44.434,-190.918,29.297,22.461
1572496342.375,31.738,7.324,-255.859,29.297,40.039
1572496342.379,33.203,-6.836,-313.965,27.832,49.805
1572496342.383,30.762,-22.461,-371.094,25.879,33.691
1572496342.387,26.367,0.000,-338.379,20.020,26.367
1572496342.391,28.320,-8.301,-349.609,19.043,26.367
1572496342.394,26.367,12.695,-337.402,15.625,17.578
1572496342.398,20.020,18.066,-312.500,14.648,30.762
1572496342.402,24.414,-26.855,-372.070,25.879,36.133
1572496342.406,33.691,-157.715,-661.133,22.949,6.348
1572496342.410,28.320,-41.992,-576.660,17.090,26.855
1572496342.414,28.320,172.852,-113.770,20.020,60.547
1572496342.418,33.203,27.832,-240.723,26.855,19.043
1572496342.422,34.180,-59.570,-426.758,24.902,6.836
1572496342.426,31.738,59.570,-245.605,18.066,28.809
1572496342.430,29.297,102.539,-98.633,15.137,37.598
1572496342.434,39.551,-29.785,-277.832,17.090,27.832
1572496342.437,38.086,-118.652,-528.809,22.461,3.418
1572496342.441,32.227,21.484,-329.590,22.949,18.066
1572496342.445,36.621,34.668,-259.277,20.996,15.137
1572496342.449,38.086,-74.707,-448.730,22.949,24.414
1572496342.453,39.062,-132.812,-641.602,26.855,13.184
1572496342.457,32.715,59.082,-375.000,20.996,18.555
1572496342.461,28.809,172.363,-14.648,19.043,63.965
1572496342.465,34.668,19.531,-225.586,24.902,29.785
1572496342.469,35.645,10.254,-293.457,27.832,17.090
1572496342.473,31.250,91.309,-91.797,27.832,35.156
1572496342.477,33.691,67.383,-48.340,28.320,29.785
1572496342.480,38.574,-107.910,-360.352,27.344,7.324
1572496342.484,34.180,-109.863,-477.051,18.066,10.742
1572496342.488,27.344,76.660,-111.328,17.578,38.086
1572496342.492,24.902,-19.043,-183.594,22.461,36.621
1572496342.496,26.855,-74.219,-330.078,21.973,38.086
1572496342.500,28.809,-23.926,-300.781,25.391,25.879
1572496342.504,24.414,20.020,-211.426,26.855,39.551
1572496342.508,27.832,-19.043,-217.773,25.879,47.852
1572496342.512,31.738,-129.883,-457.031,33.203,36.621
1572496342.516,25.879,-8.301,-325.684,24.902,35.156
1572496342.519,21.973,112.793,4.395,14.160,40.039
1572496342.523,20.508,0.977,-86.914,19.531,44.922
1572496342.527,21.484,-30.273,-146.484,15.625,54.199
1572496342.531,20.508,20.508,-51.758,10.254,45.898
1572496342.535,20.020,20.508,-9.277,20.020,38.574
1572496342.539,25.879,-128.418,-254.395,24.414,33.203
1572496342.543,30.273,-173.828,-473.633,17.578,40.527
1572496342.547,20.020,-7.324,-225.098,14.648,48.828
1572496342.551,19.043,11.719,-104.492,17.578,30.762
1572496342.555,28.320,-129.395,-353.516,15.137,0.000
1572496342.559,29.297,-161.133,-519.531,11.230,-7.324
1572496342.562,28.809,50.781,-176.758,18.555,25.391
1572496342.566,29.785,58.594,-20.020,26.367,41.016
1572496342.570,30.273,-38.574,-170.898,27.344,26.855
1572496342.574,27.832,-38.086,-213.867,27.344,13.184
1572496342.578,25.879,22.461,-90.332,24.414,30.762
1572496342.582,25.391,16.602,-63.965,20.508,44.922
1572496342.586,20.020,-114.746,-333.008,20.508,31.250
1572496342.590,15.625,-95.703,-422.363,18.066,21.484
1572496342.594,15.625,20.508,-234.863,13.672,23.926
1572496342.598,22.461,-37.109,-297.363,23.926,6.348
1572496342.602,24.414,-17.090,-289.551,29.297,26.367
1572496342.605,18.066,20.996,-216.797,19.043,41.016
1572496342.609,14.160,-10.742,-280.762,18.555,4.883
1572496342.613,18.066,-30.273,-308.105,21.484,11.719
1572496342.617,21.973,-82.031,-422.363,23.438,34.180
1572496342.621,18.066,42.480,-248.535,20.508,44.922
1572496342.625,16.602,77.148,-122.070,20.508,28.809
1572496342.629,11.230,24.414,-182.129,21.973,42.969
1572496342.633,12.207,-32.227,-287.109,23.438,50.781
1572496342.637,17.578,-56.641,-372.559,24.414,32.715
1572496342.641,21.484,6.348,-295.410,25.879,26.367
1572496342.644,25.391,-63.477,-399.902,28.320,18.066
1572496342.648,21.973,-124.023,-565.918,21.973,19.531
1572496342.652,20.996,53.711,-295.410,20.508,28.320
1572496342.656,28.809,111.816,-83.984,28.320,51.758
1572496342.660,38.574,17.090,-207.031,29.297,47.363
1572496342.664,42.480,-5.371,-297.852,27.344,44.434
1572496342.668,33.203,80.566,-111.816,26.367,67.383
1572496342.672,25.391,59.570,-58.594,25.391,62.988
1572496342.676,22.949,-6.836,-170.898,26.367,41.016
1572496342.680,20.996,-55.664,-303.711,26.855,24.414
1572496342.684,16.113,-26.367,-312.988,23.926,31.738
1572496342.687,12.695,-7.812,-267.578,23.926,13.184
1572496342.691,21.973,-134.277,-537.109,24.902,-5.859
1572496342.695,23.926,-33.203,-470.703,20.020,19.043
1572496342.699,22.461,93.750,-174.316,21.484,27.344
1572496342.703,35.645,-11.230,-292.969,30.273,10.254
1572496342.707,38.086,-40.039,-360.840,34.180,9.766
1572496342.711,36.621,43.945,-208.008,32.715,25.879
1572496342.715,44.434,69.336,-111.816,33.691,47.852
1572496342.719,47.852,-25.391,-278.320,38.086,21.973
1572496342.723,43.945,-46.387,-381.348,37.109,-5.371
1572496342.727,34.668,-15.137,-341.797,29.297,23.438
1572496342.730,32.227,1.953,-309.570,25.879,42.480
1572496342.734,37.598,-30.762,-377.930,24.902,29.785
1572496342.738,35.645,-21.973,-398.438,27.344,30.273
1572496342.742,27.832,72.266,-201.660,27.832,37.109
1572496342.746,21.973,83.984,-97.656,25.879,46.387
1572496342.750,22.461,-87.891,-390.137,21.484,20.996
1572496342.754,17.578,-142.090,-626.953,15.137,-5.371
1572496342.758,12.207,104.980,-203.613,19.531,61.035
1572496342.762,23.926,82.520,-97.656,32.227,71.289
1572496342.766,24.414,-26.367,-287.109,29.785,35.645
1572496342.769,20.020,-10.742,-288.574,29.785,24.414
1572496342.773,27.344,-57.617,-380.371,32.227,5.371
1572496342.777,28.809,-81.543,-475.586,33.691,31.250
1572496342.781,25.879,-86.914,-541.992,31.738,8.301
1572496342.785,27.344,7.812,-414.062,26.855,1.465
1572496342.789,28.809,106.934,-173.340,29.297,42.969
1572496342.793,28.320,0.000,-270.996,30.273,21.973
1572496342.797,26.367,-121.582,-542.969,27.832,21.484
1572496342.801,19.043,16.602,-408.203,21.484,35.156
1572496342.805,24.414,75.684,-248.047,24.414,18.555
1572496342.809,35.645,-9.766,-353.516,31.738,21.973
1572496342.812,37.109,9.766,-325.195,31.250,31.738
1572496342.816,33.691,54.199,-213.867,30.762,30.273
1572496342.820,32.227,12.695,-258.301,37.598,38.086
1572496342.824,31.738,-126.465,-548.828,36.621,4.395
1572496342.828,32.227,-115.723,-648.926,25.391,0.000
1572496342.832,39.062,45.898,-401.855,27.832,23.438
1572496342.836,41.504,57.129,-307.617,31.738,19.043
1572496342.840,34.668,41.992,-309.082,33.203,29.297
1572496342.844,27.832,62.500,-266.113,34.180,33.203
1572496342.848,23.438,108.398,-145.020,24.414,41.992
1572496342.852,21.484,54.199,-190.918,24.902,23.438
1572496342.855,20.020,-40.527,-384.766,28.809,4.395
1572496342.859,27.832,-25.391,-437.012,26.367,-14.160
1572496342.863,26.367,46.875,-284.668,22.461,-1.953
1572496342.867,22.461,-37.598,-396.484,22.949,15.137
1572496342.871,20.020,-93.262,-598.145,22.949,23.926
1572496342.875,20.020,32.227,-431.641,19.043,29.297
1572496342.879,24.414,106.445,-218.262,22.461,29.297
1572496342.883,23.926,30.762,-270.996,26.367,20.020
1572496342.887,21.484,-163.574,-667.480,18.555,-7.812
1572496342.891,19.531,-64.453,-647.461,11.719,5.371
1572496342.894,23.438,130.859,-270.020,20.508,19.531
1572496342.898,28.809,45.410,-323.242,22.949,15.625
1572496342.902,29.785,21.973,-356.934,22.461,32.227
1572496342.906,34.668,88.867,-213.867,27.832,45.410
1572496342.910,32.715,79.590,-162.598,26.855,46.387
1572496342.914,30.273,-48.828,-384.766,27.832,26.855
1572496342.918,26.367,-80.566,-526.855,25.879,26.367
1572496342.922,18.555,53.223,-318.359,16.113,51.758
1572496342.926,18.555,111.816,-152.344,12.695,56.152
1572496342.930,22.949,-61.035,-427.246,18.555,21.484
1572496342.934,24.414,-120.117,-636.719,12.695,11.230
1572496342.937,23.438,73.242,-321.289,16.602,29.785
1572496342.941,23.926,58.594,-253.906,28.320,10.742
1572496342.945,28.809,-4.883,-362.793,26.855,15.625
1572496342.949,30.273,21.973,-334.961,23.926,22.949
1572496342.953,31.250,91.797,-171.387,22.949,48.340
1572496342.957,26.367,73.242,-125.000,21.973,74.219
1572496342.961,18.555,-43.945,-328.613,13.184,50.293
1572496342.965,19.043,-49.805,-419.434,10.742,48.828
1572496342.969,17.090,37.109,-262.695,14.648,55.176
1572496342.973,11.230,-4.883,-258.789,12.207,41.016
1572496342.977,7.324,-62.988,-367.676,15.625,37.598
1572496342.980,15.625,15.625,-259.277,17.090,51.270
1572496342.984,22.949,37.598,-185.547,19.531,45.410
1572496342.988,25.391,-64.941,-336.914,26.855,16.113
1572496342.992,27.832,-171.387,-632.324,27.832,6.836
1572496342.996,25.391,-19.043,-484.863,25.391,16.113
1572496343.000,21.484,102.539,-170.410,21.484,35.156
1572496343.004,25.391,-44.434,-353.027,26.855,33.691
1572496343.008,30.273,-115.723,-563.965,28.809,19.531
1572496343.012,29.785,3.418,-421.387,23.926,20.508
1572496343.016,31.250,84.473,-232.422,28.320,54.199
1572496343.019,26.367,45.898,-243.164,24.902,64.941
1572496343.023,29.297,14.648,-312.988,27.344,24.902
1572496343.027,34.668,66.406,-199.707,33.691,29.297
1572496343.031,31.250,74.219,-108.887,33.203,45.410
1572496343.035,27.832,-83.008,-367.188,34.180,44.434
1572496343.039,23.926,-136.230,-574.219,30.273,23.438
1572496343.043,17.090,27.344,-338.379,26.855,3.906
1572496343.047,21.973,29.785,-250.977,33.691,18.555
1572496343.051,30.273,-45.898,-379.395,41.992,6.836
1572496343.055,23.926,-38.086,-430.664,35.156,13.184
1572496343.059,21.484,5.859,-365.234,32.715,46.875
1572496343.062,18.555,-26.855,-412.109,37.109,26.855
1572496343.066,18.555,-128.418,-663.574,30.762,5.371
1572496343.070,16.602,-14.648,-543.457,23.438,23.926
1572496343.074,10.254,130.859,-199.707,18.066,31.738
1572496343.078,14.160,-4.883,-334.473,24.414,7.812
1572496343.082,20.020,-73.730,-518.066,26.367,1.465
1572496343.086,16.602,64.453,-318.359,22.461,18.555
1572496343.090,15.625,82.031,-193.359,26.855,18.066
1572496343.094,18.066,7.324,-285.156,23.926,29.297
1572496343.098,21.484,-13.184,-355.957,25.879,13.672
1572496343.102,21.484,-17.090,-388.672,25.391,17.090
1572496343.105,16.113,-15.137,-398.438,18.555,24.414
1572496343.109,11.230,-10.254,-386.230,15.137,15.625
1572496343.113,11.719,-40.039,-451.172,19.043,5.371
1572496343.117,18.066,24.414,-350.098,22.949,25.391
1572496343.121,20.020,78.125,-203.125,27.832,47.363
1572496343.125,22.461,-15.625,-353.027,33.203,13.184
1572496343.129,24.414,-20.996,-419.434,31.250,-0.488
1572496343.133,24.414,53.711,-268.555,27.832,23.926
1572496343.137,23.926,28.809,-253.418,35.156,13.184
1572496343.141,27.344,-150.879,-614.258,36.133,-25.391
1572496343.144,23.438,-123.047,-683.594,28.809,-18.555
1572496343.148,23.926,5.859,-453.613,27.832,0.000
1572496343.152,24.414,-51.758,-553.223,23.926,-8.301
1572496343.156,24.414,-19.531,-521.484,21.973,-3.906
1572496343.160,27.832,56.641,-352.051,24.902,5.859
1572496343.164,27.832,80.078,-242.676,28.320,5.859
1572496343.168,24.902,18.066,-273.926,26.855,17.090
1572496343.172,26.855,-157.227,-639.648,20.508,-7.812
1572496343.176,26.855,-41.504,-554.688,18.066,3.418
1572496343.180,19.531,112.793,-184.082,15.137,35.645
1572496343.184,21.484,6.348,-293.945,16.602,31.250
1572496343.187,17.090,-11.230,-340.332,17.578,48.828
1572496343.191,16.113,30.273,-247.559,16.113,31.250
1572496343.195,21.973,-6.348,-302.246,22.949,32.227
1572496343.199,21.484,-124.023,-548.340,31.250,18.555
1572496343.203,19.531,-169.434,-753.906,30.762,-24.902
1572496343.207,20.508,26.367,-475.586,24.414,1.465
1572496343.211,22.461,101.562,-226.074,23.926,28.809
1572496343.215,20.996,-45.410,-449.707,24.414,10.742
1572496343.219,18.555,-38.086,-502.930,16.602,20.020
1572496343.223,16.602,104.980,-205.566,16.113,47.363
1572496343.227,21.973,18.555,-298.340,26.855,25.879
1572496343.230,28.809,-53.711,-478.516,27.832,8.301
1572496343.234,24.902,33.691,-371.582,22.949,15.137
1572496343.238,18.066,85.449,-211.914,21.973,41.504
1572496343.242,20.020,-11.719,-341.797,23.438,25.391
1572496343.246,27.344,-150.391,-697.266,23.926,5.859
1572496343.250,22.949,-30.273,-583.008,27.832,35.156
1572496343.254,14.648,137.207,-213.867,27.832,42.480
1572496343.258,16.113,53.223,-259.766,24.414,30.762
1572496343.262,18.066,20.508,-323.242,21.973,47.852
1572496343.266,17.578,82.031,-223.145,18.066,44.434
1572496343.269,16.602,98.145,-160.645,17.578,33.691
1572496343.273,16.113,9.766,-272.461,17.578,42.480
1572496343.277,20.020,-59.570,-446.777,19.043,18.066
1572496343.281,17.090,52.246,-269.043,15.625,34.668
1572496343.285,17.090,44.922,-218.750,16.602,51.758
1572496343.289,26.855,-80.566,-483.398,31.738,33.691
1572496343.293,23.926,-37.109,-473.633,31.738,53.711
1572496343.297,16.602,64.453,-278.809,20.020,40.039
1572496343.301,21.973,80.078,-194.336,17.578,37.598
1572496343.305,23.438,-64.941,-417.480,17.090,33.691
1572496343.309,20.996,-145.020,-671.875,15.137,-0.488
1572496343.312,16.602,61.035,-356.445,13.184,20.508
1572496343.316,17.090,65.918,-245.605,18.555,18.555
1572496343.320,20.996,-9.766,-379.883,25.879,6.836
1572496343.324,23.438,36.133,-307.617,23.926,36.133
1572496343.328,22.949,62.988,-210.938,18.066,41.992
1572496343.332,22.949,-1.465,-289.551,21.973,20.508
1572496343.336,21.973,-78.125,-474.121,28.320,13.184
1572496343.340,17.090,-68.359,-549.316,20.996,15.625
1572496343.344,16.113,-13.672,-473.633,20.020,33.691
1572496343.348,19.531,-17.578,-455.566,26.367,35.645
1572496343.352,21.484,-119.141,-679.199,25.391,13.184
1572496343.355,19.043,-35.645,-617.188,15.137,8.301
1572496343.359,12.695,146.973,-210.449,11.230,49.805
1572496343.363,15.137,38.574,-263.184,15.625,50.293
1572496343.367,20.020,-55.664,-463.379,19.043,12.695
1572496343.371,17.578,70.801,-287.109,19.531,30.273
1572496343.375,20.996,95.215,-156.250,17.090,41.992
1572496343.379,29.297,-25.879,-344.238,14.160,20.020
1572496343.383,33.691,-81.543,-517.090,19.043,22.461
1572496343.387,35.156,-31.250,-499.023,25.879,10.742
1572496343.391,42.480,56.152,-332.031,26.855,25.879
1572496343.394,41.016,41.504,-304.199,19.531,44.434
1572496343.398,32.227,-1.465,-405.273,12.207,32.227
1572496343.402,43.945,85.449,-241.699,22.461,42.480
1572496343.406,44.922,118.164,-87.891,25.879,48.340
1572496343.410,37.109,-59.082,-381.836,25.391,22.461
1572496343.414,33.203,-105.957,-578.613,18.555,9.766
1572496343.418,24.414,75.195,-272.461,13.184,16.113
1572496343.422,29.785,65.430,-200.684,22.949,14.648
1572496343.426,34.668,-1.953,-314.453,24.902,7.324
1572496343.430,36.621,-1.465,-339.844,27.832,26.367
1572496343.434,36.133,23.926,-297.363,34.180,40.039
1572496343.437,29.297,-0.488,-328.613,27.832,10.254
1572496343.441,29.297,-42.969,-440.918,20.020,13.184
1572496343.445,25.879,61.523,-273.926,17.578,44.922
1572496343.449,22.461,137.207,-33.203,20.508,60.059
1572496343.453,26.367,2.441,-187.988,28.809,38.574
1572496343.457,27.832,-93.750,-432.617,28.809,11.230
1572496343.461,28.809,36.133,-268.066,23.926,20.508
1572496343.465,34.668,67.871,-126.953,30.273,24.414
1572496343.469,37.109,-6.836,-234.863,36.621,29.297
1572496343.473,27.344,-4.395,-247.070,31.250,42.480
1572496343.477,20.508,-8.301,-242.188,29.297,55.664
1572496343.480,27.344,-4.395,-265.625,27.832,39.551
1572496343.484,30.273,-57.129,-351.074,21.973,23.926
1572496343.488,24.414,-124.023,-556.641,19.531,12.695
1572496343.492,24.414,64.453,-272.949,19.531,30.273
1572496343.496,26.367,122.070,-32.227,24.414,48.828
1572496343.500,34.180,-21.484,-275.879,31.738,15.625
1572496343.504,34.180,-12.695,-328.125,30.762,17.578
1572496343.508,24.414,90.332,-82.520,20.996,44.434
1572496343.512,24.414,-8.789,-227.051,21.973,18.066
1572496343.516,23.926,-48.828,-388.184,19.531,16.113
1572496343.519,23.438,40.527,-241.699,15.137,35.645
1572496343.523,21.484,33.203,-181.152,19.043,59.570
1572496343.527,23.438,-62.500,-375.000,17.578,27.832
1572496343.531,23.438,-67.383,-499.023,16.113,-8.301
1572496343.535,12.695,75.684,-268.555,11.719,39.551
1572496343.539,12.695,131.348,-73.242,8.301,57.617
1572496343.543,25.879,13.672,-239.746,20.508,23.926
1572496343.547,23.438,-37.598,-375.488,23.438,14.160
1572496343.551,19.043,56.152,-231.445,15.625,39.062
1572496343.555,19.043,95.703,-123.535,21.484,49.805
1572496343.559,20.508,-27.832,-314.453,27.344,15.625
1572496343.562,25.879,-183.105,-706.055,29.297,-23.926
1572496343.566,20.508,-55.664,-595.215,24.902,-7.812
1572496343.570,22.949,41.504,-358.398,26.367,28.809
1572496343.574,26.855,-38.086,-481.445,29.785,18.555
1572496343.578,21.973,-30.273,-506.836,26.367,3.418
1572496343.582,20.020,71.289,-287.598,18.555,33.203
1572496343.586,20.996,75.684,-202.637,24.902,26.855
1572496343.590,25.391,-83.984,-501.465,30.762,-4.395
1572496343.594,20.508,-105.957,-671.387,17.578,14.160
1572496343.598,16.113,104.492,-318.359,16.602,50.781
1572496343.602,20.996,118.652,-159.668,21.484,70.312
1572496343.605,25.879,20.508,-329.102,25.391,44.434
1572496343.609,29.785,44.922,-338.379,29.297,32.715
1572496343.613,29.297,97.168,-168.945,21.973,64.453
1572496343.617,22.949,17.578,-254.883,23.438,59.570
1572496343.621,22.461,-140.137,-630.859,23.926,32.715
1572496343.625,18.066,-83.008,-668.457,19.043,20.020
1572496343.629,9.766,112.305,-280.762,21.973,34.180
1572496343.633,12.207,41.016,-285.156,23.926,33.203
1572496343.637,16.602,-33.203,-457.520,21.973,33.203
1572496343.641,19.531,59.082,-330.566,20.020,48.340
1572496343.644,26.367,112.305,-165.039,22.461,62.988
1572496343.648,32.227,-23.926,-370.117,25.391,42.480
1572496343.652,35.156,-125.488,-654.785,26.367,-1.953
1572496343.656,31.250,30.762,-461.426,20.508,13.184
1572496343.660,29.297,80.078,-312.988,20.020,22.949
1572496343.664,29.785,-60.547,-547.363,26.855,14.160
1572496343.668,33.691,-68.848,-645.020,27.832,17.090
1572496343.672,30.273,99.609,-339.844,26.855,44.922
1572496343.676,24.902,111.816,-202.148,29.785,63.965
1572496343.680,27.344,-3.418,-425.293,34.180,24.414
1572496343.684,22.461,1.465,-496.094,29.785,10.742
1572496343.687,16.602,92.773,-306.641,25.391,39.062
1572496343.691,19.043,68.359,-303.223,25.391,20.508
1572496343.695,25.391,-69.336,-581.055,23.926,9.766
1572496343.699,20.996,-34.668,-617.676,15.625,38.086
1572496343.703,8.789,110.352,-347.168,13.184,42.969
1572496343.707,12.695,57.129,-373.535,14.160,23.926
1572496343.711,18.555,-7.812,-514.648,15.137,25.391
1572496343.715,16.602,5.859,-555.664,14.160,41.504
1572496343.719,15.137,58.594,-478.516,8.301,40.039
1572496343.723,20.020,82.031,-362.305,20.996,49.805
1572496343.727,28.320,-97.168,-689.941,28.809,12.207
1572496343.730,27.832,-55.664,-748.047,20.996,-6.836
1572496343.734,24.414,122.070,-362.305,20.020,32.715
1572496343.738,26.855,16.602,-470.703,27.344,31.738
1572496343.742,27.344,2.930,-522.461,28.809,31.738
1572496343.746,23.926,82.520,-364.746,21.484,33.203
1572496343.750,26.855,82.520,-309.570,22.461,36.133
1572496343.754,32.715,-0.977,-432.129,26.367,22.461
1572496343.758,30.762,-54.199,-586.426,27.832,9.277
1572496343.762,25.391,11.230,-508.301,31.250,46.875
1572496343.766,28.320,55.176,-399.902,30.273,47.852
1572496343.769,28.809,-30.762,-571.289,24.414,-7.324
1572496343.773,31.250,-3.418,-575.684,24.902,14.160
1572496343.777,42.480,139.160,-269.531,35.156,64.453
1572496343.781,30.762,102.539,-249.512,31.250,41.992
1572496343.785,12.695,-14.648,-472.168,20.508,31.250
1572496343.789,17.578,-12.695,-551.270,23.926,22.461
1572496343.793,31.738,10.254,-527.344,35.645,1.465
1572496343.797,35.156,8.789,-530.273,42.480,31.250
1572496343.801,37.598,-125.000,-740.234,40.039,10.742
1572496343.805,33.691,-179.688,-924.316,36.133,-10.254
1572496343.809,33.203,-5.371,-677.246,42.969,31.738
1572496343.812,46.875,1.465,-562.500,52.734,37.598
1572496343.816,55.664,-41.992,-589.355,61.035,35.645
1572496343.820,62.012,-5.371,-495.117,66.406,43.945
1572496343.824,67.383,-4.883,-439.941,67.383,30.762
1572496343.828,76.660,-104.004,-563.477,79.102,12.695
1572496343.832,74.219,-231.445,-851.074,81.055,8.301
1572496343.836,70.312,-116.211,-770.020,75.684,12.695
1572496343.840,72.754,39.551,-398.438,79.102,47.363
1572496343.844,81.543,-77.148,-521.484,89.844,39.551
1572496343.848,85.938,-103.027,-635.254,92.773,37.598
1572496343.852,82.520,-11.230,-525.879,85.938,48.340
1572496343.855,80.566,-11.230,-550.293,83.984,28.320
1572496343.859,83.496,-73.242,-687.988,88.379,14.160
1572496343.863,83.984,-79.590,-772.461,85.449,22.461
1572496343.867,79.102,95.703,-454.590,79.590,44.922
1572496343.871,77.637,110.352,-303.711,82.031,32.227
1572496343.875,80.078,-39.551,-502.930,83.496,21.484
1572496343.879,73.242,-65.918,-518.555,77.148,38.574
1572496343.883,68.359,-3.906,-326.172,70.801,50.293
1572496343.887,62.500,-62.500,-324.219,70.801,40.527
1572496343.891,59.570,-213.379,-613.281,67.871,6.836
1572496343.894,61.523,-184.082,-655.273,61.523,4.395
1572496343.898,55.664,-101.074,-485.352,56.152,32.715
1572496343.902,50.781,-165.527,-588.379,56.152,16.113
1572496343.906,52.734,-275.391,-839.844,61.035,-0.977
1572496343.910,51.270,-180.664,-768.066,56.641,6.836
1572496343.914,46.875,13.184,-385.254,50.293,24.414
1572496343.918,47.852,-50.781,-383.301,50.293,44.922
1572496343.922,41.992,-107.910,-448.730,46.875,60.059
1572496343.926,41.504,-58.594,-381.348,41.992,44.434
1572496343.930,39.551,-20.996,-305.176,41.992,34.668
1572496343.934,41.504,-118.164,-454.590,44.434,25.879
1572496343.937,42.480,-183.594,-645.020,41.992,12.695
1572496343.941,35.645,-36.621,-424.805,36.621,31.250
1572496343.945,38.086,-41.016,-374.023,42.480,50.781
1572496343.949,43.457,-123.047,-562.500,47.363,36.621
1572496343.953,40.527,-58.594,-516.602,42.480,16.113
1572496343.957,34.180,40.527,-326.172,41.016,30.762
1572496343.961,34.180,89.844,-187.500,41.016,60.547
1572496343.965,41.992,-75.195,-482.910,46.875,28.320
1572496343.969,41.504,-127.441,-734.863,44.434,-4.883
1572496343.973,35.645,92.773,-403.809,36.133,15.625
1572496343.977,41.992,111.816,-279.785,48.828,27.832
1572496343.980,45.898,52.734,-368.652,54.688,31.250
1572496343.984,41.016,62.012,-384.766,50.293,11.719
1572496343.988,39.062,115.723,-261.230,51.758,35.645
1572496343.992,38.574,77.148,-277.344,50.781,69.824
1572496343.996,37.598,-117.676,-665.039,45.898,30.762
1572496344.000,31.738,-106.934,-783.691,36.133,7.324
1572496344.004,20.996,156.738,-338.379,33.203,43.457
1572496344.008,25.879,123.047,-255.371,36.133,43.457
1572496344.012,36.621,5.859,-460.938,38.574,13.184
1572496344.016,35.645,114.746,-308.594,37.598,31.738
1572496344.019,35.156,105.469,-240.723,42.969,53.223
1572496344.023,38.574,-22.949,-481.445,45.410,19.531
1572496344.027,35.645,48.828,-415.039,36.133,34.180
1572496344.031,31.250,128.906,-204.102,28.320,65.430
1572496344.035,33.203,82.031,-201.660,29.297,52.734
1572496344.039,38.086,-17.578,-391.602,34.180,35.156
1572496344.043,32.227,-18.555,-479.004,29.785,23.438
1572496344.047,22.949,81.055,-304.688,20.508,31.738
1572496344.051,20.020,123.535,-179.199,18.555,44.922
1572496344.055,28.320,2.441,-415.527,24.414,17.578
1572496344.059,27.832,-6.348,-536.621,24.414,2.441
1572496344.062,18.066,133.789,-288.086,18.555,31.250
1572496344.066,16.602,162.109,-155.762,21.973,51.270
1572496344.070,25.391,2.930,-422.852,28.320,36.621
1572496344.074,27.344,-87.402,-696.289,20.508,-6.836
1572496344.078,21.973,76.172,-470.703,17.578,0.977
1572496344.082,22.461,128.418,-297.363,24.414,25.879
1572496344.086,20.996,63.965,-348.145,26.855,37.598
1572496344.090,22.461,26.855,-441.406,25.879,33.691
1572496344.094,22.949,84.473,-353.516,22.949,29.297
1572496344.098,17.578,97.656,-250.488,22.949,47.363
1572496344.102,17.578,-4.395,-434.082,27.344,16.113
1572496344.105,20.508,54.688,-405.273,25.391,3.906
1572496344.109,22.949,160.156,-140.137,24.902,59.570
1572496344.113,20.508,46.387,-231.445,27.344,48.340
1572496344.117,19.531,-155.762,-666.992,25.879,-0.977
1572496344.121,18.066,-19.531,-581.543,19.043,3.906
1572496344.125,20.020,136.230,-260.742,20.996,12.207
1572496344.129,24.414,62.988,-322.266,21.973,22.949
1572496344.133,24.414,0.000,-430.664,20.996,38.574
1572496344.137,24.414,16.113,-417.969,16.602,41.504
1572496344.141,29.297,65.918,-303.223,20.996,67.871
1572496344.144,35.156,-47.363,-478.516,24.902,38.086
1572496344.148,29.785,-100.098,-667.480,11.230,2.441
1572496344.152,29.297,84.961,-367.188,10.254,20.996
1572496344.156,27.832,113.770,-170.410,18.555,37.598
1572496344.160,25.391,46.387,-256.836,22.949,46.875
1572496344.164,28.320,26.367,-313.477,27.344,21.484
1572496344.168,29.785,70.312,-206.055,27.832,25.879
1572496344.172,25.879,73.242,-149.414,30.762,52.246
1572496344.176,26.855,-32.715,-343.750,36.133,17.090
1572496344.180,25.879,-23.926,-429.199,33.691,14.648
1572496344.184,25.391,41.016,-324.219,33.203,41.992
1572496344.187,20.508,-12.695,-385.254,30.273,14.160
1572496344.191,10.742,-9.766,-425.781,18.066,19.043
1572496344.195,21.973,93.262,-237.305,24.414,49.805
1572496344.199,28.320,135.742,-84.473,30.762,51.270
1572496344.203,4.883,82.031,-106.934,3.418,72.754
1572496344.207,-12.207,-98.633,-486.328,-26.855,25.879
1572496344.211,-15.137,14.648,-433.594,-33.691,10.254
1572496344.215,-20.508,157.227,-76.172,-25.879,48.340
1572496344.219,-32.227,29.785,-222.168,-38.086,14.648
1572496344.223,-44.434,15.625,-259.766,-48.828,15.625
1572496344.227,-61.523,23.926,-248.047,-62.500,18.555
1572496344.230,-63.965,-4.395,-331.543,-65.918,20.020
1572496344.234,-55.664,-2.441,-350.586,-56.641,32.715
1572496344.238,-72.754,50.293,-260.742,-71.289,34.668
1572496344.242,-77.148,134.277,-47.852,-72.266,54.688
1572496344.246,-80.566,95.703,-46.387,-75.684,56.152
1572496344.250,-76.172,-100.098,-402.344,-76.172,9.766
1572496344.254,-63.477,-129.395,-596.191,-71.777,-35.645
1572496344.258,-64.453,129.883,-159.180,-73.730,27.832
1572496344.262,-51.758,143.555,37.109,-65.918,57.129
1572496344.266,-46.387,25.879,-135.254,-58.105,11.230
1572496344.269,-48.340,43.457,-119.629,-49.805,0.977
1572496344.273,-41.016,17.090,-163.086,-41.016,-6.836
1572496344.277,-30.762,24.902,-165.039,-32.227,7.812
1572496344.281,-22.461,-67.871,-335.449,-31.738,13.184
1572496344.285,-25.391,-33.203,-360.352,-28.320,11.719
1572496344.289,-26.367,141.113,-1.465,-21.484,14.648
1572496344.293,-15.137,42.969,-60.547,-18.555,1.465
1572496344.297,-9.766,19.043,-115.234,-15.137,19.043
1572496344.301,-7.324,58.105,-36.133,-11.230,28.320
1572496344.305,-4.395,23.438,-71.777,-7.324,11.719
1572496344.309,-0.977,-2.930,-108.887,-2.441,24.902
1572496344.312,5.859,-41.504,-189.941,-3.418,10.254
1572496344.316,9.277,22.461,-92.773,-5.371,6.348
1572496344.320,11.719,-18.066,-138.672,0.488,23.926
1572496344.324,14.648,-123.535,-365.723,0.977,19.043
1572496344.328,14.160,-98.145,-393.555,1.465,-6.836
1572496344.332,9.766,40.039,-152.832,3.418,11.230
1572496344.336,6.348,74.219,-17.090,6.348,43.457
1572496344.340,7.324,-58.594,-250.000,5.371,15.625
1572496344.344,9.766,-72.266,-362.793,4.883,-2.441
1572496344.348,8.789,26.367,-162.598,5.859,15.137
1572496344.352,5.371,40.039,-71.289,4.395,20.996
1572496344.355,15.137,-109.375,-339.844,9.766,7.812
1572496344.359,28.320,-180.664,-598.145,9.766,-13.672
1572496344.363,26.855,42.480,-229.004,10.742,14.160
1572496344.367,27.832,25.879,-133.789,18.066,35.645
1572496344.371,34.668,-45.410,-270.996,20.996,20.508
1572496344.375,40.527,50.293,-113.770,19.531,20.020
1572496344.379,35.645,100.586,61.035,19.043,41.992
1572496344.383,33.691,20.996,30.273,26.855,32.227
1572496344.387,37.598,-173.828,-375.000,30.762,-13.672
1572496344.391,31.250,-65.430,-321.289,20.996,0.488
1572496344.394,29.297,114.746,84.961,20.020,37.598
1572496344.398,32.715,-29.785,-66.895,30.762,10.254
1572496344.402,31.738,-92.285,-218.750,33.203,4.395
1572496344.406,30.273,17.578,-54.199,24.414,14.160
1572496344.410,30.273,65.430,116.211,21.484,39.062
1572496344.414,32.715,-81.543,-91.797,24.902,39.551
1572496344.418,31.250,-164.062,-383.789,25.879,20.996
1572496344.422,26.855,57.129,-79.102,20.996,53.223
1572496344.426,27.832,137.695,174.805,18.066,72.266
1572496344.430,31.250,-13.672,-25.391,20.020,62.500
1572496344.434,35.156,-89.844,-231.934,20.020,7.324
1572496344.437,33.203,42.969,-21.973,17.578,32.715
1572496344.441,33.691,40.039,63.965,16.113,52.246
1572496344.445,30.762,-81.543,-180.176,20.508,22.461
1572496344.449,25.879,-41.016,-193.359,16.113,41.016
1572496344.453,31.738,41.504,-28.809,11.230,50.293
1572496344.457,30.762,34.180,-4.395,19.531,46.387
1572496344.461,28.809,-169.922,-413.086,28.320,8.301
1572496344.465,27.344,-153.809,-551.758,24.902,13.672
1572496344.469,24.902,74.707,-136.719,18.066,40.527
1572496344.473,33.691,-25.391,-255.371,26.367,9.766
1572496344.477,36.133,-59.082,-397.461,29.297,6.836
1572496344.480,27.344,51.270,-209.473,22.461,33.203
1572496344.484,23.926,89.844,-68.359,20.508,58.105
1572496344.488,28.809,-10.254,-193.359,24.902,51.758
1572496344.492,36.133,-179.199,-615.723,25.879,1.953
1572496344.496,34.668,-34.668,-521.973,22.461,2.930
1572496344.500,30.762,112.793,-187.012,28.809,30.762
1572496344.504,35.156,20.996,-272.461,38.086,34.180
1572496344.508,34.180,-61.523,-428.223,31.250,45.410
1572496344.512,23.438,-16.602,-391.602,18.066,37.598
1572496344.516,23.438,77.148,-228.027,19.043,19.043
1572496344.519,29.297,-51.758,-448.730,24.414,-11.719
1572496344.523,28.809,-104.980,-660.645,22.949,-0.488
1572496344.527,28.809,73.242,-372.070,20.508,18.555
1572496344.531,25.391,47.852,-313.477,24.414,23.926
1572496344.535,20.996,-33.691,-495.605,23.926,22.461
1572496344.539,19.531,63.477,-362.305,17.090,43.457
1572496344.543,19.043,157.715,-111.328,18.555,72.266
1572496344.547,27.344,104.492,-102.051,26.855,65.918
1572496344.551,37.598,-8.789,-309.082,33.203,45.898
1572496344.555,36.133,-60.547,-508.789,33.203,1.465
1572496344.559,26.855,-19.531,-483.398,27.344,-9.766
1572496344.562,28.809,-27.832,-492.188,23.926,-1.465
1572496344.566,27.832,-16.602,-495.605,24.414,14.648
1572496344.570,17.090,41.504,-401.855,27.344,26.855
1572496344.574,9.766,65.918,-299.316,28.809,34.180
1572496344.578,15.137,12.207,-351.074,31.738,26.367
1572496344.582,22.461,-24.902,-465.820,30.762,-7.812
1572496344.586,17.578,59.082,-345.703,25.879,9.277
1572496344.590,25.879,86.426,-226.074,28.809,30.273
1572496344.594,19.043,-3.418,-321.289,34.668,12.695
1572496344.598,4.395,-87.891,-541.016,34.180,-11.719
1572496344.602,16.113,34.668,-374.023,34.668,3.906
1572496344.605,21.484,103.516,-147.949,29.785,14.160
1572496344.609,16.602,11.719,-267.090,29.785,-6.348
1572496344.613,19.043,43.945,-212.402,30.762,22.949
1572496344.617,20.020,84.473,-90.820,26.367,18.555
1572496344.621,15.137,62.012,-108.887,25.391,-7.812
1572496344.625,16.602,-17.578,-266.602,26.367,-3.906
1572496344.629,15.625,-20.996,-347.168,19.043,15.137
1572496344.633,12.207,143.555,-59.570,14.648,9.766
1572496344.637,31.250,171.875,128.418,27.344,31.250
1572496344.641,37.598,69.824,17.090,29.785,48.340
1572496344.644,23.438,18.555,-96.191,25.391,25.879
1572496344.648,28.809,15.137,-89.355,29.297,9.766
1572496344.652,24.902,-22.461,-161.621,24.414,12.695
1572496344.656,16.602,1.953,-141.602,21.973,43.945
1572496344.660,21.973,15.625,-120.117,22.461,36.133
1572496344.664,22.461,21.973,-114.258,17.090,19.043
1572496344.668,26.367,-16.113,-178.223,21.484,7.324
1572496344.672,33.691,-108.398,-414.551,29.297,14.648
1572496344.676,27.832,19.531,-261.230,23.438,40.527
1572496344.680,28.809,120.117,22.461,20.996,24.414
1572496344.684,44.922,11.230,-94.727,26.855,17.090
1572496344.687,40.527,-0.977,-145.020,22.949,37.109
1572496344.691,37.109,40.527,-70.312,20.996,26.367
1572496344.695,44.922,20.508,-107.422,16.113,32.715
1572496344.699,36.621,-66.406,-267.578,9.277,40.527
1572496344.703,31.738,-175.293,-576.660,8.789,-6.348
1572496344.707,32.227,-34.668,-471.191,6.348,-3.418
1572496344.711,36.133,117.676,-117.676,11.719,40.527
1572496344.715,41.016,46.387,-180.176,15.137,26.367
1572496344.719,34.668,36.133,-237.305,16.602,19.043
1572496344.723,25.879,100.098,-103.516,21.973,28.320
1572496344.727,26.367,98.633,-58.594,22.461,25.391
1572496344.730,35.156,-78.613,-369.629,27.832,7.812
1572496344.734,30.762,-126.953,-608.887,20.996,-16.113
1572496344.738,22.949,92.285,-253.906,9.766,9.277
1572496344.742,20.996,36.621,-247.559,15.137,11.230
1572496344.746,16.602,-116.699,-597.656,13.672,-17.578
1572496344.750,16.113,26.855,-417.480,5.859,21.484
1572496344.754,21.484,151.367,-85.938,12.207,55.664
1572496344.758,22.461,49.316,-189.941,15.625,36.621
1572496344.762,19.531,0.488,-302.246,6.836,16.602
1572496344.766,11.230,67.383,-220.703,1.465,6.348
1572496344.769,7.324,138.184,-31.250,9.277,37.598
1572496344.773,7.812,40.039,-159.668,14.648,31.738
1572496344.777,9.766,16.602,-243.164,11.230,32.227
1572496344.781,18.066,117.676,-52.246,11.230,54.199
1572496344.785,25.391,89.355,-29.785,17.578,38.086
1572496344.789,34.180,-50.781,-299.805,24.414,4.395
1572496344.793,29.785,-50.293,-392.090,26.367,12.207
1572496344.797,22.461,46.875,-230.469,26.367,46.875
1572496344.801,22.461,59.570,-179.199,24.902,53.223
1572496344.805,24.414,-41.992,-363.281,20.508,31.250
1572496344.809,26.367,-84.473,-537.109,17.090,28.809
1572496344.812,27.832,66.406,-337.891,12.207,19.531
1572496344.816,25.879,140.625,-116.211,12.695,23.438
1572496344.820,23.438,86.914,-149.902,20.020,34.668
1572496344.824,24.414,61.035,-186.523,24.414,24.902
1572496344.828,28.320,74.707,-120.117,22.949,25.879
1572496344.832,19.531,69.824,-79.590,20.020,38.574
1572496344.836,21.484,-92.773,-359.375,16.602,40.039
1572496344.840,28.320,-127.930,-593.262,16.113,23.926
1572496344.844,16.113,120.605,-183.594,16.113,54.199
1572496344.848,15.137,99.609,-86.914,16.113,44.922
1572496344.852,20.508,24.414,-212.891,20.020,36.133
1572496344.855,21.973,81.055,-129.883,19.531,40.527
1572496344.859,21.973,79.590,-115.234,21.484,10.742
1572496344.863,23.926,2.930,-211.426,29.785,11.230
1572496344.867,30.273,-113.770,-519.531,32.227,-3.418
1572496344.871,25.391,13.184,-430.664,26.367,4.883
1572496344.875,20.020,156.738,-73.242,27.344,45.898
1572496344.879,22.949,1.953,-259.277,28.320,16.113
1572496344.883,29.297,-126.465,-616.699,30.273,-11.230
1572496344.887,22.949,29.297,-451.172,19.531,11.230
1572496344.891,19.531,121.582,-201.660,15.625,12.695
1572496344.894,30.273,35.156,-325.684,24.902,-5.859
1572496344.898,26.855,55.176,-291.504,23.926,28.320
1572496344.902,23.926,116.699,-113.770,20.020,50.781
1572496344.906,28.809,93.262,-98.633,20.020,26.367
1572496344.910,34.180,-84.961,-407.227,26.367,-10.742
1572496344.914,32.715,-128.906,-633.301,24.414,-13.184
1572496344.918,22.949,94.727,-294.922,20.508,19.531
1572496344.922,32.227,88.379,-192.871,26.855,9.277
1572496344.926,43.457,-34.180,-416.016,30.762,-26.855
1572496344.930,33.203,-21.973,-497.070,29.297,-22.949
1572496344.934,22.461,49.805,-381.348,24.902,16.602
1572496344.937,20.996,41.504,-348.145,23.438,21.484
1572496344.941,24.902,-95.215,-630.371,20.020,-7.812
1572496344.945,22.461,-32.715,-620.117,8.301,-23.438
1572496344.949,17.578,152.832,-239.746,9.277,-7.324
1572496344.953,16.602,46.387,-312.988,16.602,-21.484
1572496344.957,19.531,-15.625,-445.801,16.602,-7.812
1572496344.961,25.391,104.004,-247.559,18.066,34.180
1572496344.965,23.438,141.602,-88.867,21.973,42.480
1572496344.969,23.926,38.086,-192.383,22.461,43.457
1572496344.973,32.227,-123.047,-552.246,18.066,19.043
1572496344.977,28.320,-28.320,-531.250,18.555,15.137
1572496344.980,26.367,65.430,-339.355,31.738,19.531
1572496344.984,30.762,-16.602,-471.680,33.203,9.766
1572496344.988,25.879,34.668,-397.461,21.973,28.809
1572496344.992,25.391,152.344,-116.699,27.832,46.875
1572496344.996,25.391,126.465,-63.477,31.738,43.945
1572496345.000,23.438,30.273,-235.352,25.879,21.973
1572496345.004,25.879,27.344,-288.574,30.273,13.672
1572496345.008,25.391,97.168,-116.699,28.320,43.945
1572496345.012,23.438,79.590,-72.266,23.926,39.551
1572496345.016,27.832,-129.395,-474.121,28.809,-13.672
1572496345.019,27.832,-128.418,-614.746,25.391,-2.930
1572496345.023,20.996,49.316,-315.918,21.973,39.551
1572496345.027,23.926,8.301,-341.797,27.344,33.203
1572496345.031,30.762,-10.254,-420.410,28.809,13.184
1572496345.035,35.156,78.613,-235.352,24.414,45.410
1572496345.039,29.785,97.656,-125.488,21.484,58.105
1572496345.043,23.926,17.090,-245.117,25.879,13.672
1572496345.047,28.320,-96.680,-511.230,24.902,-0.488
1572496345.051,25.391,6.836,-434.082,15.625,18.066
1572496345.055,19.531,169.434,-72.266,15.137,46.875
1572496345.059,27.344,60.547,-175.781,20.508,40.039
1572496345.062,32.227,5.371,-303.711,26.367,19.531
1572496345.066,29.785,85.938,-163.086,32.227,26.367
1572496345.070,28.320,39.062,-231.445,30.273,22.461
1572496345.074,30.762,-68.848,-472.656,27.344,4.883
1572496345.078,31.738,-96.680,-657.227,30.273,-28.809
1572496345.082,21.484,83.008,-397.461,23.438,-6.348
1572496345.086,17.578,189.941,-51.758,21.484,46.387
1572496345.090,17.578,21.484,-256.836,21.484,35.645
1572496345.094,21.484,-86.426,-540.039,25.879,8.301
1572496345.098,22.949,80.078,-296.875,27.344,30.762
1572496345.102,22.949,127.930,-124.512,26.367,13.184
1572496345.105,25.879,-0.977,-356.934,26.367,-23.438
1572496345.109,25.879,42.480,-326.660,23.926,16.602
1572496345.113,20.020,140.137,-69.824,23.438,44.922
1572496345.117,23.926,36.621,-187.988,28.320,27.832
1572496345.121,30.762,-130.371,-571.777,32.227,-17.090
1572496345.125,25.391,-75.195,-621.094,25.391,-27.832
1572496345.129,19.043,126.465,-224.609,20.996,19.043
1572496345.133,25.391,87.402,-174.805,26.367,21.484
1572496345.137,27.832,20.508,-301.270,32.227,2.441
1572496345.141,24.414,87.891,-192.383,29.297,20.508
1572496345.144,22.949,110.352,-82.520,28.809,37.109
1572496345.148,20.996,-9.766,-252.441,31.250,9.766
1572496345.152,22.461,-67.871,-438.965,27.832,-0.488
1572496345.156,20.996,58.105,-266.602,26.855,28.320
1572496345.160,20.996,85.938,-129.395,30.273,40.527
1572496345.164,24.414,-76.660,-421.875,37.109,1.953
1572496345.168,20.508,-78.125,-525.391,33.691,2.441
1572496345.172,20.020,71.289,-244.141,31.250,44.922
1572496345.176,28.809,98.145,-117.188,43.457,53.223
1572496345.180,28.320,-64.453,-395.020,40.527,20.508
1572496345.184,22.461,-145.020,-693.359,23.926,-8.789
1572496345.187,19.531,54.199,-416.504,19.531,11.230
1572496345.191,18.066,101.074,-230.469,20.508,32.227
1572496345.195,18.555,13.672,-353.027,25.391,14.648
1572496345.199,19.531,16.602,-381.348,29.297,6.348
1572496345.203,19.531,99.121,-183.105,25.391,54.199
1572496345.207,16.602,23.926,-261.230,22.949,43.457
1572496345.211,21.973,-62.500,-485.840,21.973,18.066
1572496345.215,26.855,-14.160,-479.980,23.438,32.227
1572496345.219,20.020,80.566,-306.152,21.484,42.480
1572496345.223,19.531,78.613,-225.586,19.043,41.016
1572496345.227,27.832,-83.984,-535.156,23.438,33.203
1572496345.230,29.297,-41.016,-569.824,21.973,15.625
1572496345.234,28.320,106.934,-241.699,17.090,28.809
1572496345.238,30.273,34.668,-283.203,20.020,38.086
1572496345.242,30.762,0.488,-393.555,19.531,25.879
1572496345.246,36.133,80.078,-263.672,23.926,39.551
1572496345.250,34.668,73.730,-231.445,33.203,24.902
1572496345.254,29.297,8.789,-339.844,31.250,25.879
1572496345.258,27.832,-52.246,-494.141,32.715,25.391
1572496345.262,38.086,-11.719,-495.605,37.109,20.996
1572496345.266,38.086,48.828,-391.602,38.086,45.410
1572496345.269,30.762,2.930,-470.703,37.109,19.531
1572496345.273,34.668,20.020,-447.266,39.551,8.789
1572496345.277,32.227,91.309,-280.762,37.109,27.344
1572496345.281,32.715,114.746,-171.875,29.785,47.363
1572496345.285,32.715,-41.992,-433.594,27.832,25.391
1572496345.289,27.344,-106.934,-690.918,23.926,-10.742
1572496345.293,25.391,117.188,-310.547,20.508,36.621
1572496345.297,30.762,126.465,-173.340,22.949,49.316
1572496345.301,32.227,30.762,-341.309,25.391,20.508
1572496345.305,32.227,-1.953,-447.754,28.320,9.766
1572496345.309,34.180,28.320,-440.918,26.855,18.555
1572496345.312,32.227,80.078,-318.359,24.902,51.758
1572496345.316,36.133,-20.508,-504.883,27.832,31.250
1572496345.320,34.668,-31.738,-617.676,22.461,0.977
1572496345.324,23.926,110.840,-333.984,23.438,21.973
1572496345.328,24.414,116.699,-230.957,26.855,41.504
1572496345.332,28.320,92.773,-208.496,28.320,60.059
1572496345.336,21.973,99.121,-165.527,25.879,62.012
1572496345.340,19.531,87.891,-166.504,20.996,50.293
1572496345.344,20.020,45.898,-218.262,24.902,42.969
1572496345.348,21.973,27.344,-254.395,28.320,40.527
1572496345.352,32.227,-0.488,-324.707,32.715,26.855
1572496345.355,29.297,4.395,-345.703,30.762,44.434
1572496345.359,21.973,-28.809,-387.695,26.855,46.875
1572496345.363,23.926,-112.305,-618.164,27.344,3.418
1572496345.367,22.949,67.871,-350.586,26.367,31.250
1572496345.371,24.902,131.348,-102.539,28.320,52.734
1572496345.375,26.855,27.344,-252.441,33.203,33.691
1572496345.379,29.785,2.930,-354.980,33.691,31.250
1572496345.383,32.715,54.688,-256.348,32.227,27.344
1572496345.387,38.086,62.500,-166.992,34.668,41.504
1572496345.391,37.598,32.227,-191.406,35.645,71.777
1572496345.394,33.203,22.949,-209.473,29.297,58.594
1572496345.398,34.668,-6.348,-244.629,27.344,50.781
1572496345.402,32.715,-74.707,-409.180,29.297,30.762
1572496345.406,32.715,-51.758,-440.918,27.344,18.555
1572496345.410,32.715,38.574,-256.836,25.391,33.203
1572496345.414,36.133,58.594,-134.766,25.391,33.203
1572496345.418,41.016,7.324,-171.387,32.715,41.504
1572496345.422,40.527,-33.691,-276.367,33.691,36.133
1572496345.426,37.109,73.730,-91.797,28.320,72.754
1572496345.430,34.668,121.094,84.473,30.762,93.750
1572496345.434,39.062,-46.387,-177.734,32.715,32.715
1572496345.437,41.992,-127.441,-427.246,34.668,11.719
1572496345.441,35.645,16.602,-209.961,31.250,28.809
1572496345.445,35.156,16.602,-134.766,32.227,37.598
1572496345.449,39.551,-48.340,-257.812,30.762,59.570
1572496345.453,38.086,-61.523,-323.730,27.832,33.691
1572496345.457,39.062,-12.207,-245.605,34.668,29.785
1572496345.461,33.203,28.320,-148.926,32.715,49.805
1572496345.465,26.367,-80.078,-321.289,23.926,36.621
1572496345.469,22.461,-117.188,-471.191,16.602,25.391
1572496345.473,20.508,69.336,-156.250,13.672,36.621
1572496345.477,20.996,117.676,74.219,18.555,70.312
1572496345.480,19.531,29.297,-37.109,22.949,67.383
1572496345.484,21.484,0.977,-123.047,23.438,31.250
1572496345.488,20.508,28.320,-54.199,18.066,37.109
1572496345.492,18.066,-21.484,-147.461,19.043,40.039
1572496345.496,17.578,-144.043,-479.980,21.484,16.602
1572496345.500,17.578,-81.055,-498.535,13.672,4.883
1572496345.504,18.555,118.652,-97.656,15.137,28.809
1572496345.508,20.508,66.406,-46.387,24.414,34.668
1572496345.512,26.855,-95.703,-385.254,30.762,-1.465
1572496345.516,34.180,-21.484,-372.559,33.203,-5.371
1572496345.519,27.344,103.516,-60.547,29.785,23.926
1572496345.523,15.137,-4.395,-145.020,31.738,25.391
1572496345.527,15.625,-94.238,-395.508,26.367,20.996
1572496345.531,19.043,30.273,-276.367,19.043,25.391
1572496345.535,21.973,93.750,-74.219,22.461,31.250
1572496345.539,23.926,-58.105,-328.613,25.879,24.414
1572496345.543,21.484,-65.918,-456.543,23.926,19.043
1572496345.547,26.367,25.391,-324.219,27.344,-2.441
1572496345.551,27.832,0.977,-362.305,28.809,1.953
1572496345.555,29.297,3.906,-392.578,22.949,12.695
1572496345.559,32.227,59.082,-298.340,21.973,26.367
1572496345.562,29.785,96.191,-175.781,14.648,34.180
1572496345.566,26.855,87.402,-136.230,13.184,24.414
1572496345.570,24.414,-54.199,-354.980,24.414,35.156
1572496345.574,26.367,-106.934,-551.270,22.949,26.855
1572496345.578,22.461,88.867,-234.375,17.090,41.016
1572496345.582,20.020,89.844,-120.117,14.648,49.805
1572496345.586,26.855,-37.109,-351.074,15.137,26.855
1572496345.590,28.809,-37.598,-443.848,15.137,8.301
1572496345.594,21.973,74.707,-223.633,11.719,28.809
1572496345.598,22.949,66.406,-129.395,19.531,46.875
1572496345.602,27.832,-116.699,-480.469,24.902,28.809
1572496345.605,27.832,-89.355,-593.750,19.043,7.812
1572496345.609,23.438,106.934,-221.680,16.113,19.043
1572496345.613,25.879,28.809,-263.672,21.973,8.301
1572496345.617,27.344,-11.719,-331.543,28.320,24.902
1572496345.621,24.902,70.312,-163.086,28.809,46.387
1572496345.625,25.879,77.637,-76.660,24.902,40.039
1572496345.629,27.344,-40.527,-237.793,27.832,13.184
1572496345.633,21.484,-110.352,-432.129,30.762,7.812
1572496345.637,15.625,-7.812,-317.871,23.438,38.574
1572496345.641,18.066,55.664,-165.527,27.832,31.250
1572496345.644,13.672,-1.953,-257.324,37.598,1.465
1572496345.648,8.789,-24.902,-342.773,31.250,-15.625
1572496345.652,7.812,45.410,-211.426,24.902,0.000
1572496345.656,13.184,78.613,-101.562,22.949,25.391
1572496345.660,24.902,-62.988,-343.750,24.414,21.973
1572496345.664,31.738,-123.535,-591.797,27.344,24.414
1572496345.668,28.809,81.055,-270.508,19.043,46.387
1572496345.672,25.391,112.793,-77.637,17.578,62.500
1572496345.676,29.297,20.020,-220.703,25.391,52.246
1572496345.680,25.879,-18.066,-318.848,28.320,44.434
1572496345.684,26.367,7.324,-284.180,31.738,40.039
1572496345.687,27.832,42.969,-209.473,35.156,36.133
1572496345.691,26.855,42.480,-189.941,35.156,49.316
1572496345.695,23.926,46.387,-185.547,32.715,28.809
1572496345.699,17.578,67.383,-132.812,32.227,13.672
1572496345.703,20.020,23.926,-157.227,33.203,23.926
1572496345.707,27.832,-132.324,-527.832,38.086,-12.695
1572496345.711,29.785,14.648,-400.879,32.715,12.207
1572496345.715,29.785,118.652,-87.402,29.785,46.387
1572496345.719,34.668,-31.250,-327.637,29.785,6.348
1572496345.723,31.250,11.719,-312.988,24.414,13.672
1572496345.727,26.367,32.715,-249.512,25.391,20.508
1572496345.730,31.250,-6.348,-343.750,29.785,-7.812
1572496345.734,35.645,-50.781,-419.434,27.344,-4.395
1572496345.738,32.715,-100.098,-591.309,19.531,-13.672
1572496345.742,29.297,68.848,-345.703,18.066,4.395
1572496345.746,23.438,136.230,-90.332,20.508,28.809
1572496345.750,20.508,3.418,-277.832,22.949,23.926
1572496345.754,19.531,-10.742,-339.355,20.020,21.484
1572496345.758,16.602,64.941,-191.406,13.672,30.273
1572496345.762,20.996,19.043,-187.500,12.207,27.344
1572496345.766,25.879,-102.539,-270.508,17.090,20.508
1572496345.769,27.832,-180.664,-300.781,19.531,15.625
1572496345.773,26.367,-234.863,-355.957,14.160,9.766
1572496345.777,28.809,-244.629,-366.699,16.602,33.691
1572496345.781,31.250,-333.984,-538.574,22.949,21.973
1572496345.785,20.996,-290.527,-545.410,18.066,13.672
1572496345.789,21.484,-110.352,-151.855,16.113,40.039
1572496345.793,27.344,-208.496,-213.867,22.949,5.371
1572496345.797,23.926,-246.582,-308.105,21.973,12.207
1572496345.801,21.484,-149.902,-119.141,19.043,59.570
1572496345.805,19.531,-127.930,-11.230,21.484,58.594
1572496345.809,29.785,-212.891,-97.656,22.461,75.195
1572496345.812,38.086,-304.199,-320.801,26.855,49.316
1572496345.816,30.273,-186.035,-175.293,30.762,38.574
1572496345.820,34.180,-190.430,-163.574,36.133,46.875
1572496345.824,35.645,-245.117,-328.613,30.273,39.551
1572496345.828,32.715,-226.562,-334.473,25.391,23.438
1572496345.832,32.227,-173.340,-269.531,29.785,24.902
1572496345.836,34.668,-84.473,-67.871,31.250,44.922
1572496345.840,41.992,-234.863,-311.523,31.738,0.000
1572496345.844,41.992,-274.902,-519.531,25.879,7.812
1572496345.848,39.551,-77.637,-184.082,21.973,43.457
1572496345.852,35.156,-72.266,-65.430,28.320,39.551
1572496345.855,24.902,-138.672,-189.453,26.367,32.227
1572496345.859,25.391,-115.723,-197.266,19.043,29.297
1572496345.863,29.785,-83.496,-110.840,22.949,36.133
1572496345.867,27.344,-141.602,-194.824,21.973,38.574
1572496345.871,28.809,-291.504,-563.965,11.719,1.465
1572496345.875,27.344,-245.117,-625.488,8.789,-21.484
1572496345.879,23.926,-14.648,-174.805,16.113,25.879
1572496345.883,24.414,-50.293,-94.238,15.625,46.387
1572496345.887,22.949,-163.574,-315.918,14.160,16.602
1572496345.891,20.020,-87.891,-241.211,14.648,15.137
1572496345.894,20.020,-53.223,-126.953,10.742,3.906
1572496345.898,28.320,-106.445,-194.824,20.020,6.348
1572496345.902,31.250,-121.094,-214.844,24.414,26.855
1572496345.906,28.320,-89.844,-178.711,21.484,8.301
1572496345.910,37.598,-53.223,-97.168,25.391,26.367
1572496345.914,39.551,-134.277,-238.770,43.457,18.555
1572496345.918,28.809,-173.340,-398.438,46.387,-1.465
1572496345.922,30.273,-51.758,-186.523,29.297,32.715
1572496345.926,37.109,-14.160,-12.207,30.762,42.969
1572496345.930,34.180,-114.746,-167.480,44.434,19.531
1572496345.934,29.297,-101.562,-168.945,42.969,39.551
1572496345.937,32.227,-41.504,-19.043,37.598,56.152
1572496345.941,31.250,-47.852,7.324,35.645,50.781
1572496345.945,31.250,-211.914,-312.012,31.738,24.414
1572496345.949,39.551,-249.023,-528.809,30.762,-7.324
1572496345.953,36.133,-52.734,-215.332,34.180,-3.418
1572496345.957,25.879,-42.969,-95.215,29.785,9.766
