timestamps,TP9,AF7,AF8,TP10,Right AUX
1571283174.956,56.641,-371.582,-463.379,38.086,6.836
1571283174.960,46.875,-354.980,-412.598,51.758,55.664
1571283174.964,34.668,31.250,-55.664,64.453,73.730
1571283174.968,38.086,252.930,82.031,49.805,43.945
1571283174.971,48.340,-54.688,-225.586,31.738,8.789
1571283174.975,47.852,-461.914,-512.207,39.062,21.973
1571283174.979,41.992,-299.805,-286.621,57.129,64.453
1571283174.983,41.016,54.199,0.488,47.363,69.336
1571283174.987,52.734,-38.086,-141.602,31.250,21.973
1571283174.991,60.547,-647.949,-607.910,35.156,-12.695
1571283174.995,41.504,-473.145,-367.188,43.457,25.391
1571283174.999,36.133,328.613,270.996,45.898,47.363
1571283175.003,46.387,229.980,129.395,30.273,9.766
1571283175.007,52.734,-134.766,-164.062,18.555,28.809
1571283175.011,40.039,173.828,145.508,27.344,79.102
1571283175.014,38.086,692.383,602.051,47.363,95.215
1571283175.018,59.082,568.359,480.957,50.781,50.293
1571283175.022,61.035,-188.477,-133.301,33.691,-12.695
1571283175.026,35.645,-427.246,-240.723,27.344,12.207
1571283175.030,18.555,262.207,375.000,40.039,77.148
1571283175.034,43.457,411.133,473.145,51.270,56.152
1571283175.038,62.988,-395.020,-179.199,34.668,-0.977
1571283175.042,51.270,-633.301,-330.078,26.367,1.465
1571283175.046,35.156,-41.016,182.129,37.598,46.387
1571283175.050,33.203,328.613,456.543,37.109,49.316
1571283175.053,42.969,90.332,198.730,23.438,-1.953
1571283175.057,37.598,-38.574,71.777,19.043,6.348
1571283175.061,28.809,349.609,425.781,35.156,74.219
1571283175.065,28.320,594.238,637.695,41.992,82.520
1571283175.069,35.156,197.754,283.203,27.832,27.832
1571283175.073,41.504,-430.176,-245.117,17.090,-15.625
1571283175.077,29.297,-383.301,-163.086,24.902,0.488
1571283175.081,25.391,-177.734,47.852,43.457,48.340
1571283175.085,33.691,-225.586,-33.691,39.062,30.273
1571283175.089,39.551,-207.031,-124.512,25.391,-27.344
1571283175.093,39.062,-175.293,-104.492,32.227,7.324
1571283175.096,33.203,13.184,92.285,47.852,45.898
1571283175.100,28.809,218.262,220.215,39.062,24.902
1571283175.104,36.133,177.246,96.191,23.926,5.371
1571283175.108,43.945,-234.863,-243.164,35.645,-16.113
1571283175.112,34.180,3.906,21.484,49.805,41.016
1571283175.116,36.621,258.789,231.934,51.758,52.246
1571283175.120,45.898,-95.215,-102.539,30.762,16.113
1571283175.124,52.734,-484.375,-427.734,27.344,21.484
1571283175.128,47.363,-635.742,-478.027,50.293,25.391
1571283175.132,32.715,-52.246,12.207,48.828,55.176
1571283175.136,41.992,327.637,219.238,39.551,45.898
1571283175.139,54.199,-134.277,-213.867,31.738,5.371
1571283175.143,43.457,-214.355,-229.980,38.086,17.090
1571283175.147,28.809,385.254,289.062,54.688,61.523
1571283175.151,38.086,550.781,372.070,47.852,53.223
1571283175.155,49.316,-75.195,-176.758,30.762,-9.766
1571283175.159,43.457,-309.082,-320.312,34.180,-8.301
1571283175.163,31.738,76.660,59.570,49.316,52.734
1571283175.167,30.762,262.207,205.566,45.410,63.965
1571283175.171,42.969,-43.945,-93.262,27.832,13.672
1571283175.175,36.621,-289.551,-287.109,19.043,-1.953
1571283175.178,25.391,259.766,210.938,31.250,62.500
1571283175.182,24.414,787.109,633.301,39.551,101.074
1571283175.186,41.016,71.289,29.785,30.762,17.578
1571283175.190,49.805,-616.211,-493.164,17.578,-36.621
1571283175.194,31.250,47.852,90.332,22.949,32.227
1571283175.198,28.809,524.414,486.816,42.969,59.570
1571283175.202,30.762,343.262,312.012,29.297,20.508
1571283175.206,31.250,68.848,62.988,9.766,-11.719
1571283175.210,26.855,-50.293,32.227,26.367,-8.789
1571283175.214,19.531,76.660,228.516,44.922,26.855
1571283175.218,26.367,-117.188,94.727,33.203,3.906
1571283175.221,27.344,-192.383,-8.789,7.324,-20.508
1571283175.225,22.949,219.238,305.664,13.184,23.438
1571283175.229,20.508,439.453,532.227,39.062,35.156
1571283175.233,22.461,489.258,583.008,40.527,5.859
1571283175.237,34.180,431.152,479.980,23.926,-27.344
1571283175.241,41.504,201.660,290.039,24.902,-29.785
1571283175.245,25.391,436.523,559.082,35.645,51.758
1571283175.249,23.926,807.129,876.953,41.504,83.496
1571283175.253,42.480,641.602,677.734,26.367,-1.465
1571283175.257,52.734,44.434,196.289,21.973,-27.832
1571283175.261,36.133,-256.836,62.500,40.527,32.715
1571283175.264,17.578,-47.852,281.738,46.387,52.246
1571283175.268,16.602,256.348,447.754,24.902,22.461
1571283175.272,34.668,53.711,198.242,17.090,-19.043
1571283175.276,41.504,-142.090,74.219,41.992,-23.926
1571283175.280,18.066,350.098,524.414,48.340,41.504
1571283175.284,14.648,731.445,781.738,38.574,54.199
1571283175.288,34.180,285.645,358.398,29.785,3.906
1571283175.292,33.691,-63.965,100.098,29.297,28.320
1571283175.296,12.695,396.973,516.113,40.527,91.309
1571283175.300,11.230,760.254,775.879,39.551,95.215
1571283175.303,40.527,121.094,207.520,30.273,28.809
1571283175.307,46.387,-826.172,-557.129,20.996,-16.602
1571283175.311,16.602,-471.191,-221.680,21.484,29.785
1571283175.315,17.578,292.969,365.234,34.180,78.125
1571283175.319,38.086,152.344,152.344,25.391,62.500
1571283175.323,45.410,-428.711,-364.258,16.602,30.762
1571283175.327,33.203,-392.578,-302.734,26.855,48.340
1571283175.331,16.602,183.594,171.875,35.156,91.797
1571283175.335,25.879,156.738,88.867,27.344,48.340
1571283175.339,42.969,-330.566,-354.492,11.230,14.160
1571283175.343,36.133,-334.473,-346.680,14.648,35.645
1571283175.346,23.926,136.230,64.941,33.691,84.961
1571283175.350,34.180,144.531,51.270,34.668,81.543
1571283175.354,38.574,-515.625,-522.461,17.090,8.301
1571283175.358,26.367,-615.723,-586.426,8.789,26.367
1571283175.362,20.020,-65.918,-109.863,26.367,65.918
1571283175.366,32.715,-143.555,-155.273,36.133,51.270
1571283175.370,40.527,-445.801,-427.734,16.113,20.996
1571283175.374,28.320,-247.559,-305.664,5.859,47.852
1571283175.378,27.832,-27.344,-87.402,29.785,67.871
1571283175.382,23.438,227.051,157.227,38.574,82.520
1571283175.386,22.949,321.289,193.848,16.602,60.059
1571283175.389,41.992,-18.555,-121.094,13.184,2.441
1571283175.393,38.086,-103.027,-125.000,32.715,27.832
1571283175.397,27.344,127.930,131.836,47.363,77.637
1571283175.401,34.180,52.734,53.223,30.762,31.738
1571283175.405,38.574,-179.199,-179.688,7.812,-12.695
1571283175.409,36.621,-303.711,-247.559,17.578,4.395
1571283175.413,29.297,-22.949,52.246,31.250,39.551
1571283175.417,18.555,405.762,384.277,18.555,46.875
1571283175.421,23.438,330.566,257.324,1.465,26.367
1571283175.425,40.527,-183.105,-130.859,12.207,24.902
1571283175.428,31.738,-354.004,-155.273,25.391,43.457
1571283175.432,15.137,322.754,396.484,18.066,77.637
1571283175.436,30.762,209.961,234.375,17.090,11.719
1571283175.440,41.016,-344.727,-195.801,20.020,-20.996
1571283175.444,29.785,-145.508,40.527,30.762,31.250
1571283175.448,18.555,169.434,323.242,41.992,45.898
1571283175.452,23.438,202.148,310.059,30.762,15.137
1571283175.456,44.922,-539.551,-344.727,18.555,-65.430
1571283175.460,23.926,-779.297,-484.375,13.184,-43.457
1571283175.464,2.930,192.383,355.957,25.391,47.363
1571283175.468,30.273,375.488,434.082,40.039,12.695
1571283175.471,43.457,-140.625,-29.297,26.855,-34.180
1571283175.475,36.621,-136.230,-2.930,23.926,-3.418
1571283175.479,28.809,368.652,437.012,41.016,40.039
1571283175.483,32.227,481.934,508.789,41.992,30.273
1571283175.487,38.574,44.434,102.051,20.508,-16.113
1571283175.491,30.273,-374.512,-226.562,5.859,-16.113
1571283175.495,21.973,-166.992,6.836,14.648,52.246
1571283175.499,42.969,11.719,153.320,37.109,50.293
1571283175.503,43.457,-500.000,-301.270,13.672,-7.812
1571283175.507,17.578,-595.215,-418.945,-7.324,4.395
1571283175.511,3.418,-39.551,12.207,12.207,49.316
1571283175.514,8.301,213.379,198.730,28.809,45.410
1571283175.518,17.090,85.938,31.738,18.555,9.277
1571283175.522,17.578,-145.996,-225.098,0.977,-0.977
1571283175.526,22.949,-104.492,-160.645,20.996,39.062
1571283175.530,12.695,116.699,73.242,37.109,44.434
1571283175.534,8.789,129.883,67.383,26.367,6.836
1571283175.538,20.508,-360.840,-366.699,12.695,-26.855
1571283175.542,21.484,-566.406,-500.488,18.555,7.324
1571283175.546,21.484,-435.547,-324.219,47.363,37.109
1571283175.550,5.859,-449.707,-327.148,38.086,31.738
1571283175.553,-2.930,-171.875,-198.730,9.766,20.508
1571283175.557,6.836,-200.195,-275.391,16.113,9.766
1571283175.561,-2.930,-1.953,-57.617,29.297,62.500
1571283175.565,-6.348,458.496,323.730,29.785,84.473
1571283175.569,16.113,392.578,202.637,19.531,15.625
1571283175.573,29.785,-163.574,-261.719,14.648,-29.785
1571283175.577,19.531,-167.969,-185.059,27.832,22.949
1571283175.581,16.602,403.809,314.453,37.598,75.195
1571283175.585,34.668,325.195,213.379,32.715,40.039
1571283175.589,50.293,-360.840,-353.027,27.832,-0.488
1571283175.593,43.945,-682.129,-531.250,35.156,30.762
1571283175.596,22.949,-62.500,13.184,40.039,56.152
1571283175.600,25.879,557.129,446.289,40.039,50.781
1571283175.604,53.711,184.570,84.473,34.180,7.324
1571283175.608,57.129,-223.633,-206.543,31.250,-7.324
1571283175.612,31.250,338.867,314.453,41.504,60.547
1571283175.616,32.227,734.375,613.770,48.828,46.875
1571283175.620,48.828,415.527,321.777,38.574,14.648
1571283175.624,45.410,117.188,99.609,32.227,31.250
1571283175.628,24.414,372.070,358.887,41.992,37.598
1571283175.632,22.949,597.168,580.078,51.758,52.734
1571283175.636,40.527,-24.414,87.891,44.434,1.465
1571283175.639,38.574,-630.371,-384.277,24.414,-42.480
1571283175.643,17.090,-96.680,75.195,27.344,-3.906
1571283175.647,17.090,526.367,580.078,50.293,29.785
1571283175.651,28.809,510.254,535.645,35.156,20.508
1571283175.655,36.133,188.965,235.352,10.254,-14.648
1571283175.659,34.668,171.875,245.117,20.020,-5.371
1571283175.663,29.297,322.754,431.641,43.457,23.438
1571283175.667,27.832,403.320,500.000,34.668,26.855
1571283175.671,38.086,238.281,303.711,12.695,-18.555
1571283175.675,42.969,79.102,174.805,19.531,-6.836
1571283175.678,40.039,213.867,354.004,40.527,71.777
1571283175.682,40.527,220.703,375.000,44.922,71.289
1571283175.686,45.410,113.281,220.215,24.902,1.953
1571283175.690,45.410,-11.719,77.148,16.113,-16.602
1571283175.694,40.527,-24.414,118.652,41.016,20.508
1571283175.698,29.785,-14.160,174.316,46.875,41.992
1571283175.702,24.414,159.668,250.000,21.973,21.484
1571283175.706,37.598,-3.906,41.504,16.113,-8.301
1571283175.710,29.785,-101.074,-0.977,26.367,19.531
1571283175.714,10.254,322.754,376.953,30.762,72.754
1571283175.718,12.695,397.949,382.324,20.020,50.293
1571283175.721,30.273,-202.637,-149.414,14.160,-16.113
1571283175.725,23.438,-566.406,-400.879,18.066,-14.648
1571283175.729,8.301,-332.520,-149.902,31.250,39.551
1571283175.733,7.324,219.727,259.277,28.320,86.914
1571283175.737,23.438,244.629,171.875,15.137,56.152
1571283175.741,34.180,-394.043,-342.285,19.531,22.949
1571283175.745,19.043,-209.961,-124.023,32.227,75.195
1571283175.749,18.555,521.484,431.152,48.828,107.910
1571283175.753,39.551,257.812,139.648,41.016,49.805
1571283175.757,46.387,-318.359,-329.590,26.367,31.738
1571283175.761,31.250,-83.008,-89.355,34.180,70.312
1571283175.764,21.973,421.875,328.125,44.922,96.191
1571283175.768,35.156,214.844,114.746,40.527,41.504
1571283175.772,47.852,-471.191,-453.125,29.785,6.348
1571283175.776,38.086,-583.496,-479.004,36.133,52.246
1571283175.780,20.020,-89.844,-43.945,41.504,80.078
1571283175.784,26.855,39.062,17.090,36.621,61.523
1571283175.788,48.828,-691.406,-591.309,28.320,2.930
1571283175.792,34.668,-671.875,-544.922,14.160,19.531
1571283175.796,23.438,157.715,142.090,25.391,92.285
1571283175.800,25.879,451.660,360.840,29.785,108.398
1571283175.803,39.551,62.988,-5.371,21.973,20.020
1571283175.807,42.480,-92.285,-127.930,19.531,29.297
1571283175.811,32.227,266.113,218.262,31.738,82.520
1571283175.815,32.227,458.496,395.508,37.598,71.777
1571283175.819,45.898,11.719,0.000,31.738,-1.465
1571283175.823,50.293,-616.699,-505.859,27.832,-50.293
1571283175.827,32.715,-335.938,-211.426,27.832,25.879
1571283175.831,32.227,-173.340,-41.016,42.480,39.551
1571283175.835,38.086,-354.004,-207.031,26.855,-4.395
1571283175.839,35.156,-162.109,-122.559,5.371,-12.207
1571283175.843,32.227,5.859,22.949,26.855,22.461
1571283175.846,20.996,289.062,309.570,45.898,49.805
1571283175.850,17.090,410.156,383.301,32.227,-0.977
1571283175.854,31.250,215.332,174.316,17.090,-22.949
1571283175.858,36.621,-44.922,-9.277,20.020,-0.488
1571283175.862,23.926,162.109,225.586,34.180,31.738
1571283175.866,22.949,354.004,383.789,39.551,43.457
1571283175.870,29.785,43.457,89.844,17.090,11.719
1571283175.874,37.598,-370.117,-247.070,16.602,-10.742
1571283175.878,35.645,-587.891,-345.215,37.598,-10.742
1571283175.882,22.949,-2.930,141.113,31.250,45.410
1571283175.886,35.645,329.590,297.852,23.438,31.738
1571283175.889,54.688,-304.688,-263.184,26.855,-26.367
1571283175.893,29.297,-316.895,-216.797,30.762,14.160
1571283175.897,10.254,327.148,315.430,37.598,59.570
1571283175.901,29.785,417.969,328.613,36.133,34.668
1571283175.905,43.945,-98.145,-128.906,20.508,-1.465
1571283175.909,33.203,-229.004,-197.754,20.508,25.879
1571283175.913,19.531,46.387,67.871,38.086,67.871
1571283175.917,20.020,209.473,188.477,28.809,79.590
1571283175.921,43.457,-362.305,-348.145,16.602,14.160
1571283175.925,41.016,-867.188,-750.488,13.184,-10.742
1571283175.928,12.695,13.672,24.902,17.090,91.797
1571283175.932,17.578,498.535,367.676,35.156,87.891
1571283175.936,33.691,45.898,-61.035,27.832,16.113
1571283175.940,43.457,-248.047,-307.617,22.461,17.578
1571283175.944,42.480,-26.855,-86.426,39.062,53.223
1571283175.948,27.832,86.914,36.621,38.574,66.895
1571283175.952,18.555,-3.906,-71.777,11.230,44.434
1571283175.956,32.227,-174.805,-247.559,4.883,23.926
1571283175.960,32.227,-288.086,-280.273,26.855,24.414
1571283175.964,21.973,-187.012,-120.605,39.551,41.992
1571283175.968,31.250,-425.293,-316.895,26.855,3.906
1571283175.971,23.926,-596.191,-521.484,-4.395,-39.062
1571283175.975,15.137,-239.258,-255.371,2.441,4.395
1571283175.979,9.766,235.840,166.504,27.832,83.496
1571283175.983,20.996,472.656,333.496,31.250,74.219
1571283175.987,33.691,331.543,149.902,19.531,22.461
1571283175.991,30.762,86.914,-40.527,21.484,14.648
1571283175.995,18.555,227.539,155.762,33.203,46.875
1571283175.999,17.090,499.512,400.879,35.645,58.594
1571283176.003,31.738,247.559,145.996,19.043,-4.883
1571283176.007,40.527,-315.430,-297.852,15.625,-21.973
1571283176.011,27.832,-280.273,-174.805,28.320,26.855
1571283176.014,15.137,334.473,356.445,30.273,67.871
1571283176.018,18.066,585.449,492.188,14.648,39.062
1571283176.022,34.180,300.781,229.004,11.230,4.395
1571283176.026,41.504,-231.445,-100.098,33.203,-2.930
1571283176.030,19.531,-83.008,118.164,36.133,22.949
1571283176.034,12.207,608.398,627.441,20.996,53.223
1571283176.038,33.203,307.129,317.383,18.066,0.488
1571283176.042,32.227,-41.992,85.938,21.973,3.906
1571283176.046,13.184,439.453,536.621,25.391,62.500
1571283176.050,19.043,812.500,810.547,33.203,55.176
1571283176.053,41.504,320.801,371.582,31.738,26.367
1571283176.057,49.805,-573.730,-308.105,20.996,-2.441
1571283176.061,25.879,-209.473,55.664,17.090,36.133
1571283176.065,17.578,648.926,709.473,26.855,65.918
1571283176.069,32.715,358.887,400.391,19.043,-10.742
1571283176.073,38.086,-117.188,18.066,10.742,-25.391
1571283176.077,25.391,166.016,295.410,20.020,16.113
1571283176.081,12.695,711.426,753.418,28.809,71.289
1571283176.085,22.949,618.164,636.719,19.531,45.898
1571283176.089,36.621,56.152,142.578,8.301,-14.648
1571283176.093,35.645,15.137,144.531,14.648,3.418
1571283176.096,24.902,434.570,520.508,28.320,49.805
1571283176.100,23.926,324.219,406.738,27.344,38.574
1571283176.104,37.598,-321.289,-147.461,15.625,-23.926
1571283176.108,34.668,-364.746,-173.828,16.602,-10.254
1571283176.112,26.367,247.559,342.773,34.668,65.918
1571283176.116,35.156,104.492,221.191,35.645,40.527
1571283176.120,35.645,-338.379,-177.246,7.812,-15.137
1571283176.124,30.273,-246.094,-146.973,4.883,-8.301
1571283176.128,23.926,27.832,99.121,27.832,40.039
1571283176.132,17.090,363.770,369.141,30.273,85.449
1571283176.136,21.484,370.117,296.875,15.137,63.477
1571283176.139,35.645,30.273,-26.367,15.625,25.391
1571283176.143,33.691,-72.266,-58.594,34.668,38.086
1571283176.147,24.414,32.227,78.125,42.480,63.965
1571283176.151,28.320,-50.781,-15.625,24.902,50.781
1571283176.155,31.738,-238.281,-229.004,5.859,19.043
1571283176.159,36.621,-428.223,-374.023,17.578,-0.488
1571283176.163,23.926,-481.445,-334.961,26.367,39.062
1571283176.167,6.836,-40.039,-6.836,8.301,57.617
1571283176.171,22.949,-79.590,-141.113,4.395,17.090
1571283176.175,28.320,-529.785,-485.840,12.207,14.648
1571283176.178,12.695,-188.477,-148.438,18.555,46.387
1571283176.182,4.883,369.141,279.297,14.648,70.312
1571283176.186,21.973,256.348,120.117,1.465,44.434
1571283176.190,39.062,-208.984,-255.371,2.441,20.020
1571283176.194,28.320,-270.508,-222.656,21.973,35.645
1571283176.198,14.648,20.996,53.223,28.320,71.777
1571283176.202,19.531,36.133,25.391,11.719,35.156
1571283176.206,33.203,-630.371,-580.566,0.488,-35.645
1571283176.210,16.113,-742.188,-614.746,3.906,-13.184
1571283176.214,0.488,191.406,210.449,19.531,66.406
1571283176.218,17.578,439.941,338.867,22.461,47.852
1571283176.221,34.180,-145.508,-176.270,9.277,-18.066
1571283176.225,29.297,-188.477,-166.016,15.137,13.184
1571283176.229,23.438,241.211,236.328,41.504,54.688
1571283176.233,23.438,291.504,275.879,39.062,33.691
1571283176.237,36.133,-67.871,-58.105,19.531,-16.602
1571283176.241,43.945,-387.207,-292.969,23.438,-0.977
1571283176.245,10.254,-107.910,5.859,20.996,65.430
1571283176.249,-0.977,146.484,202.148,15.137,54.688
1571283176.253,22.461,-469.727,-333.496,10.742,-28.809
1571283176.257,10.742,-681.641,-517.090,-6.836,-33.203
1571283176.261,3.906,-33.691,22.461,12.207,29.785
1571283176.264,4.883,291.992,305.176,28.320,48.340
1571283176.268,13.184,166.992,173.828,12.207,15.625
1571283176.272,24.414,-51.758,-37.109,4.883,0.488
1571283176.276,16.602,-41.016,7.324,19.043,13.184
1571283176.280,9.766,115.723,188.477,35.645,29.297
1571283176.284,7.324,68.359,141.113,19.043,45.898
1571283176.288,17.090,-410.156,-295.410,4.883,10.254
1571283176.292,15.625,-524.414,-374.512,10.254,9.277
1571283176.296,12.207,-334.961,-158.691,32.227,56.641
1571283176.300,12.207,-263.672,-108.398,29.785,62.500
1571283176.303,15.137,-88.867,-74.707,5.859,18.066
1571283176.307,26.367,-265.137,-260.742,15.625,-2.441
1571283176.311,24.414,-177.246,-133.301,35.645,32.227
1571283176.315,18.066,301.758,255.859,38.574,83.008
1571283176.319,27.832,324.219,186.523,26.367,51.270
1571283176.323,35.645,-258.301,-320.312,16.602,-7.812
1571283176.327,19.043,-273.438,-269.531,24.414,35.156
1571283176.331,14.160,244.629,164.551,34.668,79.102
1571283176.335,34.180,101.562,1.465,32.715,42.480
1571283176.339,45.898,-611.816,-611.816,23.438,-6.348
1571283176.343,28.809,-955.078,-884.277,18.066,-15.625
1571283176.346,5.371,-292.480,-282.715,16.602,56.152
1571283176.350,7.324,317.383,164.062,17.578,69.336
1571283176.354,26.367,-112.793,-270.020,10.742,5.371
1571283176.358,33.691,-434.082,-503.906,20.508,0.000
1571283176.362,16.113,62.988,-51.758,36.133,44.922
1571283176.366,17.090,401.367,199.707,33.203,46.387
1571283176.370,37.598,44.434,-138.184,20.020,10.742
1571283176.374,34.668,-272.461,-381.836,11.719,23.438
1571283176.378,20.020,12.207,-98.145,26.367,37.598
1571283176.382,11.230,257.812,126.953,34.668,60.059
1571283176.386,28.320,-272.949,-315.430,24.902,35.645
1571283176.389,34.180,-879.395,-803.711,10.742,-20.996
1571283176.393,7.812,-262.207,-272.949,5.371,32.715
1571283176.397,8.789,298.828,187.012,26.367,69.336
1571283176.401,22.461,138.184,26.367,22.461,18.066
1571283176.405,26.367,-60.547,-168.945,4.395,-9.766
1571283176.409,20.020,90.820,-13.184,13.184,21.973
1571283176.413,11.719,454.102,343.262,31.738,55.176
1571283176.417,21.484,500.488,384.277,29.297,38.574
1571283176.421,30.762,236.328,130.371,4.883,-3.418
1571283176.425,22.949,83.008,24.414,0.977,-3.906
1571283176.428,19.531,252.441,251.465,25.391,66.406
1571283176.432,25.879,55.664,145.508,30.762,63.477
1571283176.436,27.832,-75.195,2.441,3.906,6.836
1571283176.440,25.391,9.277,30.273,-2.930,-10.254
1571283176.444,15.625,180.176,228.027,15.137,28.320
1571283176.448,11.719,606.934,613.281,21.973,81.055
1571283176.452,19.531,691.895,631.836,10.742,52.734
1571283176.456,31.250,168.945,191.895,10.742,0.977
1571283176.460,21.973,49.805,173.828,23.438,15.625
1571283176.464,7.324,544.434,622.559,28.809,72.266
1571283176.468,12.207,744.629,732.910,19.531,59.570
1571283176.471,33.203,272.949,293.945,16.113,-20.996
1571283176.475,32.715,-181.641,-11.719,22.461,-24.902
1571283176.479,8.789,-28.809,197.266,28.320,28.320
1571283176.483,4.395,395.020,507.812,20.508,46.387
1571283176.487,27.344,348.633,386.719,12.207,15.625
1571283176.491,41.992,-332.520,-131.836,20.020,-9.766
1571283176.495,22.461,-215.332,54.688,27.344,30.273
1571283176.499,17.090,520.996,617.188,31.738,59.082
1571283176.503,29.785,421.387,449.707,21.484,32.227
1571283176.507,27.344,-41.016,52.246,12.207,4.883
1571283176.511,19.043,69.824,193.359,26.367,45.898
1571283176.514,11.230,407.715,476.562,35.645,71.289
1571283176.518,23.438,378.418,390.137,27.832,47.852
1571283176.522,46.387,-262.695,-160.156,31.738,-6.348
1571283176.526,38.086,-470.215,-262.207,39.551,2.441
1571283176.530,16.602,98.633,235.840,41.504,64.941
1571283176.534,29.297,246.582,300.293,42.480,50.293
1571283176.538,47.852,-566.895,-391.113,30.273,-1.953
1571283176.542,28.809,-597.168,-393.066,23.438,23.926
1571283176.546,15.625,217.285,263.184,37.598,64.453
1571283176.550,15.137,420.410,383.789,29.297,70.801
1571283176.553,30.762,83.496,45.898,10.742,29.297
1571283176.557,36.621,-43.457,-67.383,10.254,38.574
1571283176.561,21.973,410.156,347.168,25.879,118.652
1571283176.565,20.508,556.641,470.215,33.691,104.980
1571283176.569,30.273,4.395,-8.301,22.461,23.926
1571283176.573,36.621,-508.301,-416.504,17.578,3.418
1571283176.577,26.367,-289.551,-186.523,28.320,35.645
1571283176.581,28.320,-78.613,17.090,39.062,73.242
1571283176.585,31.738,-276.855,-186.523,21.973,32.715
1571283176.589,27.832,-250.977,-254.883,5.371,-10.742
1571283176.593,32.715,-164.062,-177.246,24.902,10.742
1571283176.596,19.531,145.996,124.023,37.109,57.617
1571283176.600,13.184,372.070,271.484,24.414,53.711
1571283176.604,23.926,107.422,-2.930,6.836,7.324
1571283176.608,28.320,-172.363,-193.359,15.137,13.184
1571283176.612,15.625,94.238,105.469,34.180,57.129
1571283176.616,11.230,238.770,229.492,33.203,43.945
1571283176.620,21.973,-156.738,-130.371,14.160,-8.789
1571283176.624,32.227,-544.434,-434.082,12.695,-16.113
1571283176.628,26.367,-563.965,-360.840,24.902,31.250
1571283176.632,15.137,27.832,126.953,23.926,57.617
1571283176.636,27.832,261.719,212.891,18.066,4.883
1571283176.639,42.480,-152.344,-145.996,18.066,0.977
1571283176.643,30.762,-157.715,-85.938,30.273,11.719
1571283176.647,9.766,440.430,429.199,26.367,63.965
1571283176.651,30.273,580.078,492.188,20.020,63.965
1571283176.655,47.852,-81.543,-69.336,19.043,-15.137
1571283176.659,30.273,-263.184,-139.648,20.020,4.395
1571283176.663,25.879,104.492,212.891,38.574,51.758
1571283176.667,29.297,103.516,210.938,38.086,35.645
1571283176.671,41.016,-543.945,-391.113,20.020,-32.227
1571283176.675,29.785,-810.059,-614.258,8.789,-32.227
1571283176.678,14.160,-83.496,61.035,25.391,41.016
1571283176.682,27.832,228.516,283.691,36.621,35.156
1571283176.686,37.598,-50.781,-3.906,14.160,-10.742
1571283176.690,38.574,-271.973,-189.453,10.742,-13.672
1571283176.694,31.738,109.375,161.621,34.668,33.691
1571283176.698,37.598,347.168,356.445,48.340,29.785
1571283176.702,43.945,80.078,99.609,32.715,-0.488
1571283176.706,49.805,-138.184,-108.887,20.996,12.695
1571283176.710,40.527,-176.270,-101.562,31.250,29.297
1571283176.714,29.297,-79.590,29.785,48.828,47.363
1571283176.718,37.109,-385.254,-226.074,34.180,13.184
1571283176.721,34.668,-599.121,-456.543,5.371,-18.555
1571283176.725,35.156,-282.227,-219.727,20.996,1.465
1571283176.729,36.621,77.148,105.469,45.898,51.758
1571283176.733,35.645,152.344,142.090,42.969,44.434
1571283176.737,43.457,-154.785,-168.457,28.320,5.859
1571283176.741,40.039,-373.535,-348.145,32.715,4.395
1571283176.745,24.902,-61.523,-48.340,44.922,41.504
1571283176.749,24.902,292.969,235.352,39.551,82.031
1571283176.753,30.762,225.098,97.656,20.508,50.293
1571283176.757,40.527,-383.789,-425.293,27.344,-28.809
1571283176.761,33.691,-874.023,-725.586,42.969,-41.016
1571283176.764,6.348,-603.516,-449.707,24.902,20.996
1571283176.768,1.465,-28.809,-78.613,3.906,40.527
1571283176.772,22.461,-211.914,-308.105,5.371,-6.836
1571283176.776,12.695,-251.465,-282.715,17.578,29.785
1571283176.780,-1.953,348.633,249.512,30.762,99.609
1571283176.784,6.348,497.559,313.477,22.949,35.645
1571283176.788,21.484,-24.414,-145.508,10.254,-25.391
1571283176.792,20.996,-373.535,-367.188,18.066,-3.418
1571283176.796,6.348,-78.125,-51.758,28.809,35.645
1571283176.800,10.742,402.344,312.988,26.855,55.176
1571283176.803,37.109,-36.133,-96.680,24.414,1.465
1571283176.807,36.133,-758.301,-625.977,19.531,22.461
1571283176.811,7.324,-327.148,-227.539,20.508,59.082
1571283176.815,6.836,411.621,320.801,31.738,58.594
1571283176.819,24.902,195.801,75.684,16.113,24.902
1571283176.823,33.691,-207.520,-247.559,4.395,17.578
1571283176.827,29.297,177.734,134.766,27.832,69.824
1571283176.831,17.090,684.570,576.172,41.016,100.586
1571283176.835,28.809,497.559,395.020,30.273,44.434
1571283176.839,46.387,-38.086,-48.340,22.461,-8.789
1571283176.843,38.574,70.801,97.656,35.156,31.738
1571283176.846,23.926,603.027,576.660,45.898,89.355
1571283176.850,27.832,532.227,506.348,40.039,60.547
1571283176.854,42.969,-178.223,-79.590,29.785,-7.324
1571283176.858,31.738,-275.879,-113.770,21.973,6.836
1571283176.862,19.531,399.414,468.750,34.668,63.965
1571283176.866,39.551,300.293,396.973,41.016,61.523
1571283176.870,49.316,-285.156,-95.215,14.648,-2.441
1571283176.874,31.738,-89.355,46.387,7.812,13.672
1571283176.878,26.367,310.059,407.715,37.109,47.363
1571283176.882,27.344,471.680,559.570,49.316,38.086
1571283176.886,29.297,416.992,475.098,25.879,14.648
1571283176.889,34.180,154.785,232.422,15.625,-11.719
1571283176.893,30.762,196.777,326.660,34.668,25.391
1571283176.897,34.180,336.914,495.605,51.270,49.316
1571283176.901,40.039,265.137,416.992,33.203,42.480
1571283176.905,47.852,15.137,167.969,24.902,21.973
1571283176.909,52.734,-192.871,41.504,45.898,24.902
1571283176.913,31.738,-197.266,118.164,45.410,39.551
1571283176.917,10.742,148.438,357.422,21.973,30.273
1571283176.921,20.508,211.426,302.246,11.719,2.930
1571283176.925,25.879,-63.965,82.520,19.531,9.766
1571283176.928,16.113,196.777,348.145,39.062,41.504
1571283176.932,12.207,590.820,640.137,38.086,45.898
1571283176.936,26.367,351.562,372.070,20.996,0.977
1571283176.940,36.133,-181.641,-58.105,18.066,-24.414
1571283176.944,22.461,-172.363,28.320,30.273,25.391
1571283176.948,16.113,184.082,333.496,39.551,73.242
1571283176.952,28.320,82.031,190.918,26.855,41.992
1571283176.956,40.039,-662.598,-455.078,20.508,-15.137
1571283176.960,19.531,-696.289,-427.734,22.461,15.137
1571283176.964,-4.395,93.262,223.633,13.672,75.195
1571283176.968,19.531,272.949,271.484,11.230,52.246
1571283176.971,40.527,-106.934,-100.586,14.648,20.996
1571283176.975,14.160,-125.000,-99.609,11.230,40.039
1571283176.979,-1.953,392.578,339.844,19.531,88.379
1571283176.983,11.719,470.215,361.816,23.926,81.055
1571283176.987,26.367,-21.484,-96.191,13.672,22.461
1571283176.991,23.926,-447.266,-419.922,9.766,16.113
1571283176.995,10.742,-229.980,-171.875,19.043,62.988
1571283176.999,12.695,76.172,67.383,19.531,70.801
1571283177.003,23.926,-521.973,-455.078,0.000,3.906
1571283177.007,18.066,-760.254,-645.508,-14.160,-7.324
1571283177.011,6.348,-197.754,-163.574,7.812,29.297
1571283177.014,0.488,176.758,151.855,20.996,58.594
1571283177.018,12.695,5.859,-25.879,9.277,35.156
1571283177.022,17.090,-349.121,-341.309,-0.488,10.254
1571283177.026,6.836,-110.352,-111.328,12.207,46.387
1571283177.030,2.441,294.434,256.836,28.320,79.590
1571283177.034,12.695,370.605,290.039,19.531,73.730
1571283177.038,27.832,-80.566,-120.117,13.672,25.879
1571283177.042,19.531,-417.969,-337.891,19.043,18.066
1571283177.046,15.625,-374.512,-210.938,34.180,51.270
1571283177.050,14.648,-327.637,-169.434,26.367,32.715
1571283177.053,18.066,-173.340,-131.836,4.883,-5.371
1571283177.057,26.367,-203.613,-177.246,12.207,12.207
1571283177.061,13.184,19.043,65.430,32.227,56.641
1571283177.065,6.836,360.840,341.309,32.715,52.734
1571283177.069,24.414,277.344,210.938,19.531,14.648
1571283177.073,38.574,-142.090,-132.324,19.531,5.859
1571283177.077,30.273,-229.980,-116.699,37.598,35.645
1571283177.081,23.926,189.453,259.277,48.340,62.012
1571283177.085,31.738,157.227,185.059,35.156,38.086
1571283177.089,35.645,-506.836,-371.094,20.020,-0.977
1571283177.093,30.273,-865.234,-575.684,22.949,10.742
1571283177.096,14.160,-255.859,-37.109,27.344,57.617
1571283177.100,20.508,341.309,351.074,24.414,50.781
1571283177.104,38.574,-94.727,-76.660,17.090,0.000
1571283177.108,31.738,-398.438,-295.898,17.578,-2.930
1571283177.112,8.789,147.461,185.059,18.066,61.035
1571283177.116,10.254,541.992,468.262,14.648,80.566
1571283177.120,24.902,-14.160,-40.527,5.371,5.859
1571283177.124,27.344,-471.680,-387.207,6.836,6.348
1571283177.128,16.113,11.230,43.945,24.902,70.801
1571283177.132,15.137,248.535,251.953,34.180,87.402
1571283177.136,43.457,-441.895,-404.297,25.391,-17.578
1571283177.139,47.363,-1000.000,-974.609,13.184,-87.402
1571283177.143,13.184,-503.418,-425.293,14.648,7.324
1571283177.147,6.348,196.777,164.062,32.227,69.824
1571283177.151,23.926,-78.613,-123.047,25.391,6.836
1571283177.155,32.227,-606.934,-571.289,9.766,-26.367
1571283177.159,24.902,-365.723,-359.863,15.137,14.648
1571283177.163,20.508,85.449,28.809,33.691,45.410
1571283177.167,26.855,144.531,49.316,28.320,36.621
1571283177.171,36.621,-121.094,-225.098,4.395,-0.977
1571283177.175,38.086,-186.035,-269.043,14.160,19.043
1571283177.178,34.180,-120.117,-151.855,46.387,37.598
1571283177.182,31.250,-420.410,-351.562,46.875,23.438
1571283177.186,30.762,-512.207,-474.609,18.066,-3.906
1571283177.190,36.133,-472.168,-482.910,17.578,2.441
1571283177.194,26.855,-182.617,-202.148,38.574,65.430
1571283177.198,22.949,227.539,128.418,48.340,59.082
1571283177.202,32.715,329.102,147.949,35.156,37.598
1571283177.206,44.922,42.480,-120.117,27.832,10.254
1571283177.210,22.949,-7.324,-91.797,28.809,28.320
1571283177.214,-3.418,341.309,239.746,27.832,59.082
1571283177.218,7.812,438.477,270.508,22.461,26.367
1571283177.221,23.438,141.602,-13.672,15.137,11.719
1571283177.225,26.855,-187.012,-211.426,29.297,21.484
1571283177.229,19.043,-67.383,-9.277,44.434,48.828
1571283177.233,13.184,356.934,324.219,27.832,49.316
1571283177.237,26.855,350.586,253.906,11.719,24.902
1571283177.241,37.598,-234.863,-174.316,22.949,7.324
1571283177.245,24.902,-191.406,-37.109,31.738,33.691
1571283177.249,15.137,461.914,480.469,31.738,69.336
1571283177.253,25.391,404.785,349.121,20.996,22.461
1571283177.257,34.668,49.805,57.617,22.949,5.371
1571283177.261,19.043,413.086,422.363,35.645,75.684
1571283177.264,14.160,917.480,842.773,34.668,100.098
1571283177.268,36.621,677.734,611.328,26.367,46.387
1571283177.272,55.664,-89.844,3.418,27.344,-5.859
1571283177.276,41.992,-232.910,-20.508,38.086,20.996
1571283177.280,21.973,362.305,493.164,39.062,65.918
1571283177.284,39.551,401.367,463.867,32.227,22.949
1571283177.288,50.781,-462.891,-251.465,17.090,-40.039
1571283177.292,24.414,-341.309,-104.492,9.766,23.926
1571283177.296,19.531,556.152,630.859,36.621,82.520
1571283177.300,33.203,636.719,664.062,42.480,43.457
1571283177.303,37.598,107.422,212.891,14.160,0.000
1571283177.307,32.715,6.348,144.531,7.324,10.742
1571283177.311,23.438,518.066,590.332,31.250,63.965
1571283177.315,18.066,714.844,747.070,35.156,66.406
1571283177.319,31.250,216.309,305.664,25.391,1.465
1571283177.323,38.574,-254.395,-74.707,24.414,-0.488
1571283177.327,25.879,186.523,319.336,33.691,70.312
1571283177.331,32.715,317.383,440.918,52.246,77.637
1571283177.335,36.621,-47.852,124.512,29.297,43.945
1571283177.339,34.668,-110.840,0.977,8.789,-7.324
1571283177.343,31.250,-13.184,103.516,26.367,15.137
1571283177.346,20.020,379.395,477.051,41.504,92.773
1571283177.350,20.508,583.984,602.051,31.250,84.961
1571283177.354,37.598,299.805,305.176,15.137,27.832
1571283177.358,41.504,-103.516,9.277,25.391,8.789
1571283177.362,24.902,154.785,297.363,40.527,82.031
1571283177.366,27.344,321.289,413.574,39.551,83.984
1571283177.370,35.645,-118.164,-3.418,21.484,17.578
1571283177.374,42.480,-453.613,-275.879,19.531,0.000
1571283177.378,33.203,-680.664,-374.512,36.621,11.719
1571283177.382,12.695,-248.047,-14.648,35.645,40.039
1571283177.386,30.762,108.398,161.621,26.367,15.625
1571283177.389,50.293,-293.945,-201.172,26.367,3.906
1571283177.393,37.598,-152.832,-28.320,36.133,58.105
1571283177.397,24.414,483.398,492.188,41.992,100.098
1571283177.401,33.691,503.906,435.547,35.645,55.664
1571283177.405,44.922,-113.281,-99.121,26.855,8.789
1571283177.409,32.227,-199.707,-111.328,33.203,50.781
1571283177.413,22.949,186.523,236.816,49.805,100.098
1571283177.417,28.320,41.016,124.023,41.016,56.152
1571283177.421,44.434,-630.371,-542.480,26.367,-39.062
1571283177.425,44.434,-870.117,-779.297,27.344,-46.875
1571283177.428,22.949,-88.867,6.348,38.086,50.293
1571283177.432,22.461,428.711,398.438,42.969,72.754
1571283177.436,26.367,24.902,1.953,18.066,7.812
1571283177.440,25.879,-307.129,-266.602,8.301,-5.371
1571283177.444,23.926,83.496,91.309,32.227,42.480
1571283177.448,28.320,459.473,407.715,44.434,92.773
1571283177.452,32.227,178.711,131.836,21.484,39.551
1571283177.456,28.320,-253.418,-233.398,-0.488,-15.137
1571283177.460,21.484,-269.531,-167.969,15.137,20.996
1571283177.464,12.695,-143.066,-0.488,33.203,39.551
1571283177.468,18.555,-411.133,-215.820,14.160,12.695
1571283177.471,20.508,-704.590,-486.328,-10.254,-13.672
1571283177.475,13.672,-386.719,-220.703,6.348,30.762
1571283177.479,5.371,168.945,255.371,28.320,83.496
1571283177.483,12.207,366.211,378.906,23.438,62.500
1571283177.487,28.320,189.453,168.945,7.324,12.695
1571283177.491,33.691,51.758,69.824,9.766,24.414
1571283177.495,20.508,262.207,312.012,30.273,76.660
1571283177.499,12.207,435.547,455.078,31.250,68.359
1571283177.503,30.762,179.199,180.176,15.137,-9.277
1571283177.507,44.922,-335.938,-226.074,19.043,-13.672
1571283177.511,37.598,-617.676,-346.191,33.691,15.625
1571283177.514,21.484,-442.871,-150.391,26.855,21.484
1571283177.518,21.484,-3.418,126.953,7.812,10.254
1571283177.522,40.039,-206.543,-102.051,11.719,-39.551
1571283177.526,28.809,-175.781,-6.836,21.484,25.879
1571283177.530,16.602,232.422,366.211,30.273,73.242
1571283177.534,20.508,420.410,459.961,20.020,48.340
1571283177.538,36.621,108.398,145.020,15.137,22.461
1571283177.542,37.598,-170.410,-49.316,26.367,19.531
1571283177.546,19.043,194.336,288.574,29.785,41.992
1571283177.550,20.508,440.918,448.242,35.645,38.086
1571283177.553,46.875,-163.574,-88.379,41.504,-15.625
1571283177.557,46.875,-933.594,-722.168,36.621,-43.457
1571283177.561,15.137,-412.598,-228.027,34.668,44.922
1571283177.565,13.184,361.816,398.438,37.598,81.055
1571283177.569,34.180,75.195,83.008,26.367,17.090
1571283177.573,40.039,-384.277,-284.668,17.578,5.371
1571283177.577,7.324,-151.367,-40.527,14.648,46.387
1571283177.581,-16.113,364.258,373.047,7.812,95.703
1571283177.585,-11.719,218.262,173.340,-8.301,66.406
1571283177.589,-12.207,-436.523,-409.668,-29.297,-10.742
1571283177.593,-20.020,-394.531,-334.473,-27.832,-3.906
1571283177.596,-42.480,121.094,125.977,-19.531,53.223
1571283177.600,-39.062,-9.277,-0.488,-31.250,26.367
1571283177.604,-52.246,-667.969,-550.781,-76.660,-26.367
1571283177.608,-93.262,-620.117,-479.004,-101.074,-4.883
1571283177.612,-108.398,180.176,203.613,-82.520,67.871
1571283177.616,-112.793,184.082,194.824,-93.262,58.594
1571283177.620,-122.070,-227.051,-190.918,-132.324,16.113
1571283177.624,-137.695,-72.754,-108.398,-146.973,19.043
1571283177.628,-147.949,282.715,195.801,-136.230,48.340
1571283177.632,-148.438,515.137,359.375,-125.488,63.477
1571283177.636,-149.414,303.223,86.426,-140.137,3.418
1571283177.639,-158.691,-99.121,-298.340,-165.527,-20.508
1571283177.643,-160.156,-188.965,-332.520,-143.555,7.812
1571283177.647,-164.551,77.637,-89.844,-120.117,36.133
1571283177.651,-167.480,136.719,-90.820,-151.367,15.625
1571283177.655,-168.457,79.590,-179.199,-175.293,-5.859
1571283177.659,-165.527,384.277,140.137,-153.320,47.852
1571283177.663,-162.109,630.371,442.383,-130.859,65.430
1571283177.667,-159.180,912.109,727.539,-134.766,19.531
1571283177.671,-130.371,-982.910,786.621,-127.441,-14.648
1571283177.675,-125.977,986.328,824.219,-114.258,18.066
1571283177.678,-150.391,-998.535,994.629,-112.305,53.223
1571283177.682,-153.320,999.512,-997.070,-119.629,40.039
1571283177.686,-108.887,999.512,994.629,-104.492,-0.488
1571283177.690,-99.609,999.512,984.375,-92.285,-10.254
1571283177.694,-129.395,999.023,990.723,-103.027,21.973
1571283177.698,-107.422,997.559,999.512,-95.215,67.383
1571283177.702,-59.570,-992.188,-988.281,-70.312,31.250
1571283177.706,-60.547,951.172,882.324,-75.684,-34.180
1571283177.710,-90.820,950.684,886.230,-84.473,15.137
1571283177.714,-100.586,-992.188,-982.422,-71.777,61.523
1571283177.718,-65.430,997.559,994.629,-63.477,27.344
1571283177.721,-33.203,998.535,988.770,-66.406,7.812
1571283177.725,-52.246,999.512,997.559,-75.195,36.621
1571283177.729,-58.594,999.512,-999.512,-52.246,69.824
1571283177.733,-38.086,999.512,998.535,-30.273,80.566
1571283177.737,-11.719,999.512,999.512,-30.762,9.277
1571283177.741,1.953,999.512,999.512,-10.254,7.324
1571283177.745,-9.766,999.512,999.512,8.301,67.871
1571283177.749,-0.977,999.512,999.512,24.902,89.844
1571283177.753,22.949,999.512,999.512,21.484,20.020
1571283177.757,23.438,999.512,999.512,25.391,-7.812
1571283177.761,29.297,999.512,999.512,78.125,63.965
1571283177.764,36.621,999.512,999.512,81.055,95.215
1571283177.768,44.434,999.512,999.512,32.715,53.223
1571283177.772,49.805,999.512,999.512,20.508,29.297
1571283177.776,51.758,998.047,999.512,51.758,61.035
1571283177.780,52.734,996.582,999.512,67.871,123.047
1571283177.784,62.500,-985.352,999.512,58.594,95.703
1571283177.788,84.961,893.066,999.512,73.242,25.391
1571283177.792,76.660,921.387,999.512,83.984,61.523
1571283177.796,74.219,904.785,999.512,104.492,70.312
1571283177.800,80.078,853.516,999.512,116.699,48.340
1571283177.803,77.148,982.422,999.512,84.473,54.688
1571283177.807,87.402,875.000,999.512,83.984,48.340
1571283177.811,78.613,864.746,999.512,87.891,81.055
1571283177.815,78.125,997.559,999.512,65.918,88.379
1571283177.819,91.309,843.262,999.512,43.945,37.109
1571283177.823,88.867,402.344,-1000.000,33.203,16.602
1571283177.827,73.730,444.336,995.117,44.434,59.082
1571283177.831,69.824,775.391,997.070,62.988,95.703
1571283177.835,82.520,440.918,982.422,70.801,48.828
1571283177.839,76.660,-176.270,743.652,62.500,34.668
1571283177.843,70.312,-426.758,644.043,80.078,49.805
1571283177.846,69.824,101.562,939.453,93.262,78.613
1571283177.850,71.777,552.734,-957.520,90.332,69.824
1571283177.854,76.660,128.418,877.930,85.449,26.855
1571283177.858,82.520,19.531,870.117,100.098,51.758
1571283177.862,77.148,535.645,-988.281,125.488,79.102
1571283177.866,55.664,611.816,-986.816,119.141,54.199
1571283177.870,60.059,120.605,901.367,93.262,22.949
1571283177.874,61.523,5.859,900.879,84.473,30.762
1571283177.878,44.434,471.680,990.723,68.359,58.594
1571283177.882,55.664,698.242,-947.754,58.594,89.844
1571283177.886,95.703,51.270,793.945,67.871,18.555
1571283177.889,88.379,-442.383,600.098,42.480,-16.602
1571283177.893,53.223,331.055,975.586,39.062,74.219
1571283177.897,44.434,885.254,-980.957,56.152,84.473
1571283177.901,49.316,665.527,983.398,48.828,41.992
1571283177.905,73.242,410.156,-997.559,54.199,30.273
1571283177.909,53.711,658.691,999.512,69.336,69.824
1571283177.913,40.527,875.000,999.512,77.148,59.570
1571283177.917,62.012,633.789,999.512,66.895,-15.137
1571283177.921,45.410,471.191,999.023,26.855,-6.836
1571283177.925,44.922,500.488,-1000.000,30.273,28.809
1571283177.928,59.570,634.277,999.512,70.312,57.129
1571283177.932,52.734,416.504,989.746,54.688,32.715
1571283177.936,47.363,331.055,995.605,19.531,-10.742
1571283177.940,38.086,536.133,-999.023,28.809,-9.277
1571283177.944,13.184,729.004,998.535,32.227,16.602
1571283177.948,3.418,910.645,999.512,14.160,32.715
1571283177.952,3.418,961.426,999.512,14.648,27.344
1571283177.956,13.672,771.973,999.512,29.297,-0.488
1571283177.960,22.949,812.012,999.512,34.668,10.254
1571283177.964,22.461,977.539,999.512,45.898,39.062
1571283177.968,26.855,-986.816,999.512,47.363,31.738
1571283177.971,29.785,923.828,999.512,19.531,20.508
1571283177.975,20.996,858.398,999.512,16.113,49.805
1571283177.979,20.020,950.195,999.512,41.504,60.059
1571283177.983,23.438,-988.770,999.512,30.273,50.293
1571283177.987,27.344,959.961,999.512,13.672,30.762
1571283177.991,29.297,641.113,999.023,27.832,14.648
1571283177.995,23.438,749.512,999.023,31.250,42.480
1571283177.999,23.926,-943.848,999.512,23.926,52.734
1571283178.003,29.785,951.660,999.512,16.602,17.578
1571283178.007,30.762,873.535,-1000.000,14.160,15.137
1571283178.011,7.812,972.168,997.559,18.066,50.293
1571283178.014,2.441,-964.355,-996.582,32.227,62.012
1571283178.018,25.879,912.109,989.746,40.527,12.207
1571283178.022,32.227,731.934,972.656,30.273,-13.672
1571283178.026,22.949,889.160,987.793,32.715,32.715
1571283178.030,16.602,-962.891,-989.258,40.527,57.129
1571283178.034,23.438,956.543,988.770,36.621,34.180
1571283178.038,28.809,539.551,720.703,21.484,12.207
1571283178.042,14.160,687.500,810.547,22.949,34.180
1571283178.046,20.996,-950.684,-969.727,58.594,76.172
1571283178.050,28.809,949.219,987.793,60.547,75.195
1571283178.053,21.484,759.277,854.492,31.738,24.414
1571283178.057,37.109,708.496,811.523,53.223,33.691
1571283178.061,47.363,941.895,978.027,82.520,42.480
1571283178.065,32.715,987.305,-987.305,69.824,20.020
1571283178.069,41.016,606.445,750.488,62.012,28.320
1571283178.073,51.270,138.672,406.738,50.293,35.156
1571283178.077,36.621,458.984,710.938,49.316,44.434
1571283178.081,38.574,556.152,823.730,59.570,44.922
1571283178.085,47.363,89.355,458.008,36.621,-4.883
1571283178.089,36.621,154.785,500.488,27.832,9.277
1571283178.093,35.645,449.219,778.320,54.688,58.594
1571283178.096,40.039,583.008,935.059,75.195,54.688
1571283178.100,38.086,628.906,958.008,59.082,27.344
1571283178.104,46.875,489.746,818.359,52.246,2.930
1571283178.108,47.363,374.023,780.273,68.359,41.504
1571283178.112,39.062,626.953,986.816,69.824,72.754
1571283178.116,40.039,542.969,919.434,57.129,29.297
1571283178.120,46.387,81.055,568.359,40.527,2.930
1571283178.124,47.363,-212.402,325.195,31.738,8.789
1571283178.128,41.992,-380.859,265.137,35.156,17.090
1571283178.132,40.527,-42.969,548.828,34.668,31.250
1571283178.136,41.992,212.891,664.062,27.344,34.668
1571283178.139,44.922,-182.129,321.777,18.066,41.016
1571283178.143,40.527,-187.500,367.188,26.855,58.594
1571283178.147,27.344,266.113,730.957,42.480,76.660
1571283178.151,46.387,36.621,510.742,51.270,46.875
1571283178.155,54.199,-578.125,14.160,42.480,33.691
1571283178.159,39.551,-557.617,62.500,46.875,55.664
1571283178.163,34.180,-333.496,249.023,63.965,57.129
1571283178.167,36.133,-399.414,218.262,52.734,56.152
1571283178.171,59.570,-748.047,-338.867,54.199,-7.812
1571283178.175,51.758,-931.152,-613.770,53.711,-15.137
1571283178.178,20.996,-419.434,62.012,47.852,74.219
1571283178.182,28.809,-81.543,292.969,51.270,95.215
1571283178.186,56.641,-553.711,-172.363,58.105,53.711
1571283178.190,56.641,-886.230,-454.590,58.105,44.922
1571283178.194,33.691,-508.301,-150.879,55.664,81.055
1571283178.198,30.762,-324.707,-41.992,73.242,72.754
1571283178.202,39.551,-628.906,-340.820,57.617,53.711
1571283178.206,51.758,-920.898,-697.266,32.715,37.109
1571283178.210,39.551,-942.871,-714.844,35.645,39.551
1571283178.214,21.973,-891.602,-622.070,41.504,63.965
1571283178.218,38.086,-953.125,-884.277,40.527,6.836
1571283178.221,40.527,-995.117,-1000.000,20.020,-20.996
1571283178.225,29.297,-882.324,-856.445,16.113,29.785
1571283178.229,31.738,-728.027,-686.035,49.316,69.824
1571283178.233,46.875,-777.344,-770.020,70.312,62.500
1571283178.237,25.391,-906.738,-925.293,22.949,25.879
1571283178.241,-9.277,-980.469,-980.957,-6.836,-0.977
1571283178.245,-4.883,-950.195,-949.219,6.836,20.020
1571283178.249,-2.441,-825.195,-875.977,0.977,52.734
1571283178.253,-15.137,-859.863,-916.992,-17.090,17.578
1571283178.257,-37.598,-977.539,-979.004,-43.945,-20.020
1571283178.261,-48.828,-975.586,-967.285,-41.992,-3.906
1571283178.264,-38.574,-942.871,-971.191,-38.574,8.789
1571283178.268,-63.965,-849.609,-960.938,-78.125,-1.465
1571283178.272,-65.918,-892.578,-980.957,-80.078,-10.742
1571283178.276,-59.570,-774.414,-915.527,-55.664,23.438
1571283178.280,-74.219,-272.461,-637.207,-53.223,72.266
1571283178.284,-71.777,-37.598,-603.516,-63.477,48.828
1571283178.288,-45.898,-432.129,-914.551,-53.711,-18.555
1571283178.292,-27.832,-559.082,-895.020,-25.879,-12.207
1571283178.296,-43.457,112.305,-446.289,-15.137,56.641
1571283178.300,-41.992,561.523,-198.242,-20.508,50.781
1571283178.303,-14.648,90.332,-595.703,-24.902,-11.719
1571283178.307,1.465,-587.402,-1000.000,-18.066,-42.969
1571283178.311,-11.719,18.066,-538.574,-24.902,21.973
1571283178.315,-10.742,908.203,54.688,-25.879,60.547
1571283178.319,13.672,622.070,-238.281,-7.324,1.465
1571283178.323,21.484,155.762,-601.562,1.465,-4.883
1571283178.327,20.996,596.680,-195.801,18.555,40.527
1571283178.331,2.930,-937.988,219.727,-6.348,55.664
1571283178.335,-9.766,781.250,-69.336,-33.203,-12.695
1571283178.339,1.465,332.031,-493.652,-21.484,-40.527
1571283178.343,-4.395,616.699,-218.750,-12.695,28.809
1571283178.346,-10.254,-966.797,161.621,-1.465,41.016
1571283178.350,15.625,815.430,-45.410,9.766,8.301
1571283178.354,45.410,207.520,-559.570,28.320,-14.648
1571283178.358,21.973,244.141,-482.422,19.531,15.137
1571283178.362,0.977,921.875,119.141,20.508,76.172
1571283178.366,28.320,662.109,-100.098,38.086,22.461
1571283178.370,33.203,-8.789,-662.109,20.996,-43.457
1571283178.374,38.086,186.035,-469.238,28.809,12.207
1571283178.378,42.480,414.551,-221.680,48.340,33.203
1571283178.382,26.367,500.488,-112.305,37.598,18.066
1571283178.386,27.832,500.488,-138.184,22.949,11.230
1571283178.389,30.273,308.105,-291.016,13.672,15.137
1571283178.393,21.484,357.422,-176.758,23.438,37.598
1571283178.397,21.973,472.168,-23.926,34.668,53.223
1571283178.401,36.621,185.059,-257.812,27.344,14.648
1571283178.405,44.922,-124.023,-500.977,14.648,16.602
1571283178.409,34.180,-49.316,-378.418,23.438,48.340
1571283178.413,22.461,-117.676,-350.098,30.273,41.504
1571283178.417,20.996,55.664,-204.590,16.113,39.062
1571283178.421,37.109,66.406,-239.258,22.461,37.109
1571283178.425,33.203,-105.957,-335.938,29.297,61.523
1571283178.428,13.184,342.773,91.797,36.133,118.652
1571283178.432,19.531,661.133,337.891,39.062,125.000
1571283178.436,40.527,301.270,25.391,36.621,101.074
1571283178.440,33.203,106.445,-95.703,31.250,136.719
1571283178.444,30.762,272.949,106.934,41.992,164.062
1571283178.448,35.156,345.215,188.477,49.316,142.090
1571283178.452,39.062,173.340,15.625,38.086,105.469
1571283178.456,55.176,-417.969,-441.406,38.574,101.562
1571283178.460,39.551,-521.973,-436.523,37.598,132.812
1571283178.464,19.531,247.559,184.570,42.969,144.531
1571283178.468,40.039,365.723,219.727,51.270,113.770
1571283178.471,49.805,-199.219,-235.352,36.133,78.613
1571283178.475,28.809,-265.137,-219.727,19.531,79.102
1571283178.479,18.555,208.496,213.867,19.531,99.121
1571283178.483,32.715,320.801,307.129,21.484,109.863
1571283178.487,50.293,-110.840,-55.664,24.902,74.219
1571283178.491,41.504,-461.914,-297.363,19.531,46.875
1571283178.495,7.812,-240.234,-59.570,8.789,74.707
1571283178.499,12.695,-87.402,49.805,18.066,67.871
1571283178.503,28.809,-324.707,-200.684,1.953,30.762
1571283178.507,22.949,-299.316,-206.055,-15.625,41.504
1571283178.511,10.254,118.652,141.602,-4.395,55.176
1571283178.514,18.066,268.555,262.207,7.324,53.223
1571283178.518,39.062,-360.840,-251.953,0.977,-3.906
1571283178.522,31.250,-551.758,-408.203,-10.254,-12.207
1571283178.526,23.926,-47.852,11.719,5.859,32.715
1571283178.530,26.367,164.062,190.430,23.926,12.695
1571283178.534,33.203,107.422,115.234,18.555,-6.348
1571283178.538,39.551,-279.785,-227.051,3.418,-27.344
1571283178.542,24.902,-495.605,-356.445,5.859,-28.320
1571283178.546,21.484,-517.090,-311.035,23.926,-33.203
1571283178.550,21.484,-563.965,-346.680,8.789,-43.457
1571283178.553,16.602,-297.852,-202.148,-7.324,-21.973
1571283178.557,17.090,-285.156,-218.262,5.859,-28.809
1571283178.561,6.348,-111.816,-29.785,11.719,-6.348
1571283178.565,0.488,167.969,189.941,4.883,-3.906
1571283178.569,18.066,-5.859,-7.812,-0.977,-58.105
1571283178.573,33.203,-409.668,-318.359,3.906,-59.570
1571283178.577,23.926,-373.047,-215.332,12.207,-40.527
1571283178.581,15.625,4.883,104.004,14.160,-31.738
1571283178.585,30.762,-186.035,-77.637,10.742,-41.504
1571283178.589,52.246,-778.809,-564.453,12.207,-61.523
1571283178.593,44.434,-954.590,-682.617,24.414,-52.734
1571283178.596,20.996,-360.840,-161.133,41.016,-1.465
1571283178.600,38.574,39.551,100.098,24.902,-20.020
1571283178.604,52.246,-604.980,-473.633,2.930,-81.543
1571283178.608,33.691,-709.473,-505.371,13.184,-31.250
1571283178.612,26.367,-11.230,81.543,29.785,23.438
1571283178.616,35.645,312.500,295.898,34.180,26.367
1571283178.620,42.480,-179.199,-146.973,27.344,-34.668
1571283178.624,37.598,-610.352,-461.426,20.996,-52.734
1571283178.628,41.016,-111.816,-14.160,39.551,23.926
1571283178.632,36.621,118.652,178.711,50.781,33.691
1571283178.636,38.574,-500.488,-377.441,31.250,-9.766
1571283178.639,55.176,-944.824,-768.066,27.344,-28.809
1571283178.643,43.945,-344.727,-195.801,39.551,20.020
1571283178.647,31.250,374.512,373.535,39.551,76.660
1571283178.651,39.551,289.551,239.746,30.762,61.523
1571283178.655,42.480,-11.719,-37.598,20.996,46.875
1571283178.659,31.738,-12.207,-20.508,15.625,30.273
1571283178.663,22.949,145.020,152.832,36.621,37.109
1571283178.667,30.762,236.816,210.449,44.434,39.551
1571283178.671,32.715,-39.062,-62.988,23.438,-12.207
1571283178.675,26.855,7.812,-3.418,26.367,24.414
1571283178.678,32.227,291.504,281.738,41.992,94.727
1571283178.682,49.316,294.922,291.504,48.828,94.727
1571283178.686,60.547,205.078,161.621,41.504,51.270
1571283178.690,50.781,175.781,118.652,27.832,47.363
1571283178.694,41.504,327.637,299.805,40.039,83.496
1571283178.698,27.832,376.953,375.000,37.598,86.426
1571283178.702,20.996,441.895,384.766,9.766,68.359
1571283178.706,29.297,372.559,308.105,7.324,80.566
1571283178.710,22.461,443.848,421.875,21.973,102.051
1571283178.714,20.996,768.555,715.332,34.180,121.094
1571283178.718,33.691,742.676,666.992,37.598,111.816
1571283178.721,40.527,370.117,339.844,25.391,80.566
1571283178.725,40.527,232.422,286.133,27.344,93.262
1571283178.729,39.062,393.066,491.211,35.645,119.629
1571283178.733,34.180,691.895,708.008,18.066,125.000
1571283178.737,51.758,547.852,527.832,32.227,82.031
1571283178.741,68.359,-116.699,37.598,53.711,39.551
1571283178.745,39.551,-15.625,212.402,35.645,85.449
1571283178.749,30.273,605.957,683.594,31.738,107.422
1571283178.753,38.574,295.410,377.441,21.484,42.969
1571283178.757,27.832,-164.062,56.641,17.090,44.434
1571283178.761,18.066,80.566,325.195,34.668,81.543
1571283178.764,4.395,416.504,589.355,21.973,80.566
1571283178.768,5.859,64.453,270.020,5.371,37.109
1571283178.772,-3.906,-701.172,-325.684,5.371,8.789
1571283178.776,-30.273,-857.910,-394.043,-0.977,25.879
1571283178.780,-51.270,-544.922,-79.590,-41.016,65.430
1571283178.784,-56.152,-653.809,-243.164,-85.449,16.602
1571283178.788,-48.828,-1000.000,-872.559,-114.258,-49.805
1571283178.792,-83.008,-880.371,-665.527,-135.254,25.391
1571283178.796,-110.840,-378.418,-14.648,-124.023,95.215
1571283178.800,-102.051,-444.336,-109.375,-127.441,46.875
1571283178.803,-105.469,-951.660,-613.770,-156.738,-35.156
1571283178.807,-125.977,-945.312,-587.891,-167.480,5.371
1571283178.811,-143.555,-544.922,-145.020,-158.203,74.219
1571283178.815,-138.672,-448.730,-48.340,-157.227,62.012
1571283178.819,-108.887,-835.449,-478.516,-143.555,17.090
1571283178.823,-109.375,-1000.000,-787.598,-140.625,0.000
1571283178.827,-139.160,-731.445,-363.281,-153.320,52.734
1571283178.831,-128.418,-695.312,-362.793,-145.996,37.598
1571283178.835,-107.910,-986.328,-812.988,-152.344,-34.668
1571283178.839,-108.398,-985.840,-754.883,-148.438,-10.742
1571283178.843,-94.727,-841.797,-547.852,-105.469,47.363
1571283178.846,-82.031,-563.965,-328.613,-93.262,63.965
1571283178.850,-83.008,-463.867,-328.613,-114.258,40.039
1571283178.854,-58.594,-729.980,-622.070,-101.562,11.719
1571283178.858,-27.832,-902.832,-753.906,-59.082,23.438
1571283178.862,-33.203,-557.617,-441.895,-36.621,83.008
1571283178.866,-29.297,-532.715,-462.891,-31.738,61.523
1571283178.870,0.000,-906.738,-871.094,-20.020,-5.371
1571283178.874,26.367,-988.281,-994.629,4.883,-11.230
1571283178.878,36.133,-953.613,-944.336,23.438,1.953
1571283178.882,28.320,-556.152,-647.461,10.742,40.039
1571283178.886,67.383,-537.598,-689.453,18.066,3.418
1571283178.889,98.145,-1000.000,-1000.000,41.992,-48.828
1571283178.893,90.332,-642.090,-722.168,54.199,12.207
1571283178.897,98.633,5.371,-236.328,71.289,48.340
1571283178.901,115.723,52.246,-244.141,74.219,12.695
1571283178.905,129.883,-384.766,-613.770,81.543,-10.742
1571283178.909,113.770,-315.918,-508.301,93.750,23.926
1571283178.913,113.770,74.707,-166.016,108.887,46.875
1571283178.917,132.812,-96.191,-349.609,112.305,-20.020
1571283178.921,141.113,-717.285,-834.473,108.398,-63.965
1571283178.925,136.230,-785.156,-828.125,116.699,-23.926
1571283178.928,115.234,110.352,-133.301,122.070,33.203
1571283178.932,117.676,510.254,133.301,128.418,2.441
1571283178.936,130.371,106.445,-219.727,125.977,-39.551
1571283178.940,129.883,-27.832,-293.945,123.535,-11.719
1571283178.944,127.930,340.332,64.453,137.695,20.020
1571283178.948,125.977,639.648,322.754,137.695,29.785
1571283178.952,130.859,523.438,194.336,117.188,11.719
1571283178.956,135.254,293.457,10.254,112.793,0.977
1571283178.960,128.418,366.699,136.230,123.535,15.137
1571283178.964,121.094,469.727,276.367,131.836,24.414
1571283178.968,124.023,270.508,99.609,125.977,-41.016
1571283178.971,127.930,143.555,-20.996,114.746,-41.504
1571283178.975,121.582,430.176,243.652,119.141,11.230
1571283178.979,118.164,619.141,436.035,136.230,13.672
1571283178.983,122.559,233.398,135.742,129.883,-29.785
1571283178.987,123.535,-64.453,-130.371,110.352,-68.848
1571283178.991,115.234,81.055,3.418,113.770,-16.602
1571283178.995,110.352,381.836,293.457,130.371,15.137
1571283178.999,113.770,386.230,296.387,126.465,-13.184
1571283179.003,119.141,5.371,-47.852,102.539,-53.711
1571283179.007,121.094,-331.543,-299.316,100.098,-28.809
1571283179.011,105.957,-253.418,-174.805,107.910,13.184
1571283179.014,92.285,80.566,83.496,101.074,2.930
1571283179.018,97.656,110.352,35.156,84.961,-21.973
1571283179.022,104.492,-219.727,-267.578,83.008,-42.969
1571283179.026,103.516,-503.418,-425.781,96.680,-9.766
1571283179.030,88.379,-365.723,-276.855,91.797,7.324
1571283179.034,83.984,2.441,-58.594,75.195,10.742
1571283179.038,100.098,-342.285,-397.949,79.102,-14.160
1571283179.042,93.750,-512.207,-495.117,87.402,3.418
1571283179.046,73.242,-7.324,-62.012,84.473,54.688
1571283179.050,71.289,171.875,34.180,76.660,32.715
1571283179.053,86.426,-452.637,-505.859,76.660,-12.207
1571283179.057,84.961,-1000.000,-980.469,75.195,-29.785
1571283179.061,59.082,-708.984,-658.691,71.777,-0.488
1571283179.065,53.223,-111.328,-142.090,68.359,38.086
1571283179.069,74.707,-329.590,-385.742,64.453,4.395
1571283179.073,78.613,-779.297,-736.816,64.941,-22.949
1571283179.077,57.617,-359.375,-344.727,65.918,16.602
1571283179.081,53.223,90.332,14.160,74.707,25.879
1571283179.085,77.148,-181.641,-236.328,84.473,-14.648
1571283179.089,90.820,-560.547,-527.344,78.125,-2.441
1571283179.093,66.406,-297.852,-270.508,61.035,35.156
1571283179.096,49.805,145.996,108.398,58.594,49.805
1571283179.100,73.242,-35.156,-34.668,64.453,35.645
1571283179.104,97.656,-784.180,-615.234,63.965,-30.762
1571283179.108,86.914,-798.340,-555.664,58.105,-31.738
1571283179.112,79.590,-239.746,-47.363,73.242,27.832
1571283179.116,88.867,-399.902,-172.852,80.566,24.902
1571283179.120,88.867,-779.785,-510.254,65.918,-12.695
1571283179.124,77.148,-444.824,-247.559,68.359,40.527
1571283179.128,63.965,51.270,166.504,71.289,79.102
1571283179.132,56.641,211.914,281.250,56.152,64.453
1571283179.136,71.777,20.020,79.590,49.316,31.250
1571283179.139,78.125,-275.391,-157.715,55.176,3.418
1571283179.143,63.965,-178.223,-1.953,61.523,28.809
1571283179.147,59.570,-64.453,145.996,66.895,51.270
1571283179.151,57.129,-311.523,-62.500,48.828,11.230
1571283179.155,53.223,-508.301,-232.422,31.250,-1.953
1571283179.159,58.594,-435.059,-129.883,51.270,20.508
1571283179.163,53.223,-520.020,-128.906,63.965,25.391
1571283179.167,42.969,-367.676,-22.949,42.480,30.273
1571283179.171,55.176,-454.590,-160.645,49.805,4.395
1571283179.175,48.340,-634.277,-274.414,51.758,17.578
1571283179.178,35.156,-218.262,101.074,47.852,53.223
1571283179.182,40.039,106.934,320.801,47.363,45.410
1571283179.186,43.457,-166.992,39.062,36.133,16.602
1571283179.190,45.410,-667.969,-352.539,30.762,-13.672
1571283179.194,43.945,-667.480,-278.320,56.152,15.137
1571283179.198,45.898,-442.871,-95.703,62.012,44.922
1571283179.202,55.176,-575.684,-227.539,22.461,23.438
1571283179.206,66.406,-892.090,-657.227,19.531,6.348
1571283179.210,62.012,-793.945,-624.023,42.480,21.973
1571283179.214,45.410,-200.684,6.348,48.828,68.848
1571283179.218,50.781,-169.434,-53.711,36.621,33.691
1571283179.221,64.453,-750.977,-578.125,39.551,-3.418
1571283179.225,62.012,-910.156,-666.016,53.711,14.648
1571283179.229,48.828,-348.633,-204.102,55.664,80.566
1571283179.233,58.594,-183.594,-144.043,61.523,60.059
1571283179.237,70.801,-763.184,-686.523,55.176,-14.160
1571283179.241,54.199,-993.652,-842.773,46.387,29.297
1571283179.245,36.621,-683.105,-542.480,55.664,68.848
1571283179.249,37.109,-562.012,-506.836,45.410,27.344
1571283179.253,55.176,-913.574,-896.973,30.762,-32.227
1571283179.257,47.852,-983.398,-977.539,25.391,-29.297
1571283179.261,24.414,-480.957,-539.551,38.086,49.805
1571283179.264,28.320,-307.617,-422.852,46.875,52.246
1571283179.268,33.691,-600.586,-720.703,24.902,2.441
1571283179.272,24.902,-728.027,-857.422,10.742,8.789
1571283179.276,21.484,-518.555,-660.645,32.227,31.738
1571283179.280,18.066,-172.852,-358.398,47.363,63.477
1571283179.284,22.949,-392.578,-586.914,43.457,33.203
1571283179.288,27.344,-875.977,-948.730,34.180,-21.973
1571283179.292,18.555,-877.441,-914.551,34.180,-18.555
1571283179.296,23.438,-741.699,-837.402,43.945,17.578
1571283179.300,36.133,-791.016,-898.438,39.551,-7.812
1571283179.303,33.203,-572.266,-820.801,27.832,0.000
1571283179.307,22.949,-450.195,-756.836,28.809,2.930
1571283179.311,21.484,-246.582,-553.223,51.758,12.695
1571283179.315,17.090,32.715,-356.934,43.457,16.113
1571283179.319,24.414,-35.645,-500.000,20.020,-11.230
1571283179.323,25.879,-226.562,-658.691,27.344,17.578
1571283179.327,6.348,-39.551,-444.336,30.273,39.062
1571283179.331,18.555,399.414,-65.430,39.551,44.922
1571283179.335,36.133,233.887,-215.332,31.738,17.090
1571283179.339,40.527,-411.133,-688.477,23.438,-6.836
1571283179.343,26.855,-193.848,-406.250,38.086,54.688
1571283179.346,16.113,569.336,236.816,45.410,87.402
1571283179.350,20.508,683.594,284.668,30.762,23.438
1571283179.354,37.598,52.734,-223.145,30.273,-44.922
1571283179.358,43.945,-584.961,-615.723,39.062,-41.016
1571283179.362,23.438,-42.480,-96.191,31.738,17.578
1571283179.366,23.438,662.109,417.480,30.273,25.879
1571283179.370,37.598,226.074,16.113,31.250,-41.016
1571283179.374,32.227,-7.324,-125.000,34.180,-11.719
1571283179.378,24.414,530.762,365.723,48.828,35.645
1571283179.382,30.762,702.148,508.301,57.129,22.461
1571283179.386,50.781,-45.898,-94.238,45.410,-38.574
1571283179.389,50.293,-600.098,-487.305,34.668,-55.176
1571283179.393,27.344,-56.152,-0.488,38.574,-21.973
1571283179.397,23.926,395.996,356.445,42.969,-18.066
1571283179.401,37.109,310.059,250.977,32.715,-25.391
1571283179.405,41.992,-17.090,-37.109,28.320,-53.223
1571283179.409,26.855,252.930,223.633,35.645,0.488
1571283179.413,25.879,655.273,577.637,53.223,29.297
1571283179.417,30.762,445.801,387.695,44.434,-24.902
1571283179.421,32.715,125.488,110.840,24.902,-14.160
1571283179.425,28.320,143.066,150.879,41.992,11.719
1571283179.428,24.414,213.867,267.578,65.918,13.672
1571283179.432,34.668,-187.500,-20.508,54.688,13.184
1571283179.436,34.668,-484.863,-296.875,26.367,-21.484
1571283179.440,26.855,-248.047,-137.695,20.996,0.488
1571283179.444,30.762,69.336,144.531,39.551,51.758
1571283179.448,31.250,226.074,255.371,41.992,40.039
1571283179.452,34.180,-34.668,-13.184,26.367,-5.859
1571283179.456,43.945,-473.633,-366.211,34.668,-12.207
1571283179.460,37.598,-366.211,-224.121,46.387,9.277
1571283179.464,27.344,14.160,96.680,47.852,36.133
1571283179.468,26.855,86.426,93.750,31.738,21.484
1571283179.471,33.203,-222.168,-193.848,23.926,13.184
1571283179.475,30.762,-278.809,-186.035,42.480,71.777
1571283179.479,26.367,-169.922,-55.664,48.828,66.895
1571283179.483,32.227,-252.441,-163.574,18.555,-8.301
1571283179.487,39.062,-452.148,-385.742,1.465,-35.156
1571283179.491,56.152,-811.035,-644.531,24.902,-17.578
1571283179.495,50.781,-624.512,-419.434,29.297,18.555
1571283179.499,22.461,41.992,71.289,-1.953,42.969
1571283179.503,14.648,-103.027,-139.648,-22.461,10.254
1571283179.507,24.414,-584.961,-526.855,-5.859,5.859
1571283179.511,10.254,-386.719,-322.754,14.160,47.852
1571283179.514,-9.277,181.152,104.004,13.184,72.754
1571283179.518,5.371,108.887,-30.273,1.465,47.363
1571283179.522,18.555,-513.184,-533.691,-2.930,12.207
1571283179.526,-1.953,-506.348,-445.801,0.977,49.805
1571283179.530,-17.578,164.551,118.164,12.695,93.262
1571283179.534,2.441,94.238,8.789,17.578,16.113
1571283179.538,16.113,-825.195,-754.395,8.789,-59.082
1571283179.542,-4.883,-678.223,-562.012,1.465,11.230
1571283179.546,-11.230,209.473,187.012,19.531,80.566
1571283179.550,8.789,253.906,176.758,20.996,44.922
1571283179.553,23.926,-201.660,-216.797,1.465,4.395
1571283179.557,19.043,-163.574,-159.668,10.254,35.156
1571283179.561,12.207,278.809,241.699,38.574,68.359
1571283179.565,16.113,376.953,324.219,48.340,57.129
1571283179.569,32.227,-135.742,-106.445,35.645,22.461
1571283179.573,28.320,-515.625,-387.207,16.602,14.648
1571283179.577,16.602,29.297,98.633,9.277,53.223
1571283179.581,28.809,212.402,269.043,25.391,75.195
1571283179.585,32.715,-280.273,-134.277,15.625,33.203
1571283179.589,25.879,-250.488,-134.277,3.418,12.207
1571283179.593,17.578,36.621,127.930,16.602,28.809
1571283179.596,13.672,310.059,383.789,29.785,56.641
1571283179.600,26.367,274.414,314.453,27.344,23.438
1571283179.604,41.016,-29.297,25.391,18.066,-2.930
1571283179.608,37.109,-126.953,-15.137,27.832,30.273
1571283179.612,27.344,13.184,145.996,42.969,35.156
1571283179.616,24.414,0.977,124.023,28.809,29.297
1571283179.620,33.691,-454.590,-284.668,16.113,-4.883
1571283179.624,41.992,-722.656,-483.398,33.691,2.441
1571283179.628,31.250,-617.188,-338.379,48.340,25.879
1571283179.632,22.461,-214.355,-43.457,39.062,18.555
1571283179.636,41.504,24.902,41.992,32.227,15.137
1571283179.639,48.340,-402.344,-332.031,24.902,2.441
1571283179.643,20.508,-337.891,-221.191,23.926,42.969
1571283179.647,11.719,259.277,250.000,32.715,65.430
1571283179.651,28.320,184.082,114.746,32.715,12.695
1571283179.655,36.621,-312.500,-297.363,26.367,8.301
1571283179.659,33.691,-306.152,-238.281,42.480,27.832
1571283179.663,32.715,-17.578,16.602,64.453,49.316
1571283179.667,36.133,-89.355,-63.477,42.480,22.461
1571283179.671,44.434,-613.281,-564.453,18.555,-9.766
1571283179.675,40.527,-849.609,-764.648,27.344,6.348
1571283179.678,18.066,-249.023,-186.035,28.809,51.758
1571283179.682,18.555,127.441,69.336,20.996,50.293
1571283179.686,36.133,-280.273,-339.355,20.996,-13.184
1571283179.690,32.715,-448.242,-458.496,32.715,17.090
1571283179.694,19.043,149.902,49.316,45.410,90.332
1571283179.698,31.738,311.035,147.949,54.688,48.828
1571283179.702,38.574,-140.137,-250.977,38.086,-6.836
1571283179.706,31.738,-431.152,-480.469,17.578,-5.371
1571283179.710,30.273,-333.008,-344.238,33.691,20.020
1571283179.714,27.832,-166.992,-169.434,50.293,36.621
1571283179.718,35.645,-557.129,-486.816,42.969,0.000
1571283179.721,33.691,-767.090,-669.434,33.203,-13.184
1571283179.725,28.320,-151.855,-162.598,37.109,36.621
1571283179.729,21.973,332.520,246.582,37.598,72.266
1571283179.733,21.484,265.137,166.992,27.344,47.852
1571283179.737,41.016,-9.766,-94.238,24.902,18.555
1571283179.741,45.898,72.266,-6.348,33.691,44.434
1571283179.745,29.297,390.137,301.758,40.527,75.195
1571283179.749,22.461,493.652,382.324,40.039,53.711
1571283179.753,35.156,304.688,193.359,36.621,20.996
1571283179.757,38.574,-86.426,-86.914,41.016,-0.977
1571283179.761,28.809,-224.121,-83.008,47.852,16.113
1571283179.764,21.484,7.324,156.250,46.387,41.016
1571283179.768,21.973,253.418,285.156,22.461,-3.906
1571283179.772,31.250,231.934,235.352,13.184,2.930
1571283179.776,26.855,324.219,368.652,34.180,23.438
1571283179.780,14.160,717.285,716.309,41.016,40.039
1571283179.784,23.438,913.086,827.637,23.926,53.223
1571283179.788,35.156,498.535,453.125,18.066,12.207
1571283179.792,29.297,203.613,285.645,30.762,11.719
1571283179.796,20.508,592.285,667.969,37.598,51.758
1571283179.800,25.879,897.949,878.906,33.691,40.039
1571283179.803,51.758,350.098,411.621,42.480,-8.301
1571283179.807,57.129,-376.953,-84.473,53.223,-14.648
1571283179.811,40.039,116.699,385.742,56.152,43.945
1571283179.815,39.551,917.480,963.379,48.340,62.012
1571283179.819,45.410,574.219,618.652,29.297,10.254
1571283179.823,44.922,81.543,262.207,24.902,-17.090
1571283179.827,41.016,440.430,631.348,37.598,24.414
1571283179.831,40.039,877.930,-998.535,46.387,59.082
1571283179.835,51.758,585.449,732.422,36.133,25.391
1571283179.839,64.453,50.781,288.086,35.156,-11.230
1571283179.843,44.922,204.102,438.477,36.621,3.418
1571283179.846,30.273,547.852,718.262,43.457,41.992
1571283179.850,46.387,249.023,436.035,42.480,25.391
1571283179.854,50.293,-455.078,-158.691,27.344,-45.410
1571283179.858,36.621,-382.812,-77.637,19.531,-25.391
1571283179.862,38.086,329.590,480.469,37.598,25.879
1571283179.866,55.664,101.562,255.859,51.270,4.395
1571283179.870,53.711,-581.543,-317.871,28.320,-20.020
1571283179.874,32.227,-347.168,-148.926,20.508,7.812
1571283179.878,28.320,199.707,293.945,39.551,52.734
1571283179.882,31.738,365.723,399.414,38.574,53.711
1571283179.886,38.574,-27.832,9.766,18.555,-32.227
1571283179.889,35.645,-394.043,-298.340,11.719,-55.176
1571283179.893,23.926,-150.879,-51.270,28.809,18.066
1571283179.897,24.414,77.148,139.160,41.016,65.918
1571283179.901,38.086,-221.680,-150.879,23.926,21.973
1571283179.905,37.109,-673.828,-541.504,10.742,-19.043
1571283179.909,28.320,-497.070,-360.840,23.438,33.203
1571283179.913,29.297,-378.906,-230.469,33.203,38.574
1571283179.917,24.902,-302.734,-212.891,11.719,6.348
1571283179.921,39.551,-244.629,-247.559,8.301,0.488
1571283179.925,39.062,-372.070,-331.543,27.832,10.254
1571283179.928,26.367,-14.648,3.906,43.457,42.480
1571283179.932,23.926,329.590,242.676,28.809,36.621
1571283179.936,34.180,45.410,-48.828,8.789,0.977
1571283179.940,39.551,-260.254,-264.648,19.043,20.508
1571283179.944,24.414,-101.074,-64.941,28.809,53.711
1571283179.948,25.391,5.371,19.531,31.738,25.391
1571283179.952,38.574,-171.387,-168.457,25.391,-12.207
1571283179.956,47.852,-639.648,-541.016,21.973,-10.742
1571283179.960,40.039,-738.281,-541.992,32.227,20.996
1571283179.964,19.531,-1.465,54.688,36.621,59.570
1571283179.968,24.414,221.191,142.578,31.250,20.996
1571283179.971,32.715,-194.824,-220.703,17.578,7.812
1571283179.975,18.066,-47.852,-55.664,16.602,50.781
1571283179.979,5.371,541.016,431.641,30.273,74.707
1571283179.983,15.625,544.434,397.461,28.809,51.270
1571283179.987,26.367,-2.441,-65.918,21.484,10.254
1571283179.991,21.973,-352.051,-286.621,24.902,3.906
1571283179.995,9.766,-85.449,6.348,33.691,41.016
1571283179.999,16.113,206.543,222.168,30.762,41.016
1571283180.003,35.645,-514.160,-389.648,19.043,-27.344
1571283180.007,22.949,-684.570,-495.117,5.859,6.348
1571283180.011,15.625,155.273,192.871,20.996,68.359
1571283180.014,31.250,391.602,358.398,35.645,54.199
1571283180.018,41.504,-50.293,-30.762,29.297,14.160
1571283180.022,34.180,-335.449,-268.066,18.066,-5.859
1571283180.026,16.602,51.270,81.543,13.672,47.363
1571283180.030,10.254,393.066,371.094,24.902,76.172
1571283180.034,25.391,212.402,181.641,22.949,27.344
1571283180.038,38.086,-303.711,-256.836,14.648,-2.441
1571283180.042,31.250,-517.090,-374.023,22.949,0.488
1571283180.046,31.250,-383.789,-205.566,30.762,40.039
1571283180.050,33.691,-429.199,-269.043,13.184,32.227
1571283180.053,34.668,-445.801,-368.652,-5.859,-5.371
1571283180.057,39.062,-307.617,-274.414,4.883,29.785
1571283180.061,29.785,-35.645,-25.879,21.973,53.711
1571283180.065,24.902,161.621,106.445,19.531,46.875
1571283180.069,34.180,28.809,-75.684,10.742,20.996
1571283180.073,42.480,-437.012,-447.754,16.602,9.277
1571283180.077,29.297,-386.719,-335.449,25.391,42.480
1571283180.081,17.578,113.770,61.035,23.438,72.266
1571283180.085,30.273,-135.254,-207.031,17.578,33.691
1571283180.089,39.062,-836.914,-776.855,21.973,4.883
1571283180.093,26.367,-769.043,-671.875,25.879,26.855
1571283180.096,19.531,-161.621,-195.312,31.738,48.828
1571283180.100,35.156,59.082,-104.492,33.203,43.457
1571283180.104,43.945,-473.633,-586.914,26.855,8.301
1571283180.108,29.297,-935.547,-924.316,25.391,-18.555
1571283180.112,9.766,-478.516,-512.207,28.809,2.441
1571283180.116,17.578,-24.902,-191.895,28.320,30.762
1571283180.120,37.109,-370.605,-532.715,26.855,8.789
1571283180.124,36.621,-588.867,-682.129,32.715,15.137
1571283180.128,25.391,-51.758,-207.520,32.227,64.941
1571283180.132,30.273,125.000,-76.660,35.156,63.965
1571283180.136,56.641,-566.895,-654.297,39.551,-13.184
1571283180.139,52.734,-922.852,-922.363,28.809,-29.785
1571283180.143,24.414,-250.000,-345.703,28.320,41.016
1571283180.147,27.344,338.867,110.352,43.945,54.688
1571283180.151,43.457,70.801,-155.273,39.551,-0.977
1571283180.155,46.387,-295.898,-454.590,26.855,-3.906
1571283180.159,28.320,38.574,-140.137,23.438,48.828
1571283180.163,11.719,493.652,258.301,30.273,81.543
1571283180.167,25.391,325.195,103.027,28.809,28.320
1571283180.171,37.598,-35.645,-203.125,16.602,3.418
1571283180.175,24.414,125.000,-28.809,15.625,44.922
1571283180.178,19.531,329.102,205.566,31.738,61.523
1571283180.182,26.367,170.410,101.562,28.809,31.738
1571283180.186,35.645,-88.867,-133.301,12.695,-2.930
1571283180.190,33.691,-66.406,-83.496,16.113,30.762
1571283180.194,25.391,329.102,291.016,30.273,52.734
1571283180.198,24.414,377.930,357.422,28.809,53.223
1571283180.202,25.391,319.336,280.273,12.207,25.391
1571283180.206,35.156,308.105,253.418,20.020,10.254
1571283180.210,30.762,460.938,438.965,36.133,29.297
1571283180.214,19.043,728.516,697.754,38.574,30.762
1571283180.218,16.113,755.371,688.477,24.902,18.066
1571283180.221,27.344,454.590,430.176,20.508,5.859
1571283180.225,27.344,237.305,337.891,35.645,2.930
1571283180.229,9.766,391.113,541.016,36.133,40.039
1571283180.233,11.719,582.520,661.621,19.531,19.531
1571283180.237,20.508,421.875,479.004,10.254,-20.508
1571283180.241,28.320,40.039,236.328,16.602,18.066
1571283180.245,28.809,25.391,307.129,31.250,18.555
1571283180.249,17.578,559.082,701.172,24.414,12.695
1571283180.253,35.156,443.848,539.062,20.020,-5.859
1571283180.257,40.527,59.082,248.535,24.414,-12.695
1571283180.261,20.508,432.617,607.422,30.762,44.434
1571283180.264,19.043,864.258,932.129,33.691,55.664
1571283180.268,40.039,514.648,592.773,26.855,-0.977
1571283180.272,52.246,-209.961,25.391,29.785,-27.344
1571283180.276,31.738,-236.816,83.496,31.250,11.719
1571283180.280,21.484,417.480,614.258,33.203,65.430
1571283180.284,36.621,343.750,469.727,34.668,5.859
1571283180.288,36.621,-635.742,-323.730,23.438,-41.992
1571283180.292,19.531,-532.227,-187.988,17.578,10.254
1571283180.296,12.207,308.594,454.102,23.926,38.574
1571283180.300,22.461,229.492,319.824,19.043,3.906
1571283180.303,34.668,-344.238,-174.805,15.625,-22.461
1571283180.307,27.832,-296.875,-120.117,22.949,3.418
1571283180.311,19.531,285.645,365.723,37.109,53.223
1571283180.315,31.738,351.074,385.254,47.852,36.133
1571283180.319,44.434,-291.504,-174.316,39.062,-26.855
1571283180.323,36.621,-678.223,-470.215,33.203,-25.391
1571283180.327,28.320,-379.883,-189.941,40.039,10.254
1571283180.331,32.715,-283.691,-112.305,36.133,25.879
1571283180.335,36.133,-606.445,-425.781,15.625,-1.465
1571283180.339,24.414,-504.883,-410.645,1.953,-10.254
1571283180.343,20.508,-82.520,-71.777,19.531,14.648
1571283180.346,20.020,260.742,212.402,28.320,41.992
1571283180.350,25.391,286.621,175.781,14.160,24.902
1571283180.354,31.738,67.871,-45.898,2.930,12.207
1571283180.358,27.344,-122.559,-151.367,20.996,21.484
1571283180.362,19.531,122.559,106.934,42.480,44.922
1571283180.366,22.949,256.348,193.359,33.691,35.645
1571283180.370,33.691,-173.340,-190.918,20.508,3.906
1571283180.374,33.203,-393.066,-329.590,28.320,9.766
1571283180.378,20.020,-391.602,-240.723,38.086,13.672
1571283180.382,10.254,23.438,90.332,20.020,27.832
1571283180.386,21.973,293.457,210.449,16.602,9.277
1571283180.389,37.109,-89.844,-114.258,24.902,-16.113
1571283180.393,18.555,91.797,96.191,26.367,34.180
1571283180.397,5.859,715.820,595.215,24.414,88.867
1571283180.401,25.391,608.887,438.965,18.555,39.551
1571283180.405,30.762,90.332,23.926,14.160,31.738
1571283180.409,18.066,205.566,192.383,24.414,92.285
1571283180.413,17.090,503.418,469.727,44.922,95.215
1571283180.417,29.785,233.887,240.723,33.691,29.785
1571283180.421,45.410,-577.148,-421.387,17.090,-27.832
1571283180.425,32.227,-777.344,-502.441,16.602,13.184
1571283180.428,9.766,122.559,260.254,20.508,70.312
1571283180.432,21.484,567.383,543.945,28.320,59.082
1571283180.436,41.504,81.055,104.004,27.832,9.766
1571283180.440,31.738,-92.285,3.418,26.855,44.434
1571283180.444,13.184,507.324,535.645,35.645,117.188
1571283180.448,25.879,671.875,656.250,37.598,92.773
1571283180.452,39.551,104.980,178.223,24.414,36.133
1571283180.456,37.109,-239.258,-85.449,20.508,28.320
1571283180.460,26.855,-109.375,69.824,30.273,55.664
1571283180.464,21.484,1.465,204.590,34.668,64.453
1571283180.468,37.109,-520.996,-288.086,20.996,8.301
1571283180.471,35.645,-1000.000,-741.211,4.395,-36.621
1571283180.475,17.578,-407.227,-167.480,15.625,25.879
1571283180.479,12.207,151.855,288.086,36.621,84.961
1571283180.483,20.020,23.438,130.371,26.855,49.805
1571283180.487,33.691,-250.977,-149.414,18.066,0.000
1571283180.491,33.203,-207.031,-102.051,30.273,33.691
1571283180.495,23.926,92.285,173.828,37.598,74.707
1571283180.499,28.809,203.613,235.352,30.273,62.988
1571283180.503,46.387,-87.891,-60.547,19.043,15.137
1571283180.507,45.410,-516.602,-387.695,24.414,7.812
1571283180.511,28.809,-733.887,-484.863,39.062,6.836
1571283180.514,18.066,-701.172,-436.035,32.715,2.441
1571283180.518,24.414,-431.152,-307.129,20.508,5.859
1571283180.522,31.738,-480.957,-417.969,21.973,-4.883
1571283180.526,18.066,-394.043,-308.594,30.273,42.969
1571283180.530,13.184,-48.340,-22.461,36.133,80.566
1571283180.534,20.020,58.105,-21.973,17.578,38.086
1571283180.538,30.273,-323.242,-377.930,11.230,1.465
1571283180.542,25.391,-432.617,-410.156,28.809,21.973
1571283180.546,17.090,5.859,-22.461,42.969,44.922
1571283180.550,23.438,219.238,98.633,35.156,37.598
1571283180.553,38.086,-297.852,-360.840,24.902,15.625
1571283180.557,35.156,-889.648,-785.156,24.902,23.926
1571283180.561,16.113,-490.234,-401.367,23.926,51.758
1571283180.565,14.648,216.309,110.352,23.926,62.500
1571283180.569,35.156,-115.723,-249.023,24.902,1.465
1571283180.573,35.645,-532.227,-577.148,23.926,-8.789
1571283180.577,12.695,-40.527,-143.555,27.832,41.016
1571283180.581,8.301,407.227,194.336,30.273,54.199
1571283180.585,17.578,108.398,-83.984,19.531,39.551
1571283180.589,22.949,-288.086,-401.367,16.602,16.602
1571283180.593,18.555,14.648,-110.352,23.926,34.668
1571283180.596,17.578,520.508,312.012,32.227,54.688
1571283180.600,39.551,29.785,-106.934,36.133,-2.930
1571283180.604,40.039,-729.492,-698.730,20.996,-23.438
1571283180.608,13.184,-282.715,-303.223,24.414,21.484
1571283180.612,5.371,430.664,281.250,39.551,62.500
1571283180.616,18.066,494.141,313.477,26.855,59.082
1571283180.620,34.180,174.805,30.762,19.531,41.504
1571283180.624,31.250,212.891,80.078,15.137,51.270
1571283180.628,24.902,580.566,430.176,24.414,71.777
1571283180.632,31.250,643.066,491.211,31.738,51.270
1571283180.636,44.434,321.777,200.684,20.020,-2.930
1571283180.639,47.363,13.184,-20.020,22.949,-0.977
1571283180.643,28.809,149.902,174.316,34.668,41.016
1571283180.647,20.020,422.852,422.363,35.645,54.688
1571283180.651,34.180,163.086,181.152,27.344,0.000
1571283180.655,34.180,-41.016,5.859,19.043,-15.625
1571283180.659,24.902,270.020,303.711,32.227,38.086
1571283180.663,24.902,240.234,342.285,43.945,43.457
1571283180.667,21.973,225.098,311.523,23.438,8.301
1571283180.671,28.809,260.742,287.109,15.137,-2.930
1571283180.675,29.297,191.895,276.855,25.879,26.855
1571283180.678,20.996,464.844,549.316,38.086,41.016
1571283180.682,21.973,681.152,693.359,32.227,11.719
1571283180.686,40.039,390.137,415.527,21.484,-12.695
1571283180.690,51.270,116.211,237.305,34.180,16.113
1571283180.694,36.621,182.617,368.652,49.805,24.414
1571283180.698,24.902,289.062,460.938,43.457,11.719
1571283180.702,34.180,33.691,211.914,31.250,-10.742
1571283180.706,48.828,-559.082,-245.605,36.133,-22.949
1571283180.710,32.715,-501.953,-127.930,35.645,-1.953
1571283180.714,15.137,343.750,523.438,31.250,33.203
1571283180.718,31.250,497.559,542.969,28.320,8.789
1571283180.721,43.457,-80.566,54.688,23.926,-27.344
1571283180.725,30.273,-84.961,103.027,23.926,-16.113
1571283180.729,17.578,520.508,600.586,25.391,42.969
1571283180.733,32.715,553.223,565.430,28.809,40.039
1571283180.737,45.410,-153.809,-46.875,30.762,-41.992
1571283180.741,26.855,-432.129,-211.426,29.785,-8.301
1571283180.745,11.230,-2.930,183.594,32.715,58.594
1571283180.749,27.344,211.914,300.293,27.344,23.438
1571283180.753,47.363,-573.242,-376.465,14.160,-35.645
1571283180.757,35.156,-785.645,-517.090,9.277,-19.531
1571283180.761,21.484,44.434,151.367,25.879,30.762
1571283180.764,27.832,329.590,338.379,28.320,39.551
1571283180.768,38.086,-40.039,-19.531,9.766,-12.695
1571283180.772,35.156,-250.000,-205.566,8.789,-16.113
1571283180.776,20.996,106.934,124.023,28.320,44.434
1571283180.780,14.160,384.766,356.445,29.785,55.664
1571283180.784,20.508,249.023,201.172,10.742,31.250
1571283180.788,31.738,-284.180,-249.023,13.672,5.859
1571283180.792,21.973,-343.262,-243.164,21.484,19.043
1571283180.796,21.973,-66.895,23.438,35.156,44.922
1571283180.800,31.738,-104.492,-34.668,32.227,33.203
1571283180.803,35.156,-66.406,-73.242,17.578,22.461
1571283180.807,35.645,-79.102,-75.195,26.367,29.297
1571283180.811,27.832,18.066,68.848,37.598,42.480
1571283180.815,22.461,233.398,236.328,28.320,43.945
1571283180.819,33.203,255.371,185.059,14.160,36.133
1571283180.823,45.410,16.602,-6.348,22.949,28.809
1571283180.827,38.574,169.434,186.523,38.574,56.152
1571283180.831,26.367,554.688,500.000,24.414,82.520
1571283180.835,35.645,266.602,217.285,12.207,54.199
1571283180.839,47.363,-299.316,-225.586,20.020,47.363
1571283180.843,31.738,-493.652,-290.527,28.320,59.570
1571283180.846,15.625,-84.961,67.383,23.926,60.059
1571283180.850,20.020,398.438,375.000,15.137,63.477
1571283180.854,38.574,37.598,39.062,13.184,49.805
1571283180.858,36.621,-88.867,-12.207,24.414,49.805
1571283180.862,19.531,456.055,459.961,40.039,77.637
1571283180.866,23.926,464.355,437.988,37.109,61.523
1571283180.870,37.598,-109.863,-48.340,29.785,34.180
1571283180.874,32.227,-263.184,-136.719,36.133,39.551
1571283180.878,18.066,205.078,272.461,43.457,64.941
1571283180.882,23.926,304.688,354.004,43.945,69.824
1571283180.886,41.992,-492.676,-345.703,33.691,-10.742
1571283180.889,34.180,-887.207,-690.430,21.484,-7.812
1571283180.893,11.719,-182.129,-31.250,20.508,66.406
1571283180.897,9.766,425.293,442.383,22.949,86.914
1571283180.901,23.438,152.832,153.809,11.719,42.480
1571283180.905,31.738,-304.688,-216.797,12.695,14.160
1571283180.909,20.996,-21.484,54.688,29.297,54.199
1571283180.913,20.508,327.637,344.727,37.109,66.406
1571283180.917,28.320,105.957,127.441,30.762,25.879
1571283180.921,31.250,-412.109,-312.012,24.902,0.488
1571283180.925,22.461,-471.191,-319.824,26.855,19.531
1571283180.928,14.648,-139.160,-13.672,39.062,48.340
1571283180.932,25.391,-481.445,-291.992,34.180,28.320
1571283180.936,26.367,-855.469,-637.695,8.789,-21.484
1571283180.940,23.438,-546.387,-411.133,12.207,2.441
1571283180.944,20.996,-106.934,-39.062,35.645,55.176
1571283180.948,19.043,114.746,115.723,30.273,65.430
1571283180.952,34.180,-57.129,-87.891,16.113,36.621
1571283180.956,33.691,-310.547,-311.035,14.648,17.090
1571283180.960,17.090,-128.906,-113.770,22.949,59.082
1571283180.964,16.602,150.879,120.117,28.809,70.801
1571283180.968,27.832,102.051,15.137,16.602,35.156
1571283180.971,31.738,-113.281,-188.477,12.207,46.875
1571283180.975,33.691,-381.348,-343.750,28.320,55.176
1571283180.979,27.832,-541.016,-398.926,37.109,50.293
1571283180.983,20.020,-220.215,-184.570,17.578,38.574
1571283180.987,32.715,-215.820,-267.578,5.371,18.555
1571283180.991,31.250,-316.406,-321.289,20.020,39.551
1571283180.995,19.531,51.270,19.043,37.598,63.965
1571283180.999,17.090,353.027,219.238,31.738,48.828
1571283181.003,33.203,32.715,-93.262,24.414,7.812
1571283181.007,37.109,-344.238,-364.746,28.809,2.930
1571283181.011,18.066,31.738,-1.465,38.086,50.781
1571283181.014,15.625,458.984,324.707,41.992,59.082
1571283181.018,33.203,190.430,55.664,38.574,19.531
1571283181.022,46.387,-376.465,-379.395,37.109,10.742
1571283181.026,31.250,-337.402,-265.625,35.645,37.598
1571283181.030,14.160,269.531,233.887,34.180,62.988
1571283181.034,37.598,302.246,191.895,33.691,28.809
1571283181.038,52.734,-633.789,-552.734,30.762,-36.133
1571283181.042,26.855,-483.398,-346.191,27.832,13.184
1571283181.046,23.926,454.102,408.203,40.039,57.617
1571283181.050,34.668,518.555,411.621,37.598,40.039
1571283181.053,46.875,119.141,71.289,28.809,19.531
1571283181.057,41.504,183.594,162.598,31.250,30.762
1571283181.061,28.320,655.762,583.984,40.039,60.059
1571283181.065,33.203,778.809,674.316,37.109,74.707
1571283181.069,45.898,327.148,288.086,23.926,59.570
1571283181.073,49.805,-184.082,-85.449,23.926,6.348
1571283181.077,28.320,219.727,313.965,24.902,50.781
1571283181.081,29.785,431.641,495.117,28.809,67.871
1571283181.085,45.898,-127.930,27.344,20.020,-3.906
1571283181.089,37.109,1.953,125.488,14.160,23.438
1571283181.093,28.320,287.109,389.648,38.086,51.758
1571283181.096,23.926,452.148,550.781,49.805,54.199
1571283181.100,31.738,549.805,581.055,33.203,42.969
1571283181.104,31.738,380.859,398.926,18.066,38.574
1571283181.108,20.020,422.363,474.121,22.461,77.637
1571283181.112,17.090,651.855,703.613,30.273,80.078
1571283181.116,28.809,450.684,526.855,22.461,24.902
1571283181.120,32.715,-46.875,109.375,7.324,-6.348
1571283181.124,28.809,-102.051,89.844,12.207,11.230
1571283181.128,28.320,-117.188,143.555,28.809,28.809
1571283181.132,16.113,147.949,341.797,15.625,35.645
1571283181.136,21.484,359.375,401.367,1.465,11.719
1571283181.139,31.250,12.695,100.098,10.742,2.441
1571283181.143,16.113,234.375,331.543,20.996,48.828
1571283181.147,17.090,659.668,667.480,28.809,76.660
1571283181.151,42.480,361.328,365.234,25.391,10.254
1571283181.155,45.410,-101.562,-14.648,12.207,-17.090
1571283181.159,27.832,74.219,186.035,14.160,36.133
1571283181.163,26.367,419.434,484.863,25.879,69.336
1571283181.167,37.598,282.227,337.891,24.902,50.293
1571283181.171,52.246,-409.180,-234.375,23.438,-6.348
1571283181.175,40.527,-680.176,-389.160,24.902,-6.348
1571283181.178,9.766,214.844,348.145,24.902,67.871
1571283181.182,17.090,632.324,605.469,26.855,62.988
1571283181.186,31.738,97.656,123.535,22.461,3.418
1571283181.190,19.531,-58.105,25.391,15.137,26.367
1571283181.194,10.742,486.816,486.328,25.391,73.242
1571283181.198,20.508,711.914,638.184,36.621,74.707
1571283181.202,32.227,217.773,197.754,22.949,21.973
1571283181.206,26.367,-262.695,-169.434,17.578,4.883
1571283181.210,7.324,-143.555,-7.324,25.879,37.598
1571283181.214,13.672,122.559,222.656,26.855,64.453
1571283181.218,27.832,-199.707,-76.660,12.695,17.090
1571283181.221,24.414,-460.449,-317.871,2.930,-11.719
1571283181.225,14.160,54.688,112.305,16.602,46.387
1571283181.229,12.207,446.777,436.035,30.762,73.242
1571283181.233,21.973,249.512,234.863,17.090,24.414
1571283181.237,29.297,-11.230,-10.254,10.254,0.977
1571283181.241,28.320,78.613,97.168,24.902,42.969
1571283181.245,19.531,331.055,350.098,31.250,79.590
1571283181.249,20.996,351.074,352.539,21.484,63.965
1571283181.253,37.109,48.828,51.270,16.602,1.465
1571283181.257,35.156,-351.562,-237.793,31.250,-1.953
1571283181.261,24.902,-443.359,-220.703,41.992,39.062
1571283181.264,31.250,-436.523,-204.102,35.645,14.648
1571283181.268,32.227,-338.867,-201.660,14.648,-27.344
1571283181.272,34.180,-363.770,-264.160,9.766,-26.855
1571283181.276,27.344,-171.387,-56.152,21.973,20.020
1571283181.280,18.555,239.258,283.691,22.949,50.293
1571283181.284,25.879,292.480,247.559,17.578,15.625
1571283181.288,42.480,-163.086,-149.902,22.461,-25.879
1571283181.292,32.227,-238.770,-145.020,29.785,11.230
1571283181.296,16.113,214.844,250.488,33.691,57.129
1571283181.300,22.949,316.895,273.438,25.879,24.414
1571283181.303,41.016,-290.039,-242.676,17.090,7.812
1571283181.307,40.039,-734.375,-542.969,14.160,17.090
1571283181.311,16.113,-213.867,-94.238,21.973,46.387
1571283181.315,28.320,235.352,207.520,41.016,49.316
1571283181.319,42.480,-340.820,-317.383,31.250,-8.789
1571283181.323,29.297,-933.594,-786.621,14.160,-8.301
1571283181.327,-0.488,-465.820,-342.773,12.207,29.785
1571283181.331,1.953,104.004,120.605,23.438,44.922
1571283181.335,30.273,-169.434,-150.391,22.949,10.742
1571283181.339,14.648,-616.211,-503.418,-3.906,-8.301
1571283181.343,-3.906,-255.371,-165.527,-0.488,51.758
1571283181.346,3.906,243.652,227.539,14.648,77.148
1571283181.350,17.090,-191.406,-170.898,10.254,20.508
1571283181.354,16.113,-758.301,-638.184,-2.441,29.297
1571283181.358,2.930,-449.707,-378.906,-0.488,62.500
1571283181.362,-1.953,144.531,93.262,18.555,79.102
1571283181.366,14.160,-167.969,-196.777,15.625,42.480
1571283181.370,24.902,-951.660,-881.348,-0.977,-25.391
1571283181.374,15.137,-988.281,-863.770,0.488,-20.508
1571283181.378,5.859,-589.844,-476.074,17.090,21.973
1571283181.382,3.418,-232.422,-224.609,14.160,43.945
1571283181.386,18.066,-403.809,-432.129,-7.324,-6.348
1571283181.389,26.855,-535.156,-539.062,0.488,-15.137
1571283181.393,27.344,-206.055,-215.820,38.086,36.133
1571283181.397,9.277,-86.914,-122.070,27.344,32.227
1571283181.401,8.301,-490.234,-488.281,-4.395,-8.301
1571283181.405,22.949,-836.426,-769.531,1.953,-19.531
1571283181.409,-9.277,-558.105,-501.953,-5.859,29.785
1571283181.413,-32.227,-647.949,-538.086,-25.391,41.504
1571283181.417,-30.273,-851.074,-745.605,-48.828,-7.812
1571283181.421,-30.762,-685.059,-689.453,-51.758,7.812
1571283181.425,-51.758,-641.602,-642.578,-46.387,32.715
1571283181.428,-62.500,-292.969,-312.988,-41.504,56.641
1571283181.432,-71.777,-98.633,-163.574,-67.871,55.664
1571283181.436,-80.566,-394.531,-437.988,-90.820,11.719
1571283181.440,-74.707,-616.211,-582.520,-73.730,1.953
1571283181.444,-98.633,-407.227,-343.750,-79.590,51.270
1571283181.448,-97.168,-249.512,-232.422,-83.984,52.734
1571283181.452,-81.055,-418.457,-437.012,-83.008,18.066
1571283181.456,-89.844,-635.254,-617.676,-91.309,22.461
1571283181.460,-112.793,-375.000,-364.258,-108.398,48.828
1571283181.464,-111.328,179.688,70.801,-92.285,77.148
1571283181.468,-78.613,125.977,-22.949,-82.031,35.156
1571283181.471,-62.988,-642.578,-686.523,-83.496,-12.695
1571283181.475,-75.684,-788.086,-723.145,-78.125,15.625
1571283181.479,-81.055,-35.645,-47.852,-73.730,38.574
1571283181.483,-47.852,151.367,33.691,-58.105,24.414
1571283181.487,-15.137,-371.582,-412.598,-31.738,2.930
1571283181.491,-8.301,-499.512,-456.543,-19.531,23.926
1571283181.495,-18.066,-29.297,-37.109,-18.555,61.035
1571283181.499,-20.020,122.070,51.758,-9.277,56.641
1571283181.503,4.395,-558.105,-530.762,-14.160,2.930
1571283181.507,3.906,-763.184,-681.152,-17.578,-28.809
1571283181.511,-8.789,102.051,22.461,4.395,34.180
1571283181.514,12.695,483.398,289.551,32.715,63.965
1571283181.518,49.805,106.934,-73.730,37.109,-3.418
1571283181.522,55.664,-53.711,-203.613,33.691,12.207
1571283181.526,39.062,329.590,145.020,44.434,69.824
1571283181.530,46.387,520.020,301.270,44.922,62.012
1571283181.534,62.500,310.547,95.703,40.527,41.992
1571283181.538,82.031,-270.020,-388.184,55.176,3.906
1571283181.542,60.547,-282.227,-339.355,59.570,37.109
1571283181.546,41.992,-55.664,-125.488,61.035,63.965
1571283181.550,52.734,-410.645,-441.406,56.152,-0.488
1571283181.553,59.570,-406.738,-499.512,45.898,-11.230
1571283181.557,74.219,-135.742,-292.480,58.105,25.391
1571283181.561,67.383,101.074,-67.383,79.590,34.668
1571283181.565,65.918,258.789,37.598,77.637,30.273
1571283181.569,73.730,134.277,-131.348,56.641,8.789
1571283181.573,81.055,-99.609,-312.988,62.988,21.484
1571283181.577,78.125,87.891,-98.145,86.426,68.848
1571283181.581,74.219,420.898,156.738,89.355,75.195
1571283181.585,99.609,113.281,-152.832,89.844,40.527
1571283181.589,114.258,-510.254,-640.625,93.262,11.719
1571283181.593,97.656,-761.719,-751.465,98.145,3.418
1571283181.596,75.195,-289.062,-347.168,96.191,36.133
1571283181.600,87.402,125.000,-97.168,97.656,44.434
1571283181.604,107.910,-457.520,-601.562,93.262,-5.859
1571283181.608,89.844,-409.668,-509.766,90.820,21.973
1571283181.612,71.777,321.289,83.984,92.285,71.289
1571283181.616,74.707,497.559,154.785,79.102,53.711
1571283181.620,98.145,-64.453,-339.844,79.102,4.883
1571283181.624,91.309,-321.777,-498.535,81.543,19.043
1571283181.628,80.078,193.848,-37.598,91.309,58.594
1571283181.632,91.797,163.086,-81.543,98.145,20.508
1571283181.636,101.074,-595.215,-695.801,81.055,-35.645
1571283181.639,92.773,-887.695,-895.996,74.707,-34.668
1571283181.643,62.988,-191.406,-315.430,82.520,41.504
1571283181.647,64.941,335.938,73.730,88.867,53.711
1571283181.651,80.566,22.461,-228.027,74.219,16.602
1571283181.655,80.566,-339.355,-526.367,63.477,19.531
1571283181.659,66.406,-132.812,-312.500,73.730,54.199
1571283181.663,61.035,189.453,-34.668,73.242,53.223
1571283181.667,76.660,72.266,-172.852,67.383,16.113
1571283181.671,77.148,-213.867,-426.758,65.918,22.949
1571283181.675,67.871,-60.547,-271.484,65.918,43.457
1571283181.678,65.430,174.316,-36.133,74.219,59.082
1571283181.682,66.895,-308.105,-410.156,72.754,20.508
1571283181.686,62.988,-704.102,-748.047,53.711,-15.137
1571283181.690,57.617,-246.094,-377.930,58.105,47.852
1571283181.694,59.082,224.121,25.879,83.008,84.961
1571283181.698,58.594,295.410,68.359,83.008,46.387
1571283181.702,60.547,101.074,-135.254,55.176,8.301
1571283181.706,63.965,-5.371,-211.914,54.688,43.457
1571283181.710,63.965,223.145,37.598,69.336,84.473
1571283181.714,63.965,261.719,97.168,76.172,55.664
1571283181.718,62.012,33.203,-115.723,59.082,10.742
1571283181.721,60.547,-128.418,-266.602,44.922,10.742
1571283181.725,61.035,-301.270,-329.102,64.941,32.227
1571283181.729,50.781,-226.074,-200.684,62.012,36.621
1571283181.733,42.969,69.824,-10.742,38.574,7.812
1571283181.737,53.223,-26.367,-137.207,36.621,11.230
1571283181.741,59.570,-284.180,-292.480,53.711,3.906
1571283181.745,49.316,-24.414,-15.137,69.824,15.137
1571283181.749,41.992,367.188,265.625,46.875,23.926
1571283181.753,58.105,48.828,-43.945,23.438,-11.719
1571283181.757,53.223,-262.207,-248.535,25.879,-1.465
1571283181.761,37.598,92.285,104.004,42.969,38.086
1571283181.764,40.527,483.398,405.762,48.828,47.363
1571283181.768,55.664,153.809,94.727,34.180,-2.441
1571283181.772,60.547,-440.430,-349.609,41.992,-16.602
1571283181.776,45.410,-295.898,-144.043,55.664,43.457
1571283181.780,37.598,138.184,219.727,58.594,65.430
1571283181.784,49.805,69.824,108.887,48.828,27.832
1571283181.788,56.641,-607.422,-433.105,31.738,0.977
1571283181.792,37.598,-398.926,-204.590,25.391,41.992
1571283181.796,31.250,413.086,435.059,40.039,71.289
1571283181.800,43.945,313.965,289.551,41.992,22.461
1571283181.803,48.340,-105.469,-85.938,30.273,14.648
1571283181.807,35.645,-4.395,14.648,28.320,44.434
1571283181.811,26.855,463.867,413.574,41.016,74.219
1571283181.815,30.273,443.848,365.234,36.133,48.828
1571283181.819,43.457,-198.242,-178.223,24.902,1.465
1571283181.823,39.551,-457.520,-349.121,25.879,34.668
1571283181.827,32.715,-193.848,-89.355,36.621,48.828
1571283181.831,31.250,-45.898,24.414,37.109,25.879
1571283181.835,32.227,-101.074,-76.172,16.602,2.930
1571283181.839,32.227,-186.035,-167.969,8.301,-0.977
1571283181.843,21.973,265.625,242.676,24.902,62.988
1571283181.846,50.781,246.094,268.555,64.941,54.688
1571283181.850,50.293,-202.148,-94.727,42.480,5.859
1571283181.854,21.973,-79.590,-28.320,2.441,28.809
1571283181.858,28.809,107.422,157.227,26.855,45.410
1571283181.862,25.391,301.270,375.000,38.086,49.805
1571283181.866,32.227,190.430,285.156,30.273,28.320
1571283181.870,44.434,-265.625,-94.727,22.949,6.348
1571283181.874,34.180,-332.520,-119.629,24.902,7.324
1571283181.878,24.414,-266.602,-5.371,36.621,20.508
1571283181.882,21.484,-92.773,124.512,22.949,24.414
1571283181.886,26.855,65.430,159.668,16.113,5.859
1571283181.889,34.668,-114.746,-1.465,22.949,-0.977
1571283181.893,29.297,127.441,246.094,20.996,34.180
1571283181.897,22.461,690.918,685.547,25.879,53.711
1571283181.901,31.250,588.867,525.879,13.672,-0.977
1571283181.905,25.879,95.215,125.000,-1.465,-10.742
1571283181.909,8.789,191.895,264.160,1.465,19.043
1571283181.913,9.277,407.227,465.332,7.812,31.738
1571283181.917,11.719,306.152,356.445,-2.441,23.926
1571283181.921,9.277,-262.695,-123.047,-14.160,-14.648
1571283181.925,6.348,-512.695,-249.023,-7.812,15.137
1571283181.928,-5.371,347.168,460.449,-0.977,73.242
1571283181.932,4.883,668.945,636.719,5.371,34.180
1571283181.936,15.137,205.078,225.098,-0.977,8.789
1571283181.940,9.277,-49.805,57.129,0.488,11.230
1571283181.944,-0.488,385.254,439.453,9.766,33.203
1571283181.948,1.465,717.285,669.922,11.719,44.922
1571283181.952,8.301,271.484,260.254,3.418,-2.441
1571283181.956,5.859,-31.250,22.461,-0.488,-3.906
1571283181.960,-1.465,185.059,244.629,9.277,41.016
1571283181.964,5.859,349.121,377.930,21.484,55.664
1571283181.968,20.020,-204.590,-109.863,9.277,0.977
1571283181.971,5.859,-538.574,-401.367,-5.371,-9.766
1571283181.975,-5.859,138.184,137.695,7.324,47.852
1571283181.979,0.488,575.684,470.703,20.020,71.289
1571283181.983,12.207,522.461,370.117,15.137,57.129
1571283181.987,12.207,289.551,125.000,9.766,33.691
1571283181.991,-1.953,354.004,196.777,16.113,56.641
1571283181.995,-6.348,551.758,397.949,26.367,74.707
1571283181.999,-1.953,447.266,305.176,22.949,55.664
1571283182.003,9.766,224.121,71.777,5.371,32.227
1571283182.007,12.695,-158.203,-229.492,10.254,-5.371
1571283182.011,3.418,-294.922,-262.207,22.461,14.648
1571283182.014,-0.488,-226.074,-200.684,12.695,28.809
1571283182.018,6.348,-143.066,-222.656,-0.977,-18.066
1571283182.022,19.043,-102.539,-232.910,5.859,-10.254
1571283182.026,6.836,161.133,30.273,14.648,41.504
1571283182.030,-12.695,481.445,299.316,13.184,41.992
1571283182.034,-1.953,487.793,249.512,-4.395,21.484
1571283182.038,13.184,146.484,-47.363,0.488,8.301
1571283182.042,5.859,44.434,-62.012,24.902,9.277
1571283182.046,-6.836,456.543,311.035,19.531,50.293
1571283182.050,1.953,577.148,352.539,11.230,39.551
1571283182.053,19.531,-17.578,-150.879,18.555,3.418
1571283182.057,17.090,-608.887,-530.762,19.043,14.648
1571283182.061,-3.418,-191.406,-128.906,18.066,39.062
1571283182.065,-9.277,503.418,379.395,10.254,41.504
1571283182.069,7.324,301.270,166.992,0.977,40.039
1571283182.073,10.742,-14.648,-56.641,8.301,25.391
1571283182.077,-11.719,413.574,354.492,19.531,47.852
1571283182.081,-11.719,766.602,630.371,23.438,52.734
1571283182.085,10.254,417.480,304.688,6.348,34.668
1571283182.089,15.137,-44.434,-55.664,-4.395,30.273
1571283182.093,1.953,122.559,137.207,4.883,33.203
1571283182.096,-3.418,553.223,498.535,5.371,57.129
1571283182.100,15.625,53.223,77.148,7.812,21.484
1571283182.104,18.066,-700.195,-506.836,3.418,-7.324
1571283182.108,6.836,-304.688,-146.484,7.812,16.602
1571283182.112,9.766,75.684,176.270,22.461,16.113
1571283182.116,11.719,-156.738,-25.879,2.441,-5.859
1571283182.120,13.184,-382.812,-239.746,-15.625,-13.184
1571283182.124,7.812,-194.824,-83.984,-4.883,-2.441
1571283182.128,-0.977,255.371,305.176,4.395,28.320
1571283182.132,5.371,309.082,333.496,5.371,28.809
1571283182.136,13.672,21.973,56.641,-5.859,21.973
1571283182.139,12.207,-73.730,-27.832,-1.465,27.344
1571283182.143,6.836,115.234,167.480,17.578,33.203
1571283182.147,6.836,112.305,174.316,25.391,38.574
1571283182.151,12.695,-297.363,-192.871,14.160,21.484
1571283182.155,8.301,-412.109,-310.547,1.465,37.109
1571283182.159,7.324,-31.738,9.766,19.043,78.125
1571283182.163,11.230,-184.082,-90.820,31.738,40.039
1571283182.167,4.395,-477.051,-349.121,0.977,0.977
1571283182.171,12.695,-338.379,-290.039,-3.906,39.062
1571283182.175,11.719,-187.988,-161.133,18.066,54.688
1571283182.178,-6.348,173.828,153.809,20.020,75.195
1571283182.182,-0.977,430.664,304.688,30.762,64.453
1571283182.186,19.531,71.777,-47.363,23.438,17.578
1571283182.190,19.043,-230.469,-263.672,9.766,22.949
1571283182.194,10.742,-124.512,-127.930,30.273,42.480
1571283182.198,14.648,-55.176,-91.309,41.016,39.062
1571283182.202,28.809,-192.383,-273.438,24.414,29.785
1571283182.206,37.598,-644.043,-653.320,29.785,-1.953
1571283182.210,19.531,-641.602,-587.402,39.551,23.926
1571283182.214,5.859,123.535,-3.418,32.227,56.152
1571283182.218,25.879,119.629,-109.375,20.508,5.859
1571283182.221,34.668,-364.746,-511.230,3.418,8.301
1571283182.225,32.715,-277.344,-383.301,21.484,38.086
1571283182.229,24.414,366.211,141.113,39.062,64.941
1571283182.233,26.367,411.621,116.211,22.461,27.832
1571283182.237,39.062,-47.363,-268.066,24.414,17.090
1571283182.241,30.273,-163.086,-299.805,38.574,29.297
1571283182.245,8.301,139.648,-4.395,32.227,53.223
1571283182.249,19.043,178.711,2.441,34.180,21.484
1571283182.253,40.039,-542.480,-579.102,33.691,-26.367
1571283182.257,23.926,-585.449,-566.895,18.066,-0.488
1571283182.261,4.883,314.941,179.199,25.879,47.363
1571283182.264,7.324,691.406,465.332,30.762,85.449
1571283182.268,22.461,383.301,172.363,17.578,50.781
1571283182.272,20.020,208.008,36.621,26.855,38.574
1571283182.276,3.418,512.207,335.938,43.945,66.895
1571283182.280,9.277,610.352,436.035,35.645,63.965
1571283182.284,26.855,376.953,215.332,20.020,40.527
1571283182.288,40.039,-68.359,-147.949,21.973,29.785
1571283182.292,25.879,48.828,15.137,25.879,73.242
1571283182.296,29.297,280.273,244.141,39.551,76.172
1571283182.300,41.016,-155.762,-114.746,28.320,13.672
1571283182.303,34.180,-209.961,-199.707,13.184,0.977
1571283182.307,26.855,13.672,-9.277,19.043,19.043
1571283182.311,11.230,333.496,304.199,24.902,56.152
1571283182.315,17.578,456.055,381.348,24.414,46.875
1571283182.319,29.297,277.344,181.641,20.020,31.250
1571283182.323,29.785,54.199,19.043,22.461,33.203
1571283182.327,28.320,167.969,168.945,36.133,34.180
1571283182.331,19.043,306.641,268.066,29.297,9.766
1571283182.335,22.461,-96.191,-104.492,10.742,-13.184
1571283182.339,29.785,-642.578,-519.531,26.367,10.742
1571283182.343,17.578,-478.027,-332.520,39.551,39.062
1571283182.346,3.906,50.781,64.941,24.902,32.227
1571283182.350,7.812,149.414,55.664,10.254,16.113
1571283182.354,24.902,-357.422,-390.137,12.207,-9.766
1571283182.358,19.043,-663.574,-556.641,24.902,20.020
1571283182.362,0.977,-68.848,-54.199,29.297,74.219
1571283182.366,7.324,268.066,119.141,19.531,48.828
1571283182.370,17.578,-262.207,-366.211,1.465,4.395
1571283182.374,10.254,-408.691,-441.895,6.836,26.367
1571283182.378,4.395,172.852,55.176,26.367,68.848
1571283182.382,10.742,228.516,77.637,25.879,57.617
1571283182.386,23.438,-521.973,-569.336,20.020,3.906
1571283182.389,23.926,-883.789,-866.699,17.090,-2.930
1571283182.393,7.324,-346.191,-363.770,25.391,48.340
1571283182.397,3.906,185.059,40.527,23.926,55.664
1571283182.401,17.578,-111.816,-284.180,7.324,1.953
1571283182.405,21.484,-591.309,-679.688,1.465,-10.254
1571283182.409,6.836,-122.070,-254.883,5.371,66.895
1571283182.413,10.742,400.879,171.387,26.855,85.938
1571283182.417,26.855,141.113,-86.426,19.531,16.113
1571283182.421,32.227,-284.668,-433.105,11.719,-2.930
1571283182.425,24.414,-42.480,-149.414,26.367,44.434
1571283182.428,19.043,369.629,251.953,41.504,66.406
1571283182.432,26.855,-135.742,-142.578,33.203,11.230
1571283182.436,23.438,-652.344,-562.500,3.906,-11.719
1571283182.440,20.020,-95.703,-119.629,9.277,62.988
1571283182.444,28.320,438.477,319.824,33.203,85.938
1571283182.448,28.809,423.340,300.293,26.367,57.129
1571283182.452,31.738,79.590,-7.324,18.555,15.625
1571283182.456,23.926,-48.828,-91.797,22.949,10.742
1571283182.460,13.184,316.895,276.855,25.391,63.965
1571283182.464,11.230,673.828,586.914,27.832,84.473
1571283182.468,17.578,535.645,426.270,19.531,35.156
1571283182.471,21.484,140.137,105.957,18.066,6.348
1571283182.475,16.602,-96.191,14.160,22.949,25.391
1571283182.479,6.836,28.809,186.035,13.672,57.617
1571283182.483,7.812,386.230,415.039,1.465,70.312
1571283182.487,26.855,30.762,47.363,4.395,-3.906
1571283182.491,23.438,-337.402,-182.617,15.625,-18.066
1571283182.495,1.465,146.973,286.621,11.719,62.012
1571283182.499,6.836,584.473,578.125,0.000,60.059
1571283182.503,28.320,160.156,175.781,1.465,7.324
1571283182.507,19.531,-247.070,-99.121,3.906,13.184
1571283182.511,8.301,130.371,269.043,20.508,51.758
1571283182.514,16.602,507.812,534.668,25.879,42.969
1571283182.518,31.738,118.652,153.809,7.812,6.348
1571283182.522,28.809,-482.910,-308.594,8.301,6.348
1571283182.526,12.207,-405.273,-164.062,25.879,33.203
1571283182.530,17.090,205.078,323.242,29.297,64.453
1571283182.534,38.086,116.211,168.945,23.926,16.602
1571283182.538,44.922,-789.551,-619.141,8.301,-33.203
1571283182.542,16.113,-605.957,-394.043,0.977,21.973
1571283182.546,7.812,303.711,381.348,20.996,68.848
1571283182.550,24.414,196.289,212.402,12.207,14.648
1571283182.553,37.109,-520.020,-400.391,-7.812,-47.852
1571283182.557,29.297,-329.590,-193.848,4.395,27.832
1571283182.561,22.949,211.426,267.578,32.227,66.406
1571283182.565,30.273,66.895,119.141,26.855,25.391
1571283182.569,36.621,-527.344,-395.020,4.883,-18.555
1571283182.573,29.297,-789.062,-577.637,8.301,-9.766
1571283182.577,12.695,-105.469,23.926,21.973,69.336
1571283182.581,26.367,177.246,213.867,28.809,68.359
1571283182.585,35.645,-490.234,-390.625,13.184,-8.789
1571283182.589,20.508,-569.336,-479.980,-1.953,-8.789
1571283182.593,7.812,59.082,57.617,15.137,60.059
1571283182.596,3.906,457.031,391.113,22.949,81.055
1571283182.600,21.484,271.973,193.359,4.395,25.391
1571283182.604,33.203,-62.500,-97.656,-6.348,4.395
1571283182.608,19.043,133.789,137.207,14.648,59.082
1571283182.612,11.230,527.344,492.188,34.180,74.707
1571283182.616,27.832,420.898,382.812,29.785,39.551
1571283182.620,35.645,-146.973,-60.547,17.578,-8.301
1571283182.624,24.902,-270.996,-77.637,30.273,10.742
1571283182.628,17.090,23.438,265.137,36.133,61.523
1571283182.632,8.789,362.793,522.461,6.836,47.852
1571283182.636,22.461,335.938,387.695,1.953,-2.930
1571283182.639,33.691,-136.230,17.090,18.066,-7.324
1571283182.643,15.137,228.027,398.926,26.855,60.547
1571283182.647,16.602,886.719,909.668,31.250,80.566
1571283182.651,34.180,689.453,678.711,21.484,33.203
1571283182.655,41.504,114.746,245.605,18.555,16.113
1571283182.659,24.902,245.605,457.031,23.438,41.016
1571283182.663,11.719,606.934,804.199,19.043,78.125
1571283182.667,23.438,431.152,631.836,0.977,62.500
1571283182.671,29.297,-95.215,189.941,0.000,14.648
1571283182.675,20.996,-226.074,158.203,22.949,15.625
1571283182.678,19.531,320.801,642.090,31.738,67.383
1571283182.682,30.762,685.059,859.863,19.043,72.266
1571283182.686,50.781,-208.984,81.543,20.508,-18.555
1571283182.690,36.621,-725.586,-260.254,10.742,0.000
1571283182.694,12.695,196.289,509.277,23.926,74.707
1571283182.698,11.719,621.582,776.855,29.297,66.406
1571283182.702,31.738,21.484,234.863,0.488,18.555
1571283182.706,34.668,-381.836,-64.941,6.836,-0.488
1571283182.710,25.879,-13.184,287.109,30.273,48.340
1571283182.714,30.273,287.598,516.113,30.762,67.871
1571283182.718,45.898,-295.898,-8.301,27.832,4.883
1571283182.721,36.621,-687.988,-340.332,11.719,8.789
1571283182.725,15.137,165.527,352.051,9.277,104.980
1571283182.729,17.090,743.652,792.480,30.273,144.043
1571283182.733,34.180,422.852,474.121,35.645,76.172
1571283182.737,45.410,-22.949,71.777,23.438,23.438
1571283182.741,33.203,123.535,222.656,17.578,61.035
1571283182.745,29.785,521.973,584.961,30.273,109.375
1571283182.749,39.551,517.578,545.410,38.574,86.914
1571283182.753,44.922,111.328,150.879,15.625,38.574
1571283182.757,39.062,-271.484,-128.418,13.672,42.480
1571283182.761,33.691,-311.523,-78.125,39.551,59.570
1571283182.764,32.715,-248.535,-18.555,37.598,63.965
1571283182.768,34.180,-206.055,-78.125,-0.488,39.551
1571283182.772,32.227,-254.883,-168.945,-2.930,25.391
1571283182.776,23.926,5.859,97.168,28.320,62.500
1571283182.780,20.508,362.793,386.719,26.367,68.848
1571283182.784,25.391,356.445,305.664,7.324,47.363
1571283182.788,39.062,-142.578,-102.051,9.277,43.457
1571283182.792,38.086,-248.535,-96.191,30.273,65.918
1571283182.796,24.414,294.434,368.164,36.133,83.008
1571283182.800,23.438,469.727,435.547,16.602,62.500
1571283182.803,30.273,-179.199,-121.582,16.602,17.090
1571283182.807,33.203,-783.691,-501.953,29.785,18.555
1571283182.811,14.160,-281.250,-22.461,27.344,58.594
1571283182.815,17.578,456.543,489.746,15.625,71.777
1571283182.819,38.086,81.055,100.586,18.555,29.785
1571283182.823,26.367,-343.262,-205.566,19.043,18.066
1571283182.827,12.207,189.941,285.645,18.555,68.359
1571283182.831,12.207,643.066,618.652,21.973,82.520
1571283182.835,35.645,75.195,100.098,25.879,-0.488
1571283182.839,37.598,-529.297,-351.074,16.113,-25.391
1571283182.843,16.602,-104.492,61.035,18.066,41.504
1571283182.846,21.973,261.719,379.395,36.621,38.574
1571283182.850,48.828,-291.504,-101.074,24.414,-22.949
1571283182.854,57.617,-999.512,-755.859,3.906,-79.590
1571283182.858,33.691,-521.484,-258.789,22.461,-14.648
1571283182.862,29.785,309.570,479.980,43.457,54.688
1571283182.866,30.273,244.629,350.098,10.742,13.672
1571283182.870,41.504,-359.375,-175.293,4.883,-40.527
1571283182.874,36.133,-358.887,-137.695,12.695,-20.508
1571283182.878,15.137,157.715,323.730,25.879,31.250
1571283182.882,17.578,234.863,364.258,31.250,25.391
1571283182.886,33.691,-232.910,-53.711,14.648,-20.020
1571283182.889,31.250,-426.758,-178.223,14.648,-0.977
1571283182.893,9.277,-78.125,167.969,31.738,42.969
1571283182.897,0.977,30.762,266.113,14.648,56.641
1571283182.901,21.484,-450.195,-164.551,6.836,27.832
1571283182.905,29.785,-943.359,-611.328,19.043,-13.184
1571283182.909,-10.742,-770.996,-421.387,-8.789,20.508
1571283182.913,-39.551,-664.551,-286.621,-17.090,59.082
1571283182.917,-39.062,-718.750,-405.273,-33.203,32.715
1571283182.921,-54.688,-720.703,-491.699,-58.105,25.879
1571283182.925,-75.684,-646.484,-403.809,-59.082,66.406
1571283182.928,-80.078,-245.605,-47.852,-68.848,98.633
1571283182.932,-98.633,-109.863,0.977,-94.238,64.453
1571283182.936,-105.957,-621.094,-470.215,-120.605,15.625
1571283182.940,-107.422,-971.680,-726.562,-110.840,29.297
1571283182.944,-124.512,-833.984,-544.434,-78.125,49.805
1571283182.948,-134.277,-669.922,-389.648,-101.562,70.312
1571283182.952,-131.348,-868.652,-699.219,-146.973,16.602
1571283182.956,-138.672,-1000.000,-944.336,-148.438,-7.812
1571283182.960,-146.973,-744.141,-557.129,-123.535,74.707
1571283182.964,-134.277,-291.992,-87.402,-112.305,97.656
1571283182.968,-108.887,-450.195,-271.484,-116.211,33.203
1571283182.971,-95.703,-959.473,-782.227,-117.188,0.977
1571283182.975,-104.004,-758.301,-523.438,-105.469,42.969
1571283182.979,-100.586,-143.066,97.656,-78.125,78.125
1571283182.983,-69.824,-210.938,15.625,-63.477,35.645
1571283182.987,-50.293,-862.305,-687.988,-62.012,-26.855
1571283182.991,-64.453,-925.781,-662.598,-54.199,18.066
1571283182.995,-63.477,-427.734,11.230,-35.156,80.566
1571283182.999,-36.133,-310.059,102.539,-23.926,52.246
1571283183.003,1.465,-835.938,-514.648,-11.719,-28.809
1571283183.007,-3.906,-856.445,-516.113,-9.277,-20.508
1571283183.011,-24.902,19.531,382.812,-6.348,79.590
1571283183.014,-9.277,302.246,561.035,9.277,68.848
1571283183.018,15.137,-285.156,49.316,10.742,-8.789
1571283183.022,29.297,-467.285,-73.730,25.391,-5.371
1571283183.026,29.297,-5.371,347.656,57.129,31.738
1571283183.030,36.133,304.199,597.168,60.547,42.480
1571283183.034,47.852,66.895,357.422,53.711,18.555
1571283183.038,58.105,-522.461,-116.699,68.359,-2.930
1571283183.042,62.500,-395.020,59.082,80.566,40.039
1571283183.046,69.824,5.371,402.832,86.426,65.430
1571283183.050,73.242,-461.914,-10.254,67.383,-4.883
1571283183.053,73.242,-726.074,-265.137,56.152,-38.574
1571283183.057,81.055,-416.992,-1.953,80.078,9.277
1571283183.061,83.984,44.434,394.043,93.262,69.336
1571283183.065,92.773,164.551,421.387,84.473,41.992
1571283183.069,104.004,-265.625,-8.789,73.242,-34.180
1571283183.073,105.957,-733.887,-350.098,82.031,-32.227
1571283183.077,97.168,-499.512,-89.844,106.934,6.348
1571283183.081,89.355,20.020,294.434,91.797,35.645
1571283183.085,102.051,-313.477,-60.059,74.219,14.160
1571283183.089,101.074,-920.898,-556.641,89.355,-20.508
1571283183.093,96.191,-996.094,-524.902,104.492,0.000
1571283183.096,95.703,-454.590,-56.152,104.004,45.410
1571283183.100,100.098,-0.977,184.570,92.285,30.762
1571283183.104,110.840,-478.027,-274.902,83.984,-4.395
1571283183.108,95.703,-500.488,-252.441,93.750,28.320
1571283183.112,82.520,97.168,206.543,101.562,61.035
1571283183.116,94.727,130.859,125.977,88.379,41.992
1571283183.120,99.609,-496.094,-423.340,74.219,19.043
1571283183.124,81.543,-622.070,-450.684,76.660,35.156
1571283183.128,87.402,-202.637,-57.617,107.910,33.691
1571283183.132,95.703,-187.988,-20.508,106.445,38.086
1571283183.136,102.051,-666.992,-539.551,86.426,5.371
1571283183.139,99.121,-889.160,-816.895,80.078,-3.418
1571283183.143,74.707,-197.266,-86.426,77.148,76.172
1571283183.147,88.379,363.770,369.629,82.031,76.660
1571283183.151,105.957,-85.938,-61.035,75.684,7.812
1571283183.155,92.285,-555.176,-406.250,68.359,-2.441
1571283183.159,77.637,-85.938,41.016,81.543,50.781
1571283183.163,79.590,417.969,458.496,103.516,73.730
1571283183.167,82.520,205.566,245.117,87.402,47.363
1571283183.171,87.402,-317.383,-192.871,62.012,1.465
1571283183.175,82.031,-149.902,2.441,59.082,33.691
1571283183.178,74.707,254.395,375.488,75.195,76.660
1571283183.182,90.820,-230.957,-17.090,74.707,32.715
1571283183.186,82.520,-875.977,-547.363,44.922,-14.160
1571283183.190,62.988,-449.707,-186.035,40.527,27.832
1571283183.194,65.918,261.719,410.156,59.082,75.195
1571283183.198,59.570,409.668,499.512,49.316,51.270
1571283183.202,59.082,127.441,219.727,37.598,7.324
1571283183.206,55.176,-53.711,98.633,45.410,22.949
1571283183.210,38.574,218.750,393.555,61.035,62.500
1571283183.214,44.434,447.754,580.078,62.500,51.270
1571283183.218,56.152,280.762,386.230,42.480,26.367
1571283183.221,52.734,-96.191,71.777,36.621,9.277
1571283183.225,53.223,-195.312,86.914,59.570,39.062
1571283183.229,43.457,-264.648,110.840,60.059,44.434
1571283183.233,40.039,-101.074,198.730,27.344,21.484
1571283183.237,53.223,-103.027,129.395,29.785,22.949
1571283183.241,48.828,-230.469,69.824,52.734,20.996
1571283183.245,32.715,184.082,443.359,60.547,52.734
1571283183.249,41.504,496.582,619.629,43.945,54.199
1571283183.253,70.312,7.324,155.762,41.504,12.695
1571283183.257,69.824,-363.281,-97.168,47.363,26.855
1571283183.261,38.086,66.406,299.805,43.457,77.148
1571283183.264,31.250,438.965,546.875,44.922,71.777
1571283183.268,57.129,-74.219,60.059,29.297,-9.277
1571283183.272,62.500,-734.375,-437.988,24.414,-18.555
1571283183.276,43.945,-543.945,-205.078,35.156,47.363
1571283183.280,38.574,-79.590,158.203,41.016,62.988
1571283183.284,56.152,-282.227,-78.613,38.574,5.859
1571283183.288,63.477,-926.270,-745.117,35.645,-33.691
1571283183.292,45.410,-637.695,-472.168,35.156,18.066
1571283183.296,35.645,111.328,220.215,45.410,50.781
1571283183.300,41.504,-139.160,-57.129,36.133,7.324
1571283183.303,48.828,-681.152,-527.832,22.949,2.930
1571283183.307,33.691,-507.324,-376.465,34.668,9.766
1571283183.311,18.066,72.266,106.445,32.715,52.734
1571283183.315,23.926,109.375,92.285,25.391,45.410
1571283183.319,30.273,-645.508,-572.754,16.113,-27.344
1571283183.323,21.484,-976.562,-787.109,24.414,-8.301
1571283183.327,13.672,-371.582,-219.238,39.062,46.875
1571283183.331,37.598,-70.312,0.977,28.320,60.059
1571283183.335,48.340,-698.730,-559.570,11.719,-9.277
1571283183.339,25.879,-738.770,-611.328,0.488,-20.508
1571283183.343,21.484,23.926,25.879,16.602,63.965
1571283183.346,19.043,428.223,340.332,20.996,77.148
1571283183.350,17.578,187.012,79.102,0.977,7.324
1571283183.354,26.855,-153.320,-203.613,-0.977,19.531
1571283183.358,32.227,-23.438,-14.160,19.531,66.895
1571283183.362,20.508,452.637,409.180,25.879,59.570
1571283183.366,29.785,354.492,300.781,25.879,21.484
1571283183.370,53.711,-167.480,-131.348,27.832,2.930
1571283183.374,54.199,-41.504,13.672,32.227,28.320
1571283183.378,43.457,18.066,143.066,43.945,29.297
1571283183.382,34.668,96.680,228.027,28.809,32.227
1571283183.386,56.152,185.059,239.258,15.625,10.254
1571283183.389,67.871,-99.121,52.734,24.414,14.648
1571283183.393,41.504,197.266,380.859,42.480,48.340
1571283183.397,21.484,734.375,806.152,37.109,62.988
1571283183.401,44.434,569.824,605.469,19.531,39.062
1571283183.405,57.617,-73.242,90.332,29.297,-13.672
1571283183.409,42.969,-11.719,231.934,38.574,14.648
1571283183.413,31.738,357.910,565.918,32.227,56.641
1571283183.417,38.086,209.961,407.715,23.438,32.715
1571283183.421,40.527,-521.484,-185.547,39.062,-24.414
1571283183.425,25.391,-731.445,-269.531,37.109,-17.578
1571283183.428,17.090,220.215,500.488,32.715,58.594
1571283183.432,30.273,612.793,693.848,41.504,49.316
1571283183.436,53.711,-60.547,84.473,26.855,-7.812
1571283183.440,40.527,-221.680,1.953,11.719,28.320
1571283183.444,20.996,447.266,565.430,20.996,89.844
1571283183.448,37.109,603.027,636.719,40.527,61.035
1571283183.452,55.664,-29.297,85.449,24.902,7.812
1571283183.456,45.410,-355.957,-145.508,21.973,13.184
1571283183.460,34.180,-83.984,134.766,46.875,43.945
1571283183.464,30.762,124.023,308.594,39.062,57.129
1571283183.468,48.340,-500.488,-298.340,25.879,-11.719
1571283183.471,39.551,-908.691,-650.391,2.930,-5.859
1571283183.475,8.789,-203.613,-47.363,7.812,42.480
1571283183.479,13.672,267.090,281.250,38.574,53.223
1571283183.483,45.898,35.156,20.508,40.039,34.180
1571283183.487,52.734,-362.793,-350.586,29.785,7.812
1571283183.491,34.668,-185.547,-176.270,16.602,39.551
1571283183.495,38.086,169.922,138.184,26.855,52.734
1571283183.499,50.781,141.602,82.520,40.039,23.438
1571283183.503,48.340,-239.258,-272.461,25.879,-10.742
1571283183.507,31.738,-364.258,-331.543,24.414,42.969
1571283183.511,32.715,-175.293,-106.934,40.527,90.820
1571283183.514,46.875,-136.230,-94.238,36.133,42.969
1571283183.518,58.105,-229.004,-255.859,27.344,-17.090
1571283183.522,42.480,-328.613,-341.797,29.785,9.277
1571283183.526,40.039,-282.227,-224.121,39.551,46.387
1571283183.530,49.316,-68.359,-37.598,44.434,31.738
1571283183.534,46.875,72.754,-10.254,37.109,-9.277
1571283183.538,43.457,-147.949,-213.379,33.203,2.441
1571283183.542,27.344,38.086,4.395,24.902,49.805
1571283183.546,11.719,574.707,460.938,29.297,74.219
1571283183.550,22.461,679.199,488.281,23.926,58.105
1571283183.553,35.645,40.527,-47.363,23.438,16.602
1571283183.557,21.484,-603.516,-470.703,16.602,-3.418
1571283183.561,5.371,-200.195,-78.125,6.836,29.297
1571283183.565,8.789,505.859,414.551,9.277,49.316
1571283183.569,25.879,76.172,-11.230,15.625,-9.277
1571283183.573,15.137,-333.496,-281.738,28.320,-29.785
1571283183.577,-12.695,332.520,340.332,30.273,44.922
1571283183.581,0.000,758.789,666.504,23.926,70.312
1571283183.585,36.133,206.543,183.105,29.785,9.277
1571283183.589,35.645,-342.285,-220.703,20.508,-39.551
1571283183.593,16.602,178.711,274.414,26.855,31.738
1571283183.596,29.297,852.051,803.223,40.039,81.055
1571283183.600,48.828,288.574,301.270,38.574,19.043
1571283183.604,42.969,-594.727,-380.371,36.621,-14.160
1571283183.608,28.809,-122.559,60.059,21.973,33.203
1571283183.612,22.949,606.445,634.766,22.461,53.223
1571283183.616,29.785,287.109,331.543,22.949,10.254
1571283183.620,40.039,-393.066,-238.281,5.859,-18.555
1571283183.624,31.250,-262.695,-119.141,16.113,5.371
1571283183.628,14.648,331.055,369.141,34.180,64.453
1571283183.632,24.902,370.605,344.727,35.645,50.293
1571283183.636,45.410,-318.848,-272.949,31.738,-51.270
1571283183.639,44.922,-866.699,-667.480,22.461,-86.426
1571283183.643,4.395,-437.500,-231.934,20.996,-13.672
1571283183.647,2.441,-149.902,-11.230,21.973,-10.742
1571283183.651,27.344,-624.512,-461.426,11.230,-43.457
1571283183.655,21.973,-919.434,-731.445,3.906,-54.199
1571283183.659,18.066,-444.336,-312.988,15.137,-5.859
1571283183.663,14.160,-296.875,-187.988,23.926,27.832
1571283183.667,8.789,-435.547,-373.535,0.488,6.348
1571283183.671,14.648,-420.410,-435.059,-2.930,-1.953
1571283183.675,9.277,-312.500,-305.664,23.438,32.715
1571283183.678,-3.906,223.633,165.039,29.297,95.703
1571283183.682,7.812,489.746,308.594,5.859,76.660
1571283183.686,24.414,47.852,-113.281,0.488,25.391
1571283183.690,18.066,-134.766,-210.938,15.625,63.477
1571283183.694,11.719,76.660,11.719,31.738,76.172
1571283183.698,17.578,109.375,5.859,26.855,55.176
1571283183.702,31.250,-249.023,-344.727,26.367,25.879
1571283183.706,42.969,-865.723,-826.660,27.344,-30.762
1571283183.710,26.855,-673.340,-575.684,23.926,16.113
1571283183.714,6.836,250.977,150.391,20.996,74.707
1571283183.718,30.762,430.176,190.918,18.066,49.316
1571283183.721,41.504,-27.832,-175.781,17.578,22.461
1571283183.725,18.555,177.246,66.406,18.066,40.527
1571283183.729,10.742,826.660,601.562,24.414,81.055
1571283183.733,28.320,639.160,394.531,23.926,19.531
1571283183.737,24.414,-99.609,-206.055,8.789,-41.504
1571283183.741,10.254,-210.449,-198.730,12.207,9.277
1571283183.745,11.230,310.547,278.320,34.180,66.895
1571283183.749,18.555,606.445,465.820,20.508,63.477
1571283183.753,35.156,-225.098,-226.562,0.000,6.836
1571283183.757,15.137,-405.273,-294.922,9.277,24.902
1571283183.761,-1.953,663.574,601.074,11.719,97.656
1571283183.764,6.348,905.762,756.348,3.418,80.078
1571283183.768,9.277,336.426,257.324,-5.859,28.320
1571283183.772,14.648,72.754,64.453,8.789,22.461
1571283183.776,6.348,453.125,425.781,30.273,52.734
1571283183.780,-14.160,676.758,611.328,12.695,69.336
1571283183.784,3.906,305.176,270.996,6.348,27.832
1571283183.788,12.695,-350.098,-237.793,9.277,-22.949
1571283183.792,-2.441,-234.375,-40.039,8.789,37.598
1571283183.796,11.719,355.469,467.285,31.250,84.961
1571283183.800,22.461,312.012,369.629,34.180,27.344
1571283183.803,29.785,-64.453,28.320,3.418,-4.395
1571283183.807,16.602,60.059,184.082,6.836,66.895
1571283183.811,27.344,148.438,304.199,50.293,71.777
1571283183.815,36.133,-279.785,-56.152,22.461,-0.488
1571283183.819,29.297,-393.555,-216.797,-22.949,-1.953
1571283183.823,28.809,-295.898,-155.273,-13.184,32.715
1571283183.827,24.414,-5.859,121.582,7.812,50.293
1571283183.831,26.367,235.840,281.250,16.602,34.668
1571283183.835,32.227,-248.535,-177.734,19.043,-4.883
1571283183.839,23.926,-832.520,-626.465,14.648,-11.230
1571283183.843,16.602,-889.648,-586.914,15.625,8.301
1571283183.846,18.555,-484.375,-253.906,16.113,20.508
