timestamps,TP9,AF7,AF8,TP10,Right AUX
1569100369.147,-15.625,-970.215,175.293,63.965,55.664
1569100369.151,3.418,-970.215,-293.945,75.684,87.891
1569100369.155,-13.184,-970.215,478.516,66.895,47.852
1569100369.158,-18.555,-970.215,-932.129,64.941,-4.395
1569100369.162,0.488,-970.215,511.719,38.574,38.574
1569100369.166,15.137,-970.215,-330.566,6.836,81.055
1569100369.170,5.859,-970.215,206.543,-14.648,31.738
1569100369.174,4.883,-970.215,-880.859,-12.695,-33.203
1569100369.178,26.855,-969.727,481.445,6.348,-39.062
1569100369.182,31.250,-970.215,-327.148,3.906,55.176
1569100369.186,6.836,-971.680,289.551,-7.812,57.129
1569100369.190,-15.137,-953.613,-983.887,-11.230,-10.742
1569100369.194,-3.906,-959.961,937.500,1.465,7.324
1569100369.197,15.625,-969.727,257.812,18.066,81.543
1569100369.201,4.395,-980.469,223.145,15.625,98.145
1569100369.205,-7.324,-916.992,898.438,0.488,19.043
1569100369.209,17.090,-906.250,-965.820,13.184,6.348
1569100369.213,48.828,-977.051,367.676,48.340,46.875
1569100369.217,38.574,-972.656,-160.156,51.758,48.340
1569100369.221,13.672,-959.473,552.734,19.531,0.977
1569100369.225,25.879,-944.336,-884.766,29.297,-9.277
1569100369.229,42.969,-968.750,740.723,51.270,32.715
1569100369.233,36.133,-971.680,195.312,47.363,66.406
1569100369.237,19.531,-968.750,521.973,30.762,27.344
1569100369.240,11.719,-970.215,-973.633,30.273,-26.855
1569100369.244,27.832,-970.215,916.016,46.387,0.000
1569100369.248,48.340,-970.215,365.723,59.570,63.477
1569100369.252,36.621,-970.215,503.906,40.527,79.102
1569100369.256,34.668,-970.215,-971.191,29.297,14.160
1569100369.260,47.363,-970.703,-994.141,43.457,-4.395
1569100369.264,27.344,-961.914,426.758,39.551,73.730
1569100369.268,26.367,-994.141,263.672,37.598,59.082
1569100369.272,29.785,-870.605,920.410,42.480,-2.930
1569100369.276,32.715,-824.219,-952.637,40.527,-11.230
1569100369.280,37.598,-963.867,435.547,39.551,32.227
1569100369.283,27.344,-1000.000,259.766,29.785,68.848
1569100369.287,21.484,-873.535,857.910,19.043,35.645
1569100369.291,20.996,-656.250,-925.293,29.785,-2.441
1569100369.295,34.180,-869.629,822.754,48.340,35.645
1569100369.299,39.062,-1000.000,418.457,39.062,90.332
1569100369.303,29.297,-898.926,739.258,14.648,98.633
1569100369.307,27.832,-818.359,-957.031,25.391,20.020
1569100369.311,46.387,-942.871,969.238,63.477,0.488
1569100369.315,67.871,-978.027,469.238,88.379,58.594
1569100369.319,44.922,-977.539,220.215,62.500,29.785
1569100369.322,6.348,-886.230,827.148,24.414,-23.438
1569100369.326,11.719,-884.277,-933.594,48.340,-18.555
1569100369.330,37.598,-971.191,526.367,72.266,44.434
1569100369.334,42.969,-1000.000,250.977,50.781,58.594
1569100369.338,37.109,-841.309,762.207,37.109,24.414
1569100369.342,44.434,-743.652,-931.152,44.922,-0.488
1569100369.346,41.504,-968.750,661.621,40.039,40.039
1569100369.350,18.066,-978.516,170.410,27.344,94.727
1569100369.354,8.301,-961.426,552.246,16.113,36.621
1569100369.358,18.555,-974.121,-936.035,21.973,-29.785
1569100369.362,21.484,-959.473,797.852,34.180,11.230
1569100369.365,15.625,-975.098,180.664,27.832,82.520
1569100369.369,0.977,-966.309,422.852,26.367,51.758
1569100369.373,3.906,-520.508,-919.434,40.039,0.000
1569100369.377,34.668,-575.195,736.328,55.176,2.441
1569100369.381,38.574,-997.559,-94.238,55.176,52.734
1569100369.385,25.391,-995.117,156.738,47.852,60.547
1569100369.389,12.207,-400.879,868.652,47.852,-12.207
1569100369.393,5.371,101.074,-931.152,64.941,-7.324
1569100369.397,29.785,-558.105,487.793,92.773,56.641
1569100369.401,41.016,-1000.000,-113.281,99.609,34.668
1569100369.404,24.414,-598.633,505.859,67.383,-8.301
1569100369.408,25.391,210.449,-915.527,37.109,-16.113
1569100369.412,40.527,-61.523,764.648,46.387,36.133
1569100369.416,48.340,-901.367,-61.035,54.199,87.402
1569100369.420,26.367,-805.664,17.578,29.297,22.949
1569100369.424,19.531,301.758,929.199,24.902,-26.855
1569100369.428,38.574,485.840,877.441,45.898,26.367
1569100369.432,47.363,-483.887,91.309,47.852,91.797
1569100369.436,42.969,-754.395,-36.621,45.898,51.758
1569100369.440,39.062,198.730,713.867,36.133,0.488
1569100369.444,25.391,691.406,938.965,42.969,0.488
1569100369.447,15.137,-416.504,-14.648,55.664,45.410
1569100369.451,17.578,-914.551,-361.328,42.969,63.477
1569100369.455,9.766,121.094,554.688,31.738,19.043
1569100369.459,15.625,815.918,-994.629,26.367,8.301
1569100369.463,24.902,229.980,383.301,44.434,68.848
1569100369.467,12.695,-401.855,-109.375,52.734,109.863
1569100369.471,-2.930,325.195,520.996,41.992,44.922
1569100369.475,6.836,-903.320,-912.109,44.434,-16.602
1569100369.479,34.180,366.699,418.457,54.199,42.969
1569100369.483,27.832,-578.125,-377.930,42.969,75.195
1569100369.487,10.254,-8.301,113.770,35.645,18.066
1569100369.490,10.742,973.633,961.426,53.711,-24.902
1569100369.494,14.648,895.508,756.836,68.848,13.672
1569100369.498,21.484,-409.180,-429.199,69.824,48.340
1569100369.502,9.766,-371.582,-380.859,49.316,42.969
1569100369.506,8.301,922.852,815.918,44.434,6.836
1569100369.510,23.926,-925.781,-998.047,67.871,-8.789
1569100369.514,39.062,774.414,354.980,72.754,61.035
1569100369.518,30.762,629.883,45.898,52.246,71.777
1569100369.522,5.859,966.797,702.637,42.480,1.465
1569100369.526,16.113,-964.355,-911.133,47.363,-18.066
1569100369.529,32.227,936.035,564.453,51.270,35.645
1569100369.533,16.602,907.715,144.531,63.477,83.008
1569100369.537,10.742,997.070,653.320,55.664,44.434
1569100369.541,24.414,-994.141,-917.969,50.781,-16.602
1569100369.545,15.137,994.629,710.449,62.500,25.879
1569100369.549,4.883,958.496,55.664,48.340,81.543
1569100369.553,1.465,983.398,421.875,35.645,47.852
1569100369.557,7.812,-994.141,-952.148,41.504,-33.203
1569100369.561,18.066,996.094,939.453,46.875,8.301
1569100369.565,19.043,-999.512,398.438,46.875,90.332
1569100369.569,-2.930,999.512,443.359,35.156,72.754
1569100369.572,-18.555,999.512,-990.234,33.691,9.766
1569100369.576,-0.488,999.512,909.180,47.852,-19.043
1569100369.580,12.207,999.512,372.070,57.129,44.922
1569100369.584,6.836,-999.023,251.953,45.410,68.848
1569100369.588,1.465,990.234,744.141,36.621,5.371
1569100369.592,1.465,-983.887,-937.500,36.621,-20.020
1569100369.596,9.766,961.426,484.375,49.805,13.184
1569100369.600,12.207,854.004,-392.090,42.480,36.133
1569100369.604,-12.207,973.633,163.086,6.836,9.766
1569100369.608,-17.578,-986.328,-990.234,9.277,-31.738
1569100369.612,1.953,991.211,748.047,40.527,16.113
1569100369.615,14.648,-999.023,-1.953,50.293,66.406
1569100369.619,-2.441,999.512,144.531,30.762,27.344
1569100369.623,-5.371,999.512,940.430,23.926,-0.488
1569100369.627,19.531,999.512,884.277,32.227,27.832
1569100369.631,8.789,999.512,148.926,29.297,77.148
1569100369.635,-5.859,999.512,-96.191,24.902,67.871
1569100369.639,1.465,999.512,362.793,16.602,-1.465
1569100369.643,-0.977,999.512,719.238,20.508,11.719
1569100369.647,7.812,999.512,229.492,38.574,65.918
1569100369.651,4.395,999.512,-139.160,49.316,73.730
1569100369.654,-10.742,999.512,470.703,47.852,30.273
1569100369.658,5.859,999.512,851.562,43.457,6.836
1569100369.662,26.367,999.512,243.164,39.062,46.387
1569100369.666,14.648,999.512,-371.094,34.668,70.801
1569100369.670,-1.465,999.512,90.332,29.297,36.133
1569100369.674,0.977,999.512,674.805,40.039,-15.137
1569100369.678,20.508,999.512,286.133,56.641,-1.953
1569100369.682,27.344,999.512,-487.793,63.477,56.641
1569100369.686,1.953,999.512,-370.605,50.781,49.805
1569100369.690,-5.859,999.512,511.230,37.598,5.859
1569100369.694,19.043,999.512,582.520,51.758,12.207
1569100369.697,39.062,999.512,-364.258,70.312,36.133
1569100369.701,28.809,999.512,-572.266,62.500,18.555
1569100369.705,11.230,999.512,310.547,40.527,-6.836
1569100369.709,17.090,999.512,597.656,52.246,-7.324
1569100369.713,25.391,999.512,-63.965,75.195,38.574
1569100369.717,28.809,999.512,-719.727,70.312,53.711
1569100369.721,27.832,999.512,-264.160,51.758,-7.812
1569100369.725,20.020,999.512,598.633,49.805,-8.789
1569100369.729,23.926,999.512,54.199,62.500,40.039
1569100369.733,19.043,999.512,-576.172,64.453,72.754
1569100369.736,16.113,999.512,-278.320,46.387,7.324
1569100369.740,16.602,999.512,258.301,47.363,-55.176
1569100369.744,18.066,999.512,330.566,57.129,7.324
1569100369.748,28.320,999.512,-308.594,57.129,55.176
1569100369.752,20.996,999.512,-179.688,45.410,64.941
1569100369.756,14.160,999.512,611.328,44.434,56.152
1569100369.760,18.066,999.512,638.672,56.152,42.969
1569100369.764,24.414,999.512,-23.926,55.664,103.027
1569100369.768,23.438,999.512,-235.840,40.527,122.070
1569100369.772,9.277,999.512,501.465,24.902,61.035
1569100369.776,14.648,999.512,640.625,42.969,5.859
1569100369.779,21.973,999.512,-317.383,64.453,32.227
1569100369.783,-3.906,999.512,-596.680,60.059,80.078
1569100369.787,-14.160,999.512,174.805,40.527,56.152
1569100369.791,-1.953,999.512,749.512,31.738,18.555
1569100369.795,14.160,999.512,227.051,48.340,46.875
1569100369.799,16.602,999.512,-523.438,56.152,83.496
1569100369.803,2.930,999.512,-106.445,37.598,73.730
1569100369.807,5.371,999.512,645.996,35.645,19.531
1569100369.811,9.766,999.512,475.586,53.711,24.414
1569100369.815,10.742,999.512,-259.277,54.688,106.934
1569100369.819,4.883,999.512,-258.301,45.410,111.328
1569100369.822,-3.418,999.512,476.074,43.945,53.711
1569100369.826,7.812,999.512,663.086,62.012,62.012
1569100369.830,29.297,999.512,-30.273,70.801,103.516
1569100369.834,22.949,999.512,-338.379,52.734,102.539
1569100369.838,4.395,999.512,172.363,35.645,54.199
1569100369.842,-5.859,999.512,515.137,35.645,15.625
1569100369.846,-7.324,999.512,177.246,40.039,86.426
1569100369.850,-1.953,999.512,-266.602,36.133,168.457
1569100369.854,-6.348,999.512,227.539,33.691,124.023
1569100369.858,-3.418,999.512,724.121,29.785,45.410
1569100369.861,0.000,999.512,359.863,33.203,85.449
1569100369.865,0.000,999.512,-280.762,36.133,145.996
1569100369.869,-11.230,999.512,-238.770,30.762,104.492
1569100369.873,-16.113,999.512,564.941,21.973,90.332
1569100369.877,9.277,999.512,359.375,37.109,81.543
1569100369.881,20.020,999.512,-559.570,46.875,115.723
1569100369.885,0.000,999.512,-339.355,27.832,154.297
1569100369.889,-11.719,999.512,495.605,4.883,107.422
1569100369.893,-1.953,999.512,736.816,19.043,80.078
1569100369.897,3.906,999.512,33.691,42.480,130.859
1569100369.901,-8.301,999.512,-327.148,34.180,149.414
1569100369.904,-25.879,999.512,393.066,9.277,107.910
1569100369.908,-17.090,999.512,878.418,5.859,77.637
1569100369.912,9.766,999.512,387.207,48.340,110.352
1569100369.916,3.906,999.512,-287.598,64.453,154.297
1569100369.920,-23.438,999.512,-3.906,32.715,97.656
1569100369.924,-29.785,999.512,756.348,12.695,20.508
1569100369.928,-11.719,999.512,645.508,22.949,72.266
1569100369.932,0.488,999.512,178.223,44.922,187.012
1569100369.936,-10.742,999.512,234.375,41.504,150.391
1569100369.940,-28.809,999.512,801.270,16.602,62.012
1569100369.944,-10.742,999.512,892.578,18.555,83.984
1569100369.947,8.789,999.512,174.316,34.668,143.066
1569100369.951,-12.207,999.512,186.035,22.461,173.828
1569100369.955,-17.090,999.512,807.129,11.719,97.656
1569100369.959,-1.465,999.512,817.383,26.367,41.504
1569100369.963,1.953,999.512,288.574,42.969,134.766
1569100369.967,-14.648,999.512,-86.426,25.391,168.945
1569100369.971,-20.508,999.512,459.473,6.348,88.379
1569100369.975,-0.488,999.512,-970.215,22.949,41.992
1569100369.979,26.855,999.512,362.793,44.434,86.914
1569100369.983,26.855,999.512,-84.473,45.898,171.875
1569100369.986,5.859,999.512,552.734,31.738,156.738
1569100369.990,-10.254,999.512,-957.031,33.203,71.289
1569100369.994,-3.418,999.512,850.098,54.688,102.051
1569100369.998,14.648,999.512,245.605,68.848,190.430
1569100370.002,5.859,999.512,316.895,60.547,184.570
1569100370.006,0.000,999.512,953.613,49.316,99.121
1569100370.010,18.066,999.512,856.445,59.570,65.918
1569100370.014,33.203,999.512,224.121,74.707,132.324
1569100370.018,32.227,999.512,-125.000,67.383,144.531
1569100370.022,11.719,999.512,399.902,44.922,59.570
1569100370.026,3.906,999.512,-982.910,39.062,57.129
1569100370.029,22.949,999.512,537.598,58.105,134.766
1569100370.033,21.973,999.512,52.734,59.570,135.742
1569100370.037,11.230,999.512,499.023,37.598,84.961
1569100370.041,20.508,999.512,-960.938,46.387,40.039
1569100370.045,24.414,999.512,752.930,60.547,71.777
1569100370.049,12.207,999.512,212.891,56.641,136.230
1569100370.053,3.906,999.512,494.629,50.781,94.238
1569100370.057,3.418,999.512,975.586,38.574,6.836
1569100370.061,10.742,999.512,731.934,41.504,29.785
1569100370.065,22.461,999.512,247.070,53.223,122.559
1569100370.068,20.508,999.512,375.000,49.805,116.211
1569100370.072,1.953,999.512,978.516,29.785,55.176
1569100370.076,2.441,999.512,836.426,38.086,19.043
1569100370.080,15.625,999.512,145.020,50.293,83.984
1569100370.084,10.742,999.512,179.688,35.156,131.836
1569100370.088,10.742,999.512,772.461,37.109,54.688
1569100370.092,18.555,999.512,-941.406,42.480,18.066
1569100370.096,35.645,999.512,556.152,47.363,80.078
1569100370.100,21.973,999.512,113.770,48.340,123.535
1569100370.104,4.395,999.512,533.203,36.621,77.637
1569100370.108,14.160,999.512,964.844,33.691,-2.441
1569100370.111,20.020,999.512,759.766,51.270,34.668
1569100370.115,25.391,999.512,94.727,62.500,112.793
1569100370.119,27.344,999.512,82.031,53.711,79.590
1569100370.123,17.578,999.512,852.539,37.109,26.855
1569100370.127,18.555,999.512,945.801,48.340,23.926
1569100370.131,36.621,999.512,448.730,65.430,115.723
1569100370.135,39.062,999.512,395.996,63.965,129.883
1569100370.139,29.785,999.512,817.383,53.223,13.184
1569100370.143,26.367,999.512,-981.934,46.875,-2.441
1569100370.147,33.691,999.512,546.875,60.547,81.543
1569100370.151,42.480,999.512,142.578,63.965,118.652
1569100370.154,32.227,999.512,500.488,54.688,20.508
1569100370.158,15.137,999.512,832.520,50.293,-65.430
1569100370.162,22.949,999.512,647.949,55.664,60.547
1569100370.166,32.227,999.512,300.781,57.617,133.789
1569100370.170,17.090,999.512,593.262,43.457,75.195
1569100370.174,20.996,999.512,-941.895,45.898,36.621
1569100370.178,27.832,999.512,770.996,57.129,50.781
1569100370.182,26.855,999.512,286.133,57.129,120.117
1569100370.186,22.949,999.512,521.484,53.223,109.375
1569100370.190,20.020,999.512,988.770,47.363,29.297
1569100370.193,30.273,999.512,-996.094,58.105,32.227
1569100370.197,37.598,999.512,258.789,72.266,93.262
1569100370.201,30.762,999.512,-149.414,63.477,89.355
1569100370.205,20.996,999.512,683.105,55.664,48.828
1569100370.209,31.738,999.512,-920.410,68.359,22.461
1569100370.213,48.340,999.512,685.547,84.473,114.746
1569100370.217,51.270,999.512,283.691,79.590,147.461
1569100370.221,39.551,999.512,666.504,55.664,74.707
1569100370.225,46.387,999.512,-914.062,62.012,36.621
1569100370.229,47.852,999.512,680.664,73.730,76.172
1569100370.233,40.039,999.512,191.895,66.406,131.836
1569100370.236,36.133,999.512,482.422,62.500,105.469
1569100370.240,23.926,999.512,995.117,63.965,28.320
1569100370.244,41.992,999.512,746.582,72.266,49.316
1569100370.248,58.105,999.512,91.309,74.707,135.254
1569100370.252,36.621,999.512,324.219,62.012,134.766
1569100370.256,25.391,999.512,898.926,53.711,68.848
1569100370.260,32.715,999.512,645.508,59.570,28.809
1569100370.264,35.156,999.512,162.109,59.082,96.191
1569100370.268,29.785,999.512,155.762,62.500,134.766
1569100370.272,18.066,999.512,765.137,41.504,83.984
1569100370.275,18.555,999.512,908.691,32.227,38.086
1569100370.279,25.879,999.512,290.039,43.945,93.262
1569100370.283,14.648,999.512,-104.492,37.598,143.066
1569100370.287,-0.977,999.512,295.410,21.484,89.355
1569100370.291,5.859,999.512,747.070,30.762,18.555
1569100370.295,13.672,999.512,264.648,52.246,56.641
1569100370.299,6.836,999.512,-279.297,37.598,129.395
1569100370.303,-8.301,999.512,127.930,25.391,103.516
1569100370.307,7.812,999.512,770.508,48.340,61.035
1569100370.311,19.043,999.512,674.805,58.594,84.961
1569100370.315,21.484,999.512,-35.156,60.547,126.953
1569100370.318,44.434,999.512,-190.918,67.383,110.840
1569100370.322,25.879,999.512,549.805,51.270,59.570
1569100370.326,-0.488,999.512,763.672,40.039,69.336
1569100370.330,13.672,999.512,151.855,51.758,146.484
1569100370.334,25.879,999.512,-79.590,53.711,152.832
1569100370.338,29.297,999.512,192.871,48.340,65.430
1569100370.342,21.484,999.512,382.812,35.156,34.668
1569100370.346,17.578,999.512,161.621,39.551,121.094
1569100370.350,23.438,999.512,-166.016,41.992,153.320
1569100370.354,18.066,999.512,282.715,27.832,80.566
1569100370.358,18.555,999.512,673.340,26.367,9.277
1569100370.361,17.578,999.512,336.914,40.039,37.109
1569100370.365,7.324,999.512,-253.418,42.480,63.477
1569100370.369,-1.465,999.512,-142.090,21.973,15.137
1569100370.373,-9.277,999.512,510.742,11.719,-34.180
1569100370.377,-1.953,999.512,296.875,16.602,-39.551
1569100370.381,11.719,999.512,-412.598,18.555,11.719
1569100370.385,12.207,999.023,-573.730,15.137,-10.254
1569100370.389,-3.906,998.535,-80.078,14.648,-114.746
1569100370.393,-19.531,-997.070,277.832,12.207,-108.887
1569100370.397,0.977,977.051,-378.418,19.531,-30.762
1569100370.400,-3.418,978.027,-812.012,11.719,-33.203
1569100370.404,-26.367,-997.559,-107.910,-9.766,-90.332
1569100370.408,-14.160,998.535,323.730,0.000,-123.047
1569100370.412,-19.043,999.512,-147.949,6.348,-79.590
1569100370.416,-7.812,997.559,-831.055,23.926,-63.477
1569100370.420,8.301,998.535,-590.332,24.902,-121.094
1569100370.424,-15.137,999.512,122.559,-8.301,-156.738
1569100370.428,-8.301,999.023,-159.668,-6.348,-138.184
1569100370.432,12.695,999.512,-841.797,13.672,-77.148
1569100370.436,1.465,999.512,-741.699,14.160,-76.660
1569100370.440,-8.301,999.512,-416.016,3.418,-187.500
1569100370.443,-19.043,999.512,-416.992,0.977,-215.332
1569100370.447,-7.324,999.512,-668.457,16.113,-113.770
1569100370.451,4.395,999.512,-666.016,23.926,-66.895
1569100370.455,-1.465,999.512,-259.277,13.184,-168.457
1569100370.459,-7.324,999.512,-122.070,11.719,-217.285
1569100370.463,2.930,999.512,-514.160,28.320,-125.488
1569100370.467,15.625,999.512,-845.703,25.391,-83.008
1569100370.471,-3.418,999.023,-362.305,0.000,-145.020
1569100370.475,9.766,999.512,0.488,14.160,-200.684
1569100370.479,27.344,999.023,-524.902,45.410,-141.602
1569100370.483,20.508,997.070,-1000.000,43.457,-96.191
1569100370.486,6.836,997.070,-734.863,28.809,-136.230
1569100370.490,7.324,993.652,-120.605,20.996,-183.105
1569100370.494,20.996,-971.680,-301.758,33.203,-156.250
1569100370.498,23.438,824.219,-930.664,49.316,-112.793
1569100370.502,21.484,829.102,-852.539,39.551,-136.230
1569100370.506,12.207,-970.215,-157.227,24.902,-150.391
1569100370.510,15.625,992.188,-198.242,33.203,-159.180
1569100370.514,25.879,998.047,-900.391,45.898,-138.184
1569100370.518,13.184,999.512,-957.520,36.133,-89.844
1569100370.522,9.766,999.512,-411.621,23.926,-142.578
1569100370.525,23.926,999.512,-314.941,31.250,-190.430
1569100370.529,17.090,999.512,-808.105,46.387,-119.629
1569100370.533,-0.977,999.512,-1000.000,44.922,-69.336
1569100370.537,3.418,999.512,-754.883,22.949,-87.891
1569100370.541,5.859,999.512,-369.141,21.973,-119.629
1569100370.545,0.000,999.512,-613.770,27.344,-64.453
1569100370.549,5.859,999.512,-1000.000,26.367,-16.113
1569100370.553,7.324,-1000.000,-822.754,34.668,-71.289
1569100370.557,21.973,993.652,-641.113,38.574,-169.922
1569100370.561,27.832,-985.352,-903.809,36.133,-135.742
1569100370.565,8.301,943.848,-998.535,35.645,-52.246
1569100370.568,1.953,900.879,-912.598,37.109,-58.594
1569100370.572,5.859,-978.516,-546.387,19.531,-98.145
1569100370.576,2.930,964.844,-597.656,10.254,-139.648
1569100370.580,17.578,777.832,-991.211,30.762,-68.848
1569100370.584,10.254,904.785,-937.500,27.344,-4.883
1569100370.588,-13.672,-977.539,-477.051,0.977,-93.262
1569100370.592,6.348,990.234,-35.645,22.461,-95.215
1569100370.596,21.484,996.582,-513.672,45.410,-15.137
1569100370.600,11.230,996.094,-985.840,31.250,12.695
1569100370.604,-4.395,-1000.000,-449.219,14.160,-12.695
1569100370.607,7.324,999.023,116.211,16.602,-38.574
1569100370.611,19.531,999.512,-186.035,45.898,-19.043
1569100370.615,21.973,999.512,-874.512,61.035,10.254
1569100370.619,19.043,999.512,-770.996,37.598,34.180
1569100370.623,0.977,999.023,-152.344,28.809,8.789
1569100370.627,2.441,-999.512,-279.297,47.363,-12.207
1569100370.631,11.230,996.582,-853.516,47.363,-2.930
1569100370.635,0.000,994.141,-886.719,44.922,12.207
1569100370.639,-11.230,999.512,-342.773,29.297,-17.090
1569100370.643,-3.906,999.512,-69.824,22.461,-50.781
1569100370.647,4.395,999.023,-541.504,43.457,8.789
1569100370.650,-0.977,999.512,-776.367,38.086,35.156
1569100370.654,-15.625,997.559,-215.332,25.391,-17.578
1569100370.658,12.695,-998.535,-31.738,27.832,-28.320
1569100370.662,38.574,998.047,-408.203,34.180,20.020
1569100370.666,20.508,971.191,-738.770,54.688,59.570
1569100370.670,-9.277,979.492,-368.164,40.039,36.133
1569100370.674,-20.996,-969.238,436.035,17.090,-9.277
1569100370.678,-14.648,905.273,-36.621,30.762,-20.020
1569100370.682,-15.137,839.355,-713.867,30.273,41.992
1569100370.686,-2.441,-995.117,-200.195,32.227,60.547
1569100370.690,1.953,-996.094,458.496,32.715,-7.812
1569100370.693,-13.672,993.652,467.773,29.297,20.996
1569100370.697,-5.859,997.559,-221.680,47.852,81.055
1569100370.701,0.000,999.023,-405.273,34.668,60.059
1569100370.705,-3.906,997.559,268.555,19.531,16.602
1569100370.709,5.859,994.141,507.324,30.762,3.906
1569100370.713,21.973,-980.469,-66.406,61.523,71.777
1569100370.717,14.160,823.730,-709.473,56.152,78.125
1569100370.721,-12.695,808.105,-462.891,17.090,-44.922
1569100370.725,-16.602,-981.934,283.203,17.090,-48.340
1569100370.729,9.277,998.047,26.855,44.434,42.969
1569100370.732,19.531,995.117,-436.035,46.875,100.098
1569100370.736,-1.465,-1000.000,-182.617,19.043,67.383
1569100370.740,-0.488,999.512,320.312,12.207,11.230
1569100370.744,13.184,999.512,290.527,39.551,35.645
1569100370.748,14.160,999.512,-251.953,54.199,79.102
1569100370.752,0.000,999.512,-142.090,29.297,74.219
1569100370.756,-4.395,998.047,400.879,21.484,12.207
1569100370.760,4.395,-998.047,355.469,41.992,0.977
1569100370.764,17.090,989.258,-135.254,49.805,88.867
1569100370.768,16.113,979.980,-227.539,44.922,105.469
1569100370.772,7.324,999.023,427.734,41.016,26.855
1569100370.775,7.812,-1000.000,630.859,42.969,-13.184
1569100370.779,11.719,998.535,97.656,49.805,44.922
1569100370.783,8.301,-999.023,-75.684,40.527,104.492
1569100370.787,0.488,991.211,396.973,30.762,60.059
1569100370.791,1.953,-990.234,708.008,35.645,-32.715
1569100370.795,11.719,987.793,314.453,42.969,14.160
1569100370.799,18.555,824.219,-265.625,25.391,104.492
1569100370.803,8.789,922.363,73.242,15.137,69.336
1569100370.807,2.441,-976.074,605.957,31.738,-37.598
1569100370.811,0.488,988.770,479.980,31.250,-17.578
1569100370.814,8.301,-999.023,250.977,50.781,109.375
1569100370.818,40.527,997.070,-3.418,69.824,86.426
1569100370.822,33.203,998.535,387.695,46.387,-33.691
1569100370.826,6.836,999.512,821.777,29.785,-30.273
1569100370.830,26.855,999.023,466.309,52.246,88.867
1569100370.834,39.062,999.512,259.277,64.453,100.586
1569100370.838,17.578,999.512,616.211,49.316,-2.930
1569100370.842,20.508,999.512,886.230,38.086,-62.012
1569100370.846,31.738,999.512,636.230,59.082,41.504
1569100370.850,26.855,999.512,334.473,82.520,125.977
1569100370.854,27.832,999.512,500.977,66.406,30.273
1569100370.857,21.484,999.512,800.781,51.758,-54.199
1569100370.861,33.691,999.512,762.695,75.684,22.461
1569100370.865,44.922,999.512,517.090,83.008,126.465
1569100370.869,37.109,999.512,674.316,78.125,84.961
1569100370.873,29.785,999.512,-965.332,83.008,-10.742
1569100370.877,30.762,999.512,879.395,76.660,-4.395
1569100370.881,37.109,999.512,538.574,72.266,107.422
1569100370.885,33.691,-1000.000,652.344,66.406,134.277
1569100370.889,23.926,996.094,946.777,44.434,34.668
1569100370.893,35.645,-991.699,-925.781,61.523,18.555
1569100370.897,50.781,970.215,606.445,100.098,78.613
1569100370.900,33.691,951.172,152.832,90.820,103.027
1569100370.904,10.742,-997.070,696.289,62.012,56.641
1569100370.908,16.602,-1000.000,979.492,53.223,-10.742
1569100370.912,36.621,997.559,748.535,69.824,63.477
1569100370.916,46.875,999.512,306.152,83.008,129.395
1569100370.920,36.621,999.512,310.547,61.523,57.617
1569100370.924,18.066,999.512,919.434,46.387,-3.906
1569100370.928,22.949,999.512,840.820,67.871,24.414
1569100370.932,26.855,999.512,367.188,67.383,103.516
1569100370.936,22.949,999.512,377.930,56.152,87.402
1569100370.939,29.785,999.512,807.617,62.988,-3.906
1569100370.943,40.039,999.512,892.090,67.871,-9.277
1569100370.947,38.086,999.512,219.727,82.520,62.012
1569100370.951,36.621,999.512,84.473,79.590,80.078
1569100370.955,41.504,999.512,688.477,67.383,3.906
1569100370.959,32.227,999.512,628.906,67.383,-27.832
1569100370.963,24.414,999.512,155.273,70.801,55.664
1569100370.967,28.320,999.512,9.766,65.918,73.730
1569100370.971,30.273,999.512,487.305,55.664,3.418
1569100370.975,31.250,999.512,875.000,60.547,-22.461
1569100370.979,30.273,999.512,381.348,64.941,6.348
1569100370.982,27.832,999.512,-85.449,75.684,46.387
1569100370.986,20.508,999.023,192.383,66.895,9.277
1569100370.990,21.973,999.512,649.902,47.363,-70.801
1569100370.994,30.273,999.023,327.148,59.082,-38.574
1569100370.998,34.668,995.117,-383.789,71.777,35.156
1569100371.002,19.043,998.047,-303.223,48.828,-11.230
1569100371.006,-0.488,-1000.000,315.918,26.367,-63.965
1569100371.010,24.414,999.023,353.516,47.363,-47.363
1569100371.014,45.898,999.512,-252.930,66.895,-11.230
1569100371.018,19.043,999.512,-660.156,41.504,-35.645
1569100371.022,-1.953,999.512,-231.445,23.438,-93.262
1569100371.025,8.789,999.512,221.191,47.852,-59.082
1569100371.029,22.949,999.512,-254.395,60.059,-26.855
1569100371.033,4.395,999.512,-631.348,27.832,-18.555
1569100371.037,-4.395,999.512,-417.480,21.973,-9.277
1569100371.041,15.625,999.512,-209.473,44.434,-55.664
1569100371.045,26.367,999.512,-382.324,53.223,-48.828
1569100371.049,13.672,999.512,-708.984,46.875,-8.301
1569100371.053,-6.836,999.512,-382.812,22.461,-27.344
1569100371.057,-2.441,999.512,-132.324,22.949,-63.477
1569100371.061,-9.766,999.512,-444.824,37.598,-84.473
1569100371.064,-8.301,999.512,-586.426,43.945,-22.461
1569100371.068,-4.395,999.512,-463.867,24.902,-36.621
1569100371.072,-20.020,999.512,37.598,7.324,-48.340
1569100371.076,-4.883,999.512,41.992,27.344,-29.297
1569100371.080,-3.418,999.512,-458.496,43.945,-40.527
1569100371.084,-12.207,999.512,-464.355,39.551,-1.953
1569100371.088,-1.465,999.512,-154.297,20.020,-28.320
1569100371.092,0.488,999.512,121.094,9.766,-32.715
1569100371.096,31.250,999.512,-185.059,44.922,3.418
1569100371.100,38.574,999.512,-570.312,55.664,0.488
1569100371.104,6.348,999.512,-109.375,33.203,-38.574
1569100371.107,26.855,999.512,357.910,47.363,-47.363
1569100371.111,39.551,999.512,197.266,64.453,0.000
1569100371.115,36.133,999.512,-358.398,83.984,5.371
1569100371.119,40.039,999.512,-312.500,85.449,-7.812
1569100371.123,34.668,999.512,339.844,43.457,1.953
1569100371.127,37.109,999.512,420.410,53.711,46.387
1569100371.131,32.715,999.512,4.883,92.285,110.840
1569100371.135,36.621,999.512,-154.297,95.215,64.941
1569100371.139,51.758,999.512,-66.895,74.219,-16.113
1569100371.143,33.203,999.512,86.914,61.523,11.230
1569100371.146,25.879,999.512,56.152,77.148,15.625
1569100371.150,41.016,999.512,-41.016,87.891,30.762
1569100371.154,41.016,999.512,420.898,76.172,49.805
1569100371.158,46.387,999.512,687.988,85.938,29.785
1569100371.162,40.527,999.512,416.992,92.773,38.574
1569100371.166,32.715,999.512,102.539,79.102,60.547
1569100371.170,34.180,999.512,317.871,73.730,20.996
1569100371.174,38.086,999.512,663.574,71.289,-51.270
1569100371.178,63.477,999.512,410.156,91.797,-25.391
1569100371.182,68.359,999.512,-117.676,90.820,34.180
1569100371.186,64.453,999.512,-60.059,71.289,29.785
1569100371.189,55.664,999.512,434.082,70.312,-11.230
1569100371.193,46.875,999.512,532.227,68.848,-25.879
1569100371.197,55.176,999.512,108.398,76.172,73.242
1569100371.201,56.152,999.512,-2.930,76.172,79.102
1569100371.205,43.945,999.512,545.898,58.105,29.785
1569100371.209,49.316,999.512,715.820,65.918,14.648
1569100371.213,61.523,999.512,271.973,82.520,30.273
1569100371.217,53.223,999.512,-144.043,67.383,66.406
1569100371.221,42.480,999.512,183.105,52.734,27.344
1569100371.225,45.898,999.512,626.465,60.547,-19.531
1569100371.229,49.316,999.512,192.871,68.359,8.789
1569100371.232,43.457,999.512,-248.535,60.547,71.289
1569100371.236,40.039,999.512,-106.445,44.434,36.621
1569100371.240,24.902,999.512,306.641,45.410,-48.828
1569100371.244,18.555,999.512,352.539,61.035,9.766
1569100371.248,27.832,999.512,-126.953,56.641,82.031
1569100371.252,15.137,999.512,-29.785,38.086,48.340
1569100371.256,15.625,999.512,391.602,35.645,30.273
1569100371.260,38.086,999.512,-18.555,57.617,-12.207
1569100371.264,26.855,999.512,-375.977,59.570,51.270
1569100371.268,18.555,998.535,-145.996,55.176,118.164
1569100371.271,20.996,-1000.000,328.125,35.156,63.965
1569100371.275,23.926,999.512,415.527,26.367,58.594
1569100371.279,35.645,986.328,-276.855,51.758,73.730
1569100371.283,38.086,994.141,-372.559,67.871,107.910
1569100371.287,14.160,-998.535,226.074,49.316,77.637
1569100371.291,25.879,998.047,598.145,38.086,26.855
1569100371.295,58.594,999.512,281.250,65.430,52.734
1569100371.299,51.758,999.512,-269.531,63.965,70.801
1569100371.303,34.668,999.512,-80.078,51.758,61.523
1569100371.307,39.551,999.512,437.012,60.059,5.859
1569100371.311,59.570,999.512,371.582,64.941,-31.738
1569100371.314,43.945,999.512,-90.820,64.941,43.945
1569100371.318,36.133,999.512,-138.184,47.852,47.363
1569100371.322,34.668,999.512,272.461,29.297,-19.531
1569100371.326,27.832,999.512,343.750,39.062,0.488
1569100371.330,36.621,999.512,-21.484,66.895,44.434
1569100371.334,39.062,999.512,-91.309,55.176,89.844
1569100371.338,39.551,999.512,210.938,19.043,22.461
1569100371.342,36.133,999.512,492.188,39.551,-28.320
1569100371.346,28.320,999.512,297.852,55.664,58.594
1569100371.350,27.344,999.512,-62.012,29.297,75.195
1569100371.353,22.461,999.512,264.160,25.391,27.344
1569100371.357,18.555,999.512,547.363,45.898,4.395
1569100371.361,9.277,999.512,315.430,56.641,62.988
1569100371.365,17.578,-999.023,31.250,43.945,114.258
1569100371.369,30.762,989.746,24.902,31.250,67.871
1569100371.373,15.137,-992.188,404.785,24.902,13.184
1569100371.377,19.043,995.605,251.465,35.645,25.879
1569100371.381,26.855,686.523,-514.160,47.852,62.988
1569100371.385,-3.906,791.016,-329.102,36.133,69.336
1569100371.389,3.418,-958.008,493.164,40.039,17.090
1569100371.393,25.879,986.328,697.754,35.645,26.855
1569100371.396,43.945,993.652,160.156,55.664,71.289
1569100371.400,45.410,996.094,-118.164,77.148,72.754
1569100371.404,22.461,-999.023,454.590,37.109,72.754
1569100371.408,12.695,995.605,739.258,24.902,21.973
1569100371.412,24.414,-991.211,470.215,51.270,68.848
1569100371.416,60.547,964.355,-115.723,65.430,82.031
1569100371.420,39.551,948.730,-90.332,38.574,42.969
1569100371.424,10.742,-995.605,589.844,23.926,45.410
1569100371.428,33.691,999.512,530.273,46.875,38.574
1569100371.432,32.715,998.047,90.820,50.293,63.477
1569100371.436,36.133,999.512,24.902,39.062,29.297
1569100371.439,25.391,999.512,363.281,14.160,-28.809
1569100371.443,7.324,999.512,541.016,20.996,-7.812
1569100371.447,32.227,999.512,119.141,49.316,61.035
1569100371.451,26.855,999.512,62.500,40.039,98.633
1569100371.455,12.695,999.023,426.270,33.691,17.578
1569100371.459,20.020,-1000.000,500.977,41.016,-19.531
1569100371.463,34.668,998.047,85.938,58.594,38.574
1569100371.467,37.109,991.211,-184.082,68.359,81.543
1569100371.471,18.555,998.047,225.586,37.109,25.879
1569100371.475,9.766,-999.512,480.469,37.598,-50.781
1569100371.478,25.879,998.535,208.496,50.293,2.441
1569100371.482,36.621,999.512,-41.016,60.059,66.406
1569100371.486,17.578,998.535,183.105,58.105,5.859
1569100371.490,3.906,986.328,598.633,40.039,-41.992
1569100371.494,8.301,-954.102,568.359,45.410,16.602
1569100371.498,21.973,757.812,-207.520,58.105,81.055
1569100371.502,29.785,712.891,-312.988,48.828,66.895
1569100371.506,14.648,-969.238,517.578,30.273,42.480
1569100371.510,15.625,994.629,441.895,23.438,16.602
1569100371.514,25.879,-997.070,-44.922,41.992,26.367
1569100371.518,24.414,936.035,-274.414,54.199,60.059
1569100371.521,19.043,942.871,69.824,31.250,23.438
1569100371.525,34.180,-989.258,633.789,30.762,17.090
1569100371.529,40.527,996.094,272.461,48.340,62.012
1569100371.533,22.949,999.512,-56.641,58.105,64.941
1569100371.537,13.672,999.512,265.137,53.711,32.715
1569100371.541,8.301,999.512,636.230,38.086,29.785
1569100371.545,17.578,999.512,439.453,40.527,66.895
1569100371.549,11.230,999.512,-12.207,52.246,91.797
1569100371.553,10.742,999.512,178.223,44.434,67.871
1569100371.557,22.949,999.512,347.168,29.297,14.648
1569100371.561,21.484,999.512,86.426,33.691,1.465
1569100371.564,14.648,999.512,-103.516,44.434,56.152
1569100371.568,10.254,999.023,-61.523,48.828,63.965
1569100371.572,19.043,-1000.000,304.199,44.434,-13.672
1569100371.576,27.832,996.582,282.715,43.457,-8.301
1569100371.580,20.020,996.582,-159.180,62.012,64.453
1569100371.584,14.160,-998.047,-296.387,72.754,83.008
1569100371.588,7.812,988.281,44.922,48.340,36.133
1569100371.592,12.207,-974.609,409.668,43.945,-1.465
1569100371.596,39.062,919.434,16.113,75.684,37.598
1569100371.600,42.480,834.473,-366.699,72.754,106.445
1569100371.603,34.180,998.047,-82.520,54.199,39.062
1569100371.607,36.621,996.582,224.121,39.062,-21.973
1569100371.611,38.086,-979.004,147.949,42.480,37.109
1569100371.615,35.645,891.602,-279.785,59.082,63.965
1569100371.619,19.043,828.125,-252.441,55.176,38.086
1569100371.623,6.348,-994.141,345.215,39.551,-13.184
1569100371.627,15.137,-989.258,417.480,44.922,19.531
1569100371.631,24.902,957.520,-39.551,36.621,77.148
1569100371.635,39.062,952.637,-146.973,31.738,61.523
1569100371.639,17.578,996.094,93.750,19.531,22.949
1569100371.643,-14.160,-986.328,286.133,8.301,35.156
1569100371.646,0.488,965.332,68.848,23.438,69.824
1569100371.650,11.230,885.254,-242.676,31.250,82.031
1569100371.654,7.812,987.793,116.699,26.855,40.039
1569100371.658,10.254,996.582,219.727,16.602,-20.508
1569100371.662,10.742,976.562,-24.414,11.719,35.156
1569100371.666,14.160,-996.582,-23.926,24.902,94.727
1569100371.670,3.418,999.023,299.805,22.461,63.477
1569100371.674,3.906,999.023,724.121,17.090,31.738
1569100371.678,25.391,999.512,479.004,41.504,52.246
1569100371.682,33.691,999.512,40.527,56.152,90.332
1569100371.685,38.086,998.535,125.977,48.340,63.965
1569100371.689,32.227,982.422,555.664,36.133,28.320
1569100371.693,20.996,-948.730,536.621,31.250,28.320
1569100371.697,37.598,744.141,-157.227,57.617,55.664
1569100371.701,40.527,592.773,-427.246,57.129,81.543
1569100371.705,43.945,977.539,204.590,44.434,38.574
1569100371.709,48.340,-983.887,533.203,59.570,3.906
1569100371.713,43.457,991.699,199.707,66.406,64.941
1569100371.717,39.551,855.469,-225.586,57.617,75.684
1569100371.721,20.996,897.949,45.410,38.574,6.836
1569100371.725,30.273,-977.051,518.066,36.621,-38.574
1569100371.728,50.293,991.699,289.062,58.105,22.461
1569100371.732,38.574,999.023,25.391,72.754,100.098
1569100371.736,24.414,997.070,99.609,47.852,63.965
1569100371.740,28.320,999.023,379.395,36.133,-19.043
1569100371.744,35.645,-991.699,413.574,49.805,13.184
1569100371.748,22.461,914.062,-16.113,54.199,90.820
1569100371.752,7.324,930.176,92.773,47.852,52.246
1569100371.756,14.160,-986.816,432.129,42.480,-4.395
1569100371.760,18.066,974.121,223.633,36.133,18.555
1569100371.764,21.973,890.137,-91.309,45.410,69.824
1569100371.768,36.621,901.367,-87.891,51.270,106.445
1569100371.771,17.090,998.535,335.938,26.367,61.523
1569100371.775,9.277,-997.559,428.711,17.090,-9.277
1569100371.779,31.250,876.953,0.488,44.434,50.293
1569100371.783,24.902,668.457,-289.551,73.730,91.797
1569100371.787,19.043,839.355,34.668,52.246,34.668
1569100371.791,39.062,-951.660,366.211,42.969,12.695
1569100371.795,41.016,923.828,44.922,67.871,54.688
1569100371.799,33.691,274.414,-638.672,69.336,88.867
1569100371.803,35.156,436.523,-472.656,40.039,53.223
1569100371.807,35.156,-936.035,365.723,23.438,22.461
1569100371.810,45.898,964.844,272.461,43.457,1.953
1569100371.814,52.734,684.570,-272.949,59.082,62.500
1569100371.818,41.504,736.816,-249.023,52.734,80.078
1569100371.822,40.527,-998.535,299.805,30.273,-3.906
1569100371.826,51.758,-972.656,455.566,45.410,-13.184
1569100371.830,61.523,881.836,-15.137,69.824,39.551
1569100371.834,51.270,712.402,-271.484,53.711,54.688
1569100371.838,34.180,888.672,-4.395,42.969,12.695
1569100371.842,49.805,-970.703,268.066,41.992,-15.137
1569100371.846,56.641,949.219,98.633,53.223,41.992
1569100371.850,33.691,728.516,-248.047,56.152,80.566
1569100371.853,13.672,877.441,100.586,29.297,37.109
1569100371.857,17.090,957.520,302.734,37.109,-15.625
1569100371.861,38.574,676.270,-135.742,33.691,-18.066
1569100371.865,33.203,529.297,-334.473,26.367,47.852
1569100371.869,6.348,719.727,-154.785,35.156,61.523
1569100371.873,12.207,-988.281,360.352,23.438,-20.996
1569100371.877,22.949,963.379,310.547,32.227,-43.945
1569100371.881,20.020,696.777,-148.926,57.129,44.922
1569100371.885,26.367,539.062,-296.387,59.570,51.270
1569100371.889,19.531,800.293,121.094,44.922,7.812
1569100371.893,14.160,-904.297,594.727,38.086,31.250
1569100371.896,31.250,730.957,60.547,43.457,67.871
1569100371.900,35.645,202.148,-550.781,46.875,71.289
1569100371.904,36.133,713.867,-6.348,37.598,-15.625
1569100371.908,26.367,-940.918,537.598,41.992,-45.410
1569100371.912,15.137,977.539,344.727,46.875,45.898
1569100371.916,24.414,686.035,-151.855,48.340,71.289
1569100371.920,15.625,722.656,41.016,41.992,22.461
1569100371.924,16.602,-970.703,587.402,48.828,-2.930
1569100371.928,29.785,-987.305,445.801,61.523,48.828
1569100371.932,30.762,632.812,-84.473,60.547,64.941
1569100371.935,30.762,426.758,-254.883,46.387,16.113
1569100371.939,20.020,832.031,297.363,29.297,-16.113
1569100371.943,23.438,-947.754,566.895,42.969,-25.391
1569100371.947,36.133,828.613,99.121,72.266,17.578
1569100371.951,42.480,766.113,23.438,65.430,61.035
1569100371.955,34.180,-999.512,448.242,60.547,-13.184
1569100371.959,41.504,951.660,397.949,75.195,-38.574
1569100371.963,40.527,732.910,50.293,65.918,29.297
1569100371.967,25.879,598.633,-131.836,46.875,32.715
1569100371.971,31.738,854.004,246.582,42.969,-16.113
1569100371.975,34.668,-947.754,651.367,55.176,-33.203
1569100371.978,41.504,785.645,213.867,70.801,29.785
1569100371.982,41.504,256.348,-406.738,76.172,49.316
1569100371.986,22.949,419.434,-264.648,66.406,-5.859
1569100371.990,27.344,963.867,335.449,53.223,-51.270
1569100371.994,35.645,-966.797,351.074,47.852,-36.621
1569100371.998,40.527,229.980,-472.656,51.758,5.371
1569100372.002,35.156,145.020,-535.156,54.199,31.738
1569100372.006,19.531,978.027,425.781,64.453,14.160
1569100372.010,38.574,-947.754,607.910,74.707,-22.949
1569100372.014,38.574,833.008,120.605,61.035,16.602
1569100372.017,22.949,637.207,-119.629,57.617,52.734
1569100372.021,19.043,908.203,377.441,41.016,15.137
1569100372.025,22.949,-939.453,603.027,31.250,-18.066
1569100372.029,34.180,816.895,125.000,39.551,20.996
1569100372.033,27.832,661.621,-72.754,30.273,42.480
1569100372.037,43.457,867.188,126.953,26.855,37.109
1569100372.041,55.664,998.535,464.844,28.320,29.785
1569100372.045,14.648,980.957,421.875,28.809,6.836
1569100372.049,18.066,756.348,-66.895,43.945,27.344
1569100372.053,37.598,831.055,122.559,37.109,39.551
1569100372.057,19.531,-983.887,453.125,17.090,-17.578
1569100372.060,18.555,-980.957,296.875,35.645,-13.184
1569100372.064,25.391,729.004,-105.469,40.527,46.875
1569100372.068,28.809,640.625,-202.148,31.250,43.457
1569100372.072,21.484,-985.840,260.254,31.738,30.762
1569100372.076,20.996,921.387,209.473,36.621,-18.555
1569100372.080,33.203,567.383,-286.621,49.805,-21.484
1569100372.084,35.156,692.383,-271.484,49.316,42.480
1569100372.088,28.809,976.074,295.898,47.363,21.973
1569100372.092,36.621,-948.730,600.586,49.805,-40.527
1569100372.096,62.500,813.477,43.945,68.359,-40.527
1569100372.100,65.918,395.508,-521.484,69.336,18.555
1569100372.103,56.641,789.551,86.426,53.711,23.926
1569100372.107,57.617,-946.777,850.098,60.059,-1.465
1569100372.111,57.129,974.609,675.781,68.848,1.953
1569100372.115,54.688,-998.535,227.051,68.848,60.547
1569100372.119,38.574,999.512,239.258,54.688,53.711
1569100372.123,39.062,999.512,722.656,51.758,10.742
1569100372.127,64.941,999.512,830.078,75.195,45.898
1569100372.131,67.871,999.512,378.418,74.219,58.594
1569100372.135,58.105,999.512,283.691,58.105,51.758
1569100372.139,67.871,999.023,440.430,44.922,12.695
1569100372.142,59.570,-1000.000,552.246,44.922,-2.930
1569100372.146,60.059,999.512,392.090,61.035,60.547
1569100372.150,56.152,989.746,64.941,61.035,85.449
1569100372.154,42.480,988.281,370.117,45.898,48.828
1569100372.158,46.387,-995.117,692.383,48.340,25.879
1569100372.162,42.969,-996.094,363.770,51.758,21.973
1569100372.166,46.387,762.207,-166.016,49.316,70.312
1569100372.170,46.875,806.641,9.766,42.480,46.387
1569100372.174,42.969,-955.078,594.727,46.387,-10.742
1569100372.178,41.016,913.574,300.781,51.758,-18.555
1569100372.182,32.715,681.641,-252.930,37.598,23.438
1569100372.185,26.855,825.195,-58.594,18.066,43.945
1569100372.189,26.367,-992.676,483.887,16.113,10.742
1569100372.193,47.852,-953.613,545.898,47.363,21.973
1569100372.197,61.035,708.008,-116.211,67.383,60.059
1569100372.201,46.387,592.773,-337.402,55.176,63.477
1569100372.205,46.875,977.539,176.270,35.645,-2.930
1569100372.209,49.316,-953.125,363.770,40.527,-36.621
1569100372.213,57.129,801.758,-52.734,49.316,25.879
1569100372.217,65.918,357.910,-556.641,49.316,46.875
1569100372.221,52.734,675.293,-119.629,57.129,39.551
1569100372.224,48.340,-943.848,514.160,58.105,10.742
1569100372.228,48.828,960.449,239.258,56.152,23.926
1569100372.232,58.594,785.156,-190.918,55.664,50.781
1569100372.236,74.707,823.242,-101.562,50.781,43.945
1569100372.240,75.195,924.805,54.199,50.781,38.086
1569100372.244,65.918,966.309,64.453,53.223,23.438
1569100372.248,47.363,758.301,-205.566,61.035,34.668
1569100372.252,41.016,754.883,-160.156,47.852,43.945
1569100372.256,45.898,-994.629,339.355,41.992,22.949
1569100372.260,45.898,-968.750,317.871,51.270,40.527
1569100372.264,41.992,630.371,-250.000,57.617,55.664
1569100372.267,29.785,324.219,-563.965,49.316,31.738
1569100372.271,19.531,802.246,48.340,19.043,11.719
1569100372.275,25.879,-953.613,458.984,11.719,14.648
1569100372.279,41.016,770.020,-26.855,36.621,50.781
1569100372.283,43.945,642.578,-307.129,33.691,62.500
1569100372.287,20.508,895.508,142.578,11.719,44.434
1569100372.291,17.090,-948.730,570.801,14.648,-12.695
1569100372.295,33.203,902.832,194.824,33.203,-29.297
1569100372.299,28.809,477.051,-378.418,36.133,61.035
1569100372.303,32.227,701.660,-86.426,29.297,64.453
1569100372.307,32.715,-949.219,453.125,34.668,31.250
1569100372.310,27.344,941.406,291.504,44.434,41.992
1569100372.314,43.457,600.586,-226.074,55.664,59.570
1569100372.318,49.316,219.238,-542.480,47.852,72.266
1569100372.322,33.203,546.387,-190.918,30.273,8.789
1569100372.326,21.973,-942.383,412.109,36.621,26.855
1569100372.330,38.086,868.164,111.816,46.387,55.664
1569100372.334,52.734,778.809,-139.648,54.199,70.801
1569100372.338,47.363,986.328,299.805,36.133,60.059
1569100372.342,49.316,-983.398,560.059,28.320,-12.207
1569100372.346,53.223,950.195,264.648,61.035,42.480
1569100372.349,36.133,685.059,-118.652,57.617,100.098
1569100372.353,28.809,696.289,-44.922,45.410,8.301
1569100372.357,35.645,873.047,143.555,41.992,-13.672
1569100372.361,43.457,673.340,-62.012,44.922,32.227
1569100372.365,41.504,521.484,-262.695,55.664,78.613
1569100372.369,35.156,743.652,-36.621,37.598,74.707
1569100372.373,39.062,-975.586,481.934,15.625,8.789
1569100372.377,38.086,937.988,378.418,31.250,18.555
1569100372.381,29.297,521.484,-188.965,42.969,68.848
1569100372.385,16.602,464.844,-269.531,28.809,36.133
1569100372.389,13.184,896.484,336.914,16.602,35.645
1569100372.392,34.668,-927.246,583.008,28.320,30.762
1569100372.396,42.480,641.113,-50.293,46.875,36.621
1569100372.400,22.949,63.477,-567.871,35.645,51.270
1569100372.404,17.578,427.246,-225.098,19.043,0.977
1569100372.408,24.414,979.004,267.090,27.344,-12.695
1569100372.412,24.902,920.898,159.668,29.297,57.617
1569100372.416,53.711,311.035,-415.039,45.410,110.352
1569100372.420,48.340,410.156,-285.156,20.996,71.777
1569100372.424,28.809,-971.191,368.652,7.324,3.418
1569100372.428,38.574,924.805,225.586,43.457,5.371
1569100372.432,25.391,432.129,-330.078,39.551,56.641
1569100372.435,13.672,181.152,-500.000,29.297,50.781
1569100372.439,25.879,478.516,-211.426,39.551,-5.371
1569100372.443,49.805,839.844,48.340,52.246,-10.254
1569100372.447,40.527,344.727,-442.871,68.848,47.363
1569100372.451,22.461,22.949,-720.703,54.199,43.457
1569100372.455,32.227,753.906,-32.227,31.250,10.254
1569100372.459,50.781,798.828,-0.977,49.805,-19.043
1569100372.463,45.410,354.004,-439.941,61.035,25.391
1569100372.467,25.391,389.160,-452.637,58.105,90.820
1569100372.471,31.738,771.973,-13.672,50.781,32.227
1569100372.474,54.688,-956.543,400.879,48.340,-18.555
1569100372.478,48.340,778.320,50.781,62.500,34.668
1569100372.482,31.250,396.973,-383.301,54.688,93.750
1569100372.486,38.086,616.699,-134.766,42.969,74.707
1569100372.490,44.922,-961.914,316.895,43.457,20.996
1569100372.494,39.551,870.605,107.910,48.340,22.949
1569100372.498,55.176,-71.777,-696.289,62.988,68.848
1569100372.502,57.129,-128.906,-747.070,48.340,64.941
1569100372.506,27.344,846.680,177.734,26.855,52.734
1569100372.510,27.344,-942.871,421.387,33.691,51.758
1569100372.514,39.551,667.969,-119.629,47.852,75.195
1569100372.517,34.668,262.207,-479.980,52.246,66.406
1569100372.521,16.113,666.016,6.836,37.598,32.227
1569100372.525,22.949,-925.293,414.062,36.133,9.277
1569100372.529,48.828,666.016,-80.078,49.805,16.602
1569100372.533,43.945,172.852,-522.461,47.852,46.875
1569100372.537,20.020,405.273,-264.648,38.086,6.348
1569100372.541,13.184,852.051,147.949,30.762,-10.254
1569100372.545,38.574,618.652,-80.566,56.641,38.574
1569100372.549,56.152,-40.527,-678.711,68.848,62.012
1569100372.553,40.039,265.625,-404.785,47.852,24.414
1569100372.556,30.762,841.309,116.211,47.363,-37.598
1569100372.560,41.992,525.879,-160.645,47.852,-25.391
1569100372.564,37.598,190.430,-493.652,59.082,54.199
1569100372.568,37.598,315.430,-416.504,59.082,45.410
1569100372.572,26.855,864.746,184.570,31.250,-16.113
1569100372.576,24.902,950.684,296.387,31.738,-24.414
1569100372.580,44.922,469.238,-235.840,54.199,67.383
1569100372.584,43.945,212.891,-445.312,52.734,92.773
1569100372.588,31.250,510.742,-135.254,26.367,34.668
1569100372.592,38.574,923.340,231.445,27.832,12.695
1569100372.596,46.387,595.703,-93.750,50.781,53.223
1569100372.599,40.039,-323.242,-873.535,48.340,56.152
1569100372.603,30.762,38.574,-551.758,38.574,23.926
1569100372.607,29.297,957.031,253.906,39.062,-5.371
1569100372.611,30.273,940.430,193.359,41.504,16.113
1569100372.615,45.410,276.367,-442.871,56.152,65.430
1569100372.619,32.227,208.008,-437.988,26.367,70.801
1569100372.623,19.531,910.156,234.375,14.160,30.762
1569100372.627,41.992,875.488,177.246,49.805,-7.812
1569100372.631,38.086,291.992,-375.488,54.199,57.129
1569100372.635,24.902,-66.895,-657.715,51.758,63.965
1569100372.639,19.043,300.781,-304.199,36.133,-15.625
1569100372.642,24.902,917.969,202.148,34.668,11.719
1569100372.646,28.809,545.410,-168.945,38.574,63.965
1569100372.650,8.789,39.551,-598.633,31.738,52.246
1569100372.654,9.766,518.555,-129.883,34.668,8.789
1569100372.658,22.461,818.848,155.273,34.180,-4.883
1569100372.662,26.367,370.117,-265.137,46.875,35.645
1569100372.666,20.020,-13.672,-628.906,47.852,56.641
1569100372.670,15.625,314.941,-324.219,33.691,9.766
1569100372.674,18.066,950.684,305.176,23.926,-12.695
1569100372.678,23.926,725.098,97.168,30.273,42.969
1569100372.681,23.926,-109.375,-679.688,38.086,62.988
1569100372.685,17.090,-135.254,-674.805,42.480,43.457
1569100372.689,28.320,652.344,27.344,38.086,-19.043
1569100372.693,36.621,-928.711,340.820,39.062,6.348
1569100372.697,42.969,195.312,-403.320,64.453,51.270
1569100372.701,38.086,-600.098,-1000.000,44.922,2.930
1569100372.705,13.184,316.895,-250.000,21.973,-11.719
1569100372.709,7.324,-904.297,401.855,36.621,20.996
1569100372.713,29.785,723.633,15.625,57.129,74.707
1569100372.717,37.598,75.195,-537.109,62.012,84.961
1569100372.721,26.855,423.828,-150.879,36.621,50.293
1569100372.724,35.156,-908.691,477.539,35.156,19.531
1569100372.728,40.527,559.570,-29.785,69.336,17.578
1569100372.732,27.344,-82.520,-583.496,66.406,85.938
1569100372.736,26.367,44.922,-426.758,50.781,34.180
1569100372.740,32.227,412.109,-83.984,45.898,-32.227
1569100372.744,36.133,657.227,82.031,48.340,8.301
1569100372.748,47.852,300.293,-272.949,58.105,73.730
1569100372.752,45.410,247.070,-288.086,44.434,62.500
1569100372.756,38.574,772.949,218.750,41.016,-11.230
1569100372.760,41.992,885.742,327.148,51.270,-14.160
1569100372.763,41.016,415.039,-91.309,61.523,70.801
1569100372.767,41.992,89.844,-348.145,47.363,82.520
1569100372.771,31.250,502.930,55.664,22.949,-4.395
1569100372.775,27.344,733.398,281.250,42.480,9.277
1569100372.779,42.480,168.457,-227.539,56.152,90.332
1569100372.783,29.785,-179.688,-563.477,41.504,85.938
1569100372.787,21.484,332.520,-105.957,31.250,13.672
1569100372.791,28.320,961.426,456.055,23.438,-28.809
1569100372.795,42.969,687.988,209.961,45.410,10.254
1569100372.799,44.922,-310.059,-638.184,43.945,42.480
1569100372.803,25.879,-151.367,-480.469,17.090,25.391
1569100372.806,19.531,820.312,340.820,11.230,-9.277
1569100372.810,23.926,899.902,389.160,19.531,20.020
1569100372.814,30.273,173.828,-243.652,39.551,52.734
1569100372.818,25.391,-150.391,-476.074,36.133,81.543
1569100372.822,17.578,391.113,23.926,15.625,17.090
1569100372.826,29.297,643.555,213.379,27.832,-31.738
1569100372.830,35.645,78.613,-304.688,42.969,41.016
1569100372.834,30.762,-134.277,-500.488,40.527,31.738
1569100372.838,34.668,203.613,-177.246,38.086,-2.441
1569100372.842,40.527,583.984,145.996,39.062,10.254
1569100372.846,43.457,689.453,173.340,47.852,84.961
1569100372.849,50.293,242.676,-228.027,61.035,104.492
1569100372.853,45.410,485.840,32.227,59.082,38.574
1569100372.857,34.668,984.863,501.953,48.340,-0.977
1569100372.861,32.715,759.766,299.316,51.270,32.715
1569100372.865,55.176,149.902,-245.117,58.105,67.383
1569100372.869,55.176,-54.688,-390.625,56.641,16.113
1569100372.873,36.621,574.219,177.246,41.504,-22.461
1569100372.877,46.875,657.715,214.844,49.805,-19.531
1569100372.881,37.109,56.641,-335.449,58.105,56.641
1569100372.885,23.926,-82.031,-452.637,38.086,54.199
1569100372.888,21.973,415.039,-0.977,31.738,-15.137
1569100372.892,20.996,958.496,451.660,31.738,15.137
1569100372.896,41.016,352.539,-94.238,53.223,72.266
1569100372.900,41.992,-319.824,-658.691,51.758,33.691
1569100372.904,18.066,288.086,-104.492,24.414,-5.371
1569100372.908,7.812,858.887,382.812,18.555,-26.855
1569100372.912,8.301,523.438,67.383,32.227,4.395
1569100372.916,10.254,-310.059,-632.812,39.551,71.289
1569100372.920,9.277,-185.059,-487.793,17.578,73.242
1569100372.924,7.324,736.328,281.250,5.371,11.230
1569100372.928,17.090,661.133,169.922,23.926,-1.953
1569100372.931,10.742,20.508,-394.531,22.461,57.617
1569100372.935,0.977,-34.180,-413.086,13.184,46.387
1569100372.939,14.160,129.395,-225.098,21.973,7.324
1569100372.943,16.602,119.141,-258.301,18.555,-7.324
1569100372.947,15.137,-11.719,-443.359,21.973,24.902
1569100372.951,19.531,-15.137,-462.891,28.809,25.391
1569100372.955,25.879,599.609,111.816,22.949,7.324
1569100372.959,33.203,944.824,425.781,29.297,10.254
1569100372.963,38.574,377.930,-75.195,60.059,46.387
1569100372.967,33.691,-228.516,-581.055,59.570,74.219
1569100372.971,25.879,277.344,-117.676,42.480,12.695
1569100372.974,34.180,-935.059,578.125,57.617,18.555
1569100372.978,46.875,367.188,-41.016,69.824,34.668
1569100372.982,37.598,-450.195,-748.535,49.316,33.203
1569100372.986,28.320,172.363,-206.543,33.691,22.949
1569100372.990,39.551,906.738,458.984,49.805,-27.344
1569100372.994,37.109,931.641,476.074,60.059,29.297
1569100372.998,24.902,32.715,-322.266,56.152,55.176
1569100373.002,17.090,-189.453,-471.680,43.457,53.223
1569100373.006,24.414,690.918,286.621,34.180,-0.977
1569100373.010,37.109,731.445,298.340,43.457,-33.203
1569100373.013,31.250,113.281,-249.512,49.805,44.434
1569100373.017,30.273,-412.598,-684.082,44.434,35.645
1569100373.021,26.855,-55.664,-341.309,24.902,-14.160
1569100373.025,13.184,891.113,434.570,20.508,19.531
1569100373.029,15.625,676.270,198.242,42.480,76.172
1569100373.033,22.461,154.297,-232.910,51.758,97.656
1569100373.037,20.020,371.094,13.184,45.898,48.828
1569100373.041,21.973,856.445,453.125,35.645,-16.113
1569100373.045,33.203,703.613,300.781,39.551,35.156
1569100373.049,23.438,-40.039,-340.332,41.016,80.078
1569100373.053,14.648,48.828,-235.840,38.574,23.438
1569100373.056,12.695,555.176,221.680,37.598,-35.156
1569100373.060,17.578,338.379,20.020,42.969,-17.578
1569100373.064,31.250,-162.598,-444.336,53.711,41.016
1569100373.068,29.297,-108.398,-417.480,35.645,21.484
1569100373.072,24.414,723.145,341.309,20.020,6.348
1569100373.076,46.387,874.512,479.492,47.363,15.137
1569100373.080,49.316,-30.762,-334.961,67.871,52.246
1569100373.084,24.902,-286.621,-557.617,45.410,42.969
1569100373.088,20.020,446.777,82.031,23.438,-0.488
1569100373.092,25.391,-945.312,611.816,27.344,20.996
1569100373.095,34.668,573.730,174.316,63.965,68.359
1569100373.099,37.109,-134.277,-420.898,69.336,85.938
1569100373.103,32.227,78.613,-202.148,54.199,12.695
1569100373.107,31.250,568.848,221.680,55.176,-58.105
1569100373.111,33.691,505.371,132.812,58.105,3.906
1569100373.115,50.781,-235.840,-523.926,77.148,46.875
1569100373.119,47.852,-270.996,-541.504,63.477,0.000
1569100373.123,24.414,693.848,272.461,39.062,-43.945
1569100373.127,28.809,933.594,441.895,46.875,-15.137
1569100373.131,44.434,289.551,-124.023,63.965,55.664
1569100373.135,41.016,-12.695,-356.445,64.941,41.016
1569100373.138,31.250,377.930,23.438,49.805,-33.691
1569100373.142,38.574,784.668,364.258,52.246,-15.625
1569100373.146,45.898,372.559,-36.621,62.988,58.105
1569100373.150,27.344,-302.734,-613.281,54.688,62.012
1569100373.154,20.508,16.602,-318.848,29.785,0.488
1569100373.158,38.086,224.609,-166.504,36.621,-71.777
1569100373.162,39.062,-373.535,-733.887,40.527,-62.012
1569100373.166,36.133,-497.070,-905.762,56.641,-14.648
1569100373.170,23.926,80.566,-430.664,64.941,7.324
1569100373.174,19.531,890.625,291.992,36.621,22.949
1569100373.178,28.809,764.160,143.066,28.809,35.156
1569100373.181,30.762,-40.527,-584.961,36.133,19.531
1569100373.185,27.832,-5.859,-518.066,32.227,32.227
1569100373.189,24.414,723.633,139.160,25.391,26.367
1569100373.193,40.039,790.039,153.320,44.922,-21.973
1569100373.197,47.852,-181.152,-631.836,63.965,-6.348
1569100373.201,46.387,-695.312,-1000.000,51.758,-12.695
1569100373.205,28.809,106.445,-435.547,32.227,-33.691
1569100373.209,15.625,649.902,-7.324,34.668,-44.922
1569100373.213,23.438,204.102,-448.730,55.664,-15.625
1569100373.217,25.879,-557.129,-988.770,55.664,6.836
1569100373.220,14.160,-291.016,-690.918,9.766,-0.488
1569100373.224,5.371,586.426,-88.867,4.395,11.719
1569100373.228,25.879,270.020,-414.551,40.039,2.441
1569100373.232,19.043,-229.004,-849.609,35.156,30.273
1569100373.236,3.418,-66.406,-671.387,16.602,44.434
1569100373.240,-7.324,541.504,-116.211,18.066,24.414
1569100373.244,2.930,498.047,-168.945,47.363,21.973
1569100373.248,10.742,-347.656,-873.047,53.223,23.438
1569100373.252,-9.277,-275.391,-818.359,26.367,-2.441
1569100373.256,-4.395,562.988,-112.305,19.043,17.090
1569100373.260,21.973,351.074,-268.555,26.367,77.637
1569100373.263,9.277,-278.320,-835.449,26.367,71.289
1569100373.267,-0.488,-96.191,-700.684,26.367,70.801
1569100373.271,11.230,646.973,-34.668,33.691,37.109
1569100373.275,22.461,934.570,232.910,44.434,-49.316
1569100373.279,42.480,419.922,-212.891,63.477,50.781
1569100373.283,46.875,-95.703,-639.160,74.707,87.402
1569100373.287,23.438,221.191,-328.613,41.016,-16.113
1569100373.291,22.949,813.477,202.148,40.039,7.324
1569100373.295,45.898,518.555,-80.078,71.289,32.227
1569100373.299,52.734,-442.383,-831.543,77.637,20.020
1569100373.302,34.180,-242.188,-654.297,53.223,15.625
1569100373.306,30.273,863.281,290.527,39.551,28.809
1569100373.310,41.992,953.125,355.957,48.828,13.672
1569100373.314,42.969,330.566,-259.766,67.383,32.227
1569100373.318,33.691,47.363,-450.684,53.223,46.387
1569100373.322,7.324,683.594,158.203,10.254,-0.977
1569100373.326,12.695,-997.559,437.012,23.438,-20.996
1569100373.330,40.527,400.391,-114.258,48.828,-12.207
1569100373.334,44.434,14.648,-414.551,36.621,14.160
1569100373.338,26.855,398.438,-22.461,13.184,54.688
1569100373.342,25.391,786.133,333.008,20.996,78.613
1569100373.345,30.273,370.605,-59.082,40.039,30.762
1569100373.349,16.113,-79.102,-464.355,16.113,20.020
1569100373.353,7.812,461.426,30.273,11.719,44.922
1569100373.357,3.906,900.391,441.895,21.484,-1.953
1569100373.361,8.301,654.785,230.957,21.484,1.953
1569100373.365,17.090,229.492,-143.066,33.203,42.969
1569100373.369,8.789,284.180,-70.801,26.367,19.043
1569100373.373,6.348,926.270,575.684,23.926,24.414
1569100373.377,27.832,732.422,421.387,41.016,41.016
1569100373.381,17.578,-43.945,-297.852,41.016,51.758
1569100373.385,2.441,-43.457,-277.344,32.227,87.891
1569100373.388,9.277,501.465,208.496,34.180,36.133
1569100373.392,17.090,947.266,575.195,41.016,14.648
1569100373.396,29.297,293.945,-6.348,66.406,36.621
1569100373.400,27.832,-391.113,-588.867,65.918,45.898
1569100373.404,19.043,416.504,135.254,38.574,43.457
1569100373.408,11.230,-910.156,784.180,30.762,20.020
1569100373.412,27.344,846.680,509.766,53.711,54.199
1569100373.416,43.945,265.625,-24.902,61.523,97.168
1569100373.420,20.020,403.809,158.691,30.273,71.777
1569100373.424,16.113,-967.773,803.711,26.855,23.438
1569100373.427,40.527,897.949,664.062,46.387,24.414
1569100373.431,45.410,185.547,-32.227,54.688,66.895
1569100373.435,28.320,-14.160,-150.879,41.992,65.430
1569100373.439,18.555,406.250,247.070,27.832,1.465
1569100373.443,29.297,793.945,555.176,47.852,9.766
1569100373.447,39.551,663.086,403.809,53.223,99.609
1569100373.451,23.438,440.918,213.867,41.504,107.910
1569100373.455,10.254,795.410,685.059,50.781,67.871
1569100373.459,26.367,-931.152,-953.125,61.035,62.988
1569100373.463,31.738,806.641,690.430,78.125,104.980
1569100373.467,24.902,498.047,395.508,71.777,175.781
1569100373.470,23.926,771.973,743.652,49.805,147.461
1569100373.474,24.414,-933.105,-935.547,52.246,67.383
1569100373.478,39.551,705.078,725.586,80.078,116.699
1569100373.482,51.270,-42.969,48.340,77.637,141.602
1569100373.486,41.016,189.941,270.020,58.594,111.816
1569100373.490,33.203,974.121,979.004,57.617,59.082
1569100373.494,44.434,929.688,909.668,68.848,53.711
1569100373.498,44.922,110.352,167.969,63.477,136.230
1569100373.502,30.762,24.902,121.582,46.387,148.926
1569100373.506,17.578,798.828,804.688,41.016,96.680
1569100373.510,29.297,847.168,827.148,39.062,81.543
1569100373.513,41.504,156.250,182.617,61.035,95.215
1569100373.517,15.137,-349.121,-250.488,55.176,98.145
1569100373.521,-3.906,260.254,298.340,12.695,64.453
1569100373.525,11.719,708.984,655.273,25.879,25.879
1569100373.529,20.020,80.078,65.430,54.688,85.449
1569100373.533,10.742,-427.246,-405.762,41.504,101.074
1569100373.537,1.465,-162.598,-158.203,20.020,50.781
1569100373.541,1.465,163.086,129.883,14.648,15.625
1569100373.545,6.348,227.539,109.863,24.902,61.035
1569100373.549,14.648,63.965,-106.445,34.180,128.418
1569100373.552,8.789,305.664,117.188,26.367,85.449
1569100373.556,9.766,916.016,693.359,26.855,24.414
1569100373.560,25.879,890.137,676.758,51.270,54.199
1569100373.564,32.715,105.957,-16.602,62.500,91.309
1569100373.568,25.879,-162.598,-204.590,52.734,96.191
1569100373.572,26.855,600.586,499.023,42.969,62.988
1569100373.576,40.527,740.723,611.328,59.082,58.594
1569100373.580,39.062,66.406,-13.184,70.801,94.238
1569100373.584,27.344,-152.832,-230.469,54.199,86.914
1569100373.588,24.902,529.297,406.738,44.434,70.312
1569100373.592,25.391,-924.805,890.137,55.176,31.250
1569100373.595,38.574,414.551,275.879,67.383,41.992
1569100373.599,48.828,-409.180,-409.180,67.383,90.332
1569100373.603,33.691,92.285,54.688,45.410,59.570
1569100373.607,24.414,880.859,738.281,37.598,29.785
1569100373.611,35.156,723.145,573.730,50.293,83.496
1569100373.615,43.457,-81.055,-148.438,62.500,89.355
1569100373.619,39.062,-614.746,-557.617,56.641,41.504
1569100373.623,25.879,-54.688,-40.039,33.203,19.043
1569100373.627,24.902,594.727,430.176,36.133,25.879
1569100373.631,38.086,182.617,-8.789,41.504,76.660
1569100373.634,38.574,-29.785,-166.992,42.480,81.543
1569100373.638,32.715,517.090,366.211,33.203,3.906
1569100373.642,33.203,918.945,719.727,23.438,-0.488
1569100373.646,45.410,371.094,220.215,50.781,59.570
1569100373.650,32.715,-165.527,-231.445,51.758,67.383
1569100373.654,20.996,323.730,242.188,30.762,26.367
1569100373.658,18.555,791.504,660.645,32.227,0.488
1569100373.662,17.090,390.137,269.043,40.527,38.574
1569100373.666,21.973,-331.055,-375.488,44.922,77.148
1569100373.670,7.324,-198.242,-231.934,34.668,43.457
1569100373.674,7.812,753.906,578.125,25.391,9.277
1569100373.677,29.297,405.762,232.422,38.574,13.184
1569100373.681,32.227,-579.590,-653.809,42.480,67.383
1569100373.685,12.207,-113.281,-273.926,38.574,87.402
1569100373.689,-2.441,708.008,429.199,32.715,-13.672
1569100373.693,4.395,860.352,540.527,43.457,-7.324
1569100373.697,26.855,-28.320,-250.000,63.477,47.852
1569100373.701,18.555,-425.781,-570.801,51.270,55.664
1569100373.705,10.254,455.566,218.262,32.227,35.156
1569100373.709,33.203,898.438,595.215,32.227,12.207
1569100373.713,36.133,127.441,-98.145,41.992,49.316
1569100373.717,21.484,-700.195,-805.664,51.270,57.617
1569100373.720,16.602,-119.141,-272.949,41.016,11.719
1569100373.724,20.508,833.984,535.156,40.039,-5.371
1569100373.728,40.039,629.883,327.637,59.570,65.430
1569100373.732,47.363,-22.461,-243.164,58.594,101.562
1569100373.736,33.691,-201.172,-345.703,39.062,17.090
1569100373.740,22.949,227.051,68.848,32.715,-32.715
1569100373.744,21.484,518.555,263.672,42.480,18.555
1569100373.748,23.438,-9.766,-261.230,39.551,74.219
1569100373.752,21.484,-12.207,-249.023,20.508,85.449
1569100373.756,17.090,646.973,362.793,20.996,24.414
1569100373.759,21.973,623.047,338.867,32.715,-3.906
1569100373.763,22.461,-164.062,-377.930,33.203,28.809
1569100373.767,-3.906,-429.199,-618.652,19.043,33.203
1569100373.771,-9.766,470.703,191.406,2.930,27.832
1569100373.775,11.230,989.258,648.438,5.371,11.230
1569100373.779,11.719,10.254,-217.285,35.645,16.602
1569100373.783,-8.301,-579.102,-729.980,37.598,48.340
1569100373.787,-16.113,244.629,-3.418,13.184,28.809
1569100373.791,-9.766,933.594,612.305,16.602,7.324
1569100373.795,6.348,619.141,327.637,40.039,40.527
1569100373.799,12.207,-163.574,-357.422,37.598,60.547
1569100373.802,-5.371,27.832,-154.785,24.414,40.039
1569100373.806,-2.441,630.371,401.855,20.508,-12.695
1569100373.810,14.160,523.926,285.645,24.902,-3.418
1569100373.814,29.297,-51.270,-256.348,38.086,47.852
1569100373.818,28.320,-250.488,-406.250,22.461,51.758
1569100373.822,11.230,516.602,289.062,15.625,7.324
1569100373.826,17.090,941.406,644.043,37.109,8.301
1569100373.830,34.668,332.031,101.562,43.945,74.707
1569100373.834,35.645,-84.473,-236.328,38.086,81.543
1569100373.838,24.902,268.066,133.301,33.691,24.414
1569100373.842,22.949,750.977,556.641,19.043,-2.930
1569100373.845,23.438,298.828,107.910,30.762,6.836
1569100373.849,12.207,-384.766,-489.746,40.039,48.340
1569100373.853,-3.418,0.488,-126.953,11.719,35.645
1569100373.857,4.395,423.340,236.328,9.277,-56.641
1569100373.861,9.277,406.250,185.547,16.113,21.484
1569100373.865,7.812,50.293,-164.062,28.320,100.586
1569100373.869,4.883,69.824,-125.000,18.066,47.363
1569100373.873,-3.418,772.949,524.414,0.977,-17.090
1569100373.877,11.719,650.391,428.223,15.137,4.883
1569100373.881,35.645,-522.949,-582.031,37.109,46.387
1569100373.884,12.207,-530.273,-602.539,27.832,30.762
1569100373.888,-23.926,537.598,309.570,2.930,-8.301
1569100373.892,-20.508,877.930,594.238,13.184,-23.438
1569100373.896,5.371,277.344,60.059,40.039,40.527
1569100373.900,8.301,-258.301,-386.230,33.691,80.078
1569100373.904,1.465,179.688,22.949,14.160,17.090
1569100373.908,15.625,701.172,479.980,34.180,-14.648
1569100373.912,18.555,460.938,248.535,37.109,33.203
1569100373.916,14.160,-116.211,-255.859,23.926,61.035
1569100373.920,8.301,-188.477,-263.672,18.066,22.949
1569100373.924,8.789,564.941,394.043,24.902,-42.969
1569100373.927,18.066,767.578,514.160,38.086,-19.043
1569100373.931,16.602,270.020,65.430,31.738,80.566
1569100373.935,27.832,164.551,19.043,30.762,54.199
1569100373.939,23.926,608.887,456.055,8.789,-27.832
1569100373.943,8.301,872.070,685.059,7.812,10.742
1569100373.947,17.578,118.164,19.043,35.156,69.336
1569100373.951,7.812,-261.230,-294.922,28.320,67.871
1569100373.955,-0.488,476.074,363.770,8.789,18.066
1569100373.959,19.043,691.895,551.758,17.090,-0.977
1569100373.963,29.785,238.281,139.160,34.180,76.660
1569100373.966,20.996,11.719,-66.406,35.156,110.840
1569100373.970,4.395,463.867,354.980,4.395,43.457
1569100373.974,-5.859,962.891,804.199,5.859,-17.578
1569100373.978,-0.488,287.598,225.586,39.551,17.578
1569100373.982,19.531,-344.727,-329.590,33.203,78.125
1569100373.986,15.625,189.941,120.605,9.277,41.504
1569100373.990,-2.441,813.477,664.062,19.043,-38.086
1569100373.994,5.371,701.172,567.383,48.340,19.531
1569100373.998,16.113,-267.578,-269.043,49.316,89.844
1569100374.002,7.324,-466.797,-444.824,31.250,38.086
1569100374.006,0.488,574.219,437.012,23.438,-11.719
1569100374.009,8.301,941.406,727.539,36.133,5.859
1569100374.013,14.648,405.273,254.395,50.781,85.938
1569100374.017,5.371,-52.246,-107.422,32.227,95.703
1569100374.021,-3.906,380.859,304.688,15.137,18.066
1569100374.025,17.578,867.676,720.215,37.598,-6.836
1569100374.029,33.691,493.652,380.371,41.504,78.613
1569100374.033,16.113,57.129,9.766,18.555,131.836
1569100374.037,6.836,229.980,199.707,23.926,58.594
1569100374.041,16.113,512.695,463.379,30.273,-15.137
1569100374.045,25.391,238.281,196.777,32.227,30.762
1569100374.049,28.320,-214.844,-228.516,39.062,102.539
1569100374.052,15.137,113.281,41.992,21.484,58.594
1569100374.056,9.766,605.469,470.703,9.766,-25.391
1569100374.060,24.902,559.082,419.434,27.832,6.836
1569100374.064,34.180,205.566,90.820,39.551,96.191
1569100374.068,35.645,161.133,65.918,19.531,97.656
1569100374.072,30.273,604.004,469.727,11.719,-8.789
1569100374.076,26.367,507.324,384.766,25.391,-30.273
1569100374.080,19.043,-13.672,-99.609,27.344,58.105
1569100374.084,13.184,-28.809,-136.230,31.250,95.703
1569100374.088,24.414,322.754,186.035,26.855,7.812
1569100374.091,29.297,531.738,367.676,22.949,-51.270
1569100374.095,32.227,252.441,99.609,50.293,47.852
1569100374.099,47.852,-515.137,-573.242,59.082,100.098
1569100374.103,33.691,-338.379,-433.105,29.297,-3.418
1569100374.107,14.160,731.934,440.918,14.160,-44.922
1569100374.111,19.043,867.676,511.719,41.504,27.344
1569100374.115,26.855,210.449,-51.758,56.152,68.359
1569100374.119,20.020,93.750,-107.422,38.574,25.879
1569100374.123,15.625,786.621,531.250,36.621,-14.648
1569100374.127,25.879,912.598,643.555,47.363,12.207
1569100374.131,33.203,224.121,39.551,48.340,80.078
1569100374.134,37.109,-157.227,-263.672,41.016,71.289
1569100374.138,21.973,240.723,104.980,26.855,-23.926
1569100374.142,0.977,747.070,515.137,26.367,-20.020
1569100374.146,19.043,424.316,181.641,43.457,57.617
1569100374.150,31.250,-10.254,-205.566,49.316,66.895
1569100374.154,17.578,479.492,250.488,6.836,13.184
1569100374.158,28.320,577.637,352.539,-7.324,-44.434
1569100374.162,35.645,102.539,-77.637,42.480,10.254
1569100374.166,20.996,-67.871,-258.789,55.176,82.520
1569100374.170,0.000,241.211,24.902,22.461,39.062
1569100374.173,-5.371,851.074,572.266,10.254,-17.578
1569100374.177,15.625,554.199,301.758,45.898,-9.277
1569100374.181,20.508,-264.160,-418.945,52.246,61.035
1569100374.185,3.418,-307.129,-455.078,18.066,64.941
1569100374.189,-14.648,329.102,98.145,9.766,-0.488
1569100374.193,-5.371,589.355,288.086,41.504,0.977
1569100374.197,21.484,-32.227,-292.480,52.734,60.547
1569100374.201,15.625,-348.145,-577.148,43.945,43.945
1569100374.205,3.906,402.344,88.867,33.203,-11.230
1569100374.209,21.973,862.793,498.047,41.992,2.441
1569100374.213,25.391,457.031,129.395,61.035,68.359
1569100374.216,40.527,-286.621,-493.652,69.824,83.008
1569100374.220,47.852,-204.102,-372.559,56.641,-0.977
1569100374.224,37.109,627.441,331.055,48.828,-49.316
1569100374.228,55.176,373.047,74.707,71.289,20.508
1569100374.232,55.176,-270.020,-493.652,64.453,65.430
1569100374.236,38.086,-0.977,-237.305,50.293,56.641
1569100374.240,47.852,286.621,40.039,47.363,1.953
1569100374.244,50.781,266.602,-17.090,42.969,-4.395
1569100374.248,34.668,15.625,-298.828,53.223,65.918
1569100374.252,25.391,134.277,-194.336,35.156,65.918
1569100374.256,27.832,645.020,283.691,18.555,-25.391
1569100374.259,28.320,735.352,380.859,38.574,-15.137
1569100374.263,29.785,229.980,-67.871,46.875,53.711
1569100374.267,23.926,-162.598,-401.367,41.016,33.691
1569100374.271,12.207,433.105,162.109,20.020,7.812
1569100374.275,23.926,689.453,395.508,18.066,-19.043
1569100374.279,23.438,-254.883,-444.824,41.016,-6.836
1569100374.283,-4.883,-639.160,-812.500,27.832,26.855
1569100374.287,-14.648,205.566,-91.797,2.441,20.996
1569100374.291,-13.184,908.203,519.043,-0.488,-13.184
1569100374.295,3.906,717.285,347.168,32.715,52.246
1569100374.298,5.859,-102.051,-339.355,59.082,108.398
1569100374.302,-22.949,-127.441,-326.660,30.273,55.176
1569100374.306,-24.414,590.332,303.711,20.996,-22.949
1569100374.310,-3.906,643.555,334.961,44.434,1.953
1569100374.314,3.418,10.742,-226.562,51.758,92.773
1569100374.318,-3.418,-279.785,-470.703,39.062,47.363
1569100374.322,-8.301,143.066,-90.332,28.809,-55.176
1569100374.326,4.395,350.586,75.684,40.039,-39.062
1569100374.330,23.438,27.832,-236.816,64.453,78.613
1569100374.334,20.020,-80.566,-349.609,55.176,102.051
1569100374.338,20.508,227.539,-61.035,25.391,18.066
1569100374.341,39.551,568.359,235.840,33.691,-23.926
1569100374.345,47.852,434.082,100.586,53.223,67.383
1569100374.349,51.270,4.395,-268.066,55.664,129.883
1569100374.353,48.828,202.637,-75.195,31.250,36.133
1569100374.357,40.039,319.824,54.199,28.320,-32.227
1569100374.361,36.621,-4.395,-241.699,47.363,32.715
1569100374.365,42.480,-86.426,-365.723,38.086,125.488
1569100374.369,31.738,-135.742,-420.898,19.531,72.266
1569100374.373,15.625,349.609,14.160,8.301,-16.113
1569100374.377,27.344,356.445,10.742,21.973,-10.254
1569100374.381,38.086,-455.078,-706.543,25.879,55.664
1569100374.384,26.367,-289.062,-576.660,6.348,82.031
1569100374.388,10.254,532.715,135.742,9.277,22.461
1569100374.392,12.695,841.309,415.527,26.855,4.883
1569100374.396,15.625,233.398,-105.957,45.410,62.500
1569100374.400,10.742,-279.785,-540.039,35.156,65.918
1569100374.404,5.371,236.328,-58.105,18.066,13.184
1569100374.408,-2.441,720.703,371.094,20.508,-30.762
1569100374.412,9.766,364.746,46.875,37.109,30.273
1569100374.416,18.066,-443.359,-646.484,36.133,66.406
1569100374.420,2.930,-391.113,-575.195,19.531,10.742
1569100374.423,7.324,501.953,192.383,27.832,-22.949
1569100374.427,17.578,576.660,222.656,38.574,-1.953
1569100374.431,15.137,-2.441,-296.387,43.457,42.969
1569100374.435,17.578,-101.074,-350.586,47.852,18.066
1569100374.439,13.672,184.570,-50.781,27.344,-43.457
1569100374.443,1.953,409.180,120.117,14.648,-41.504
1569100374.447,12.695,168.457,-137.695,33.691,50.781
1569100374.451,28.809,-52.246,-325.195,47.363,39.062
1569100374.455,22.461,381.836,91.797,28.320,-54.199
1569100374.459,9.277,672.363,367.188,22.949,-43.945
1569100374.463,23.438,203.125,-43.945,48.340,54.199
1569100374.466,32.227,-307.617,-484.375,62.988,73.242
1569100374.470,33.691,59.082,-146.973,49.805,-20.020
1569100374.474,30.762,810.059,507.324,39.062,-35.156
1569100374.478,33.203,303.711,54.688,40.527,16.602
1569100374.482,35.156,-409.668,-575.195,31.250,64.453
1569100374.486,27.832,209.473,-38.086,25.879,50.293
1569100374.490,49.316,901.367,576.660,32.715,-29.297
1569100374.494,60.547,848.145,537.598,50.781,-10.742
1569100374.498,35.645,128.418,-75.195,47.852,52.246
1569100374.502,22.461,62.988,-94.238,25.879,51.270
1569100374.505,34.668,773.438,570.312,27.344,-3.906
1569100374.509,44.922,716.797,545.410,37.598,-31.250
1569100374.513,44.434,130.371,29.297,42.480,34.668
1569100374.517,41.504,-262.695,-294.434,33.691,51.758
1569100374.521,29.297,113.281,69.336,25.391,-6.348
1569100374.525,22.461,746.582,613.281,40.039,-24.414
1569100374.529,25.391,394.043,288.574,48.340,17.090
1569100374.533,20.020,124.512,62.988,44.434,61.035
1569100374.537,20.996,404.785,363.281,48.828,16.602
1569100374.541,30.273,883.789,826.172,52.246,-14.160
1569100374.545,47.852,805.176,749.023,66.895,30.273
1569100374.548,59.570,206.543,233.398,68.848,72.754
1569100374.552,48.828,311.035,366.211,38.574,39.551
1569100374.556,33.691,627.930,684.082,38.574,-27.344
1569100374.560,33.203,426.270,504.395,48.340,-17.090
1569100374.564,41.016,124.512,208.496,51.758,62.012
1569100374.568,48.828,130.371,215.820,55.664,60.547
1569100374.572,50.293,753.418,781.250,41.992,-0.977
1569100374.576,42.480,836.914,866.211,32.715,-3.906
1569100374.580,41.016,-14.648,134.766,35.645,56.641
1569100374.584,41.504,-280.273,-114.258,28.809,72.266
1569100374.588,28.320,372.559,431.152,15.625,-6.348
1569100374.591,29.785,979.004,954.102,24.902,-13.672
1569100374.595,47.852,605.469,627.441,48.340,58.105
1569100374.599,44.922,31.250,138.672,46.875,100.098
1569100374.603,31.738,202.148,315.430,30.762,41.016
1569100374.607,16.113,689.941,739.258,12.695,-8.789
1569100374.611,18.066,765.625,767.090,29.785,54.688
1569100374.615,29.785,277.344,321.777,35.645,111.328
1569100374.619,24.902,-175.781,-43.945,17.090,36.621
1569100374.623,8.789,332.031,410.156,31.250,-32.715
1569100374.627,17.578,916.992,875.977,33.203,46.387
1569100374.630,34.180,485.352,479.492,40.039,122.559
1569100374.634,25.879,252.930,307.129,41.992,99.121
1569100374.638,18.555,520.996,577.637,26.367,6.836
1569100374.642,23.926,711.426,744.629,32.227,-9.277
1569100374.646,35.645,461.426,497.070,49.316,72.754
1569100374.650,35.645,-52.734,40.527,53.711,73.242
1569100374.654,27.344,223.633,296.875,38.574,10.254
1569100374.658,43.457,730.957,728.516,37.109,-1.953
1569100374.662,46.387,541.504,522.949,49.805,55.664
1569100374.666,33.691,165.527,177.734,53.711,95.215
1569100374.670,33.691,364.258,376.465,43.457,62.500
1569100374.673,42.480,942.871,897.461,27.832,12.207
1569100374.677,59.082,451.172,479.004,41.504,15.625
1569100374.681,52.246,-300.781,-179.199,55.176,86.914
1569100374.685,39.551,68.359,111.816,51.270,79.102
1569100374.689,41.504,763.672,706.543,46.387,16.602
1569100374.693,35.156,882.324,801.758,48.828,22.461
1569100374.697,41.992,64.453,84.473,51.270,57.129
1569100374.701,37.109,-326.172,-246.582,35.645,73.242
1569100374.705,15.625,263.184,261.719,28.320,13.672
1569100374.709,26.367,746.582,660.156,29.297,1.953
1569100374.712,37.598,580.566,491.699,43.945,90.332
1569100374.716,31.250,-16.602,-1.465,49.805,117.188
1569100374.720,15.625,11.230,77.148,34.668,41.016
1569100374.724,-0.488,798.340,762.207,31.250,36.133
1569100374.728,6.836,821.777,764.160,44.434,129.395
1569100374.732,22.461,273.438,293.457,47.852,161.133
1569100374.736,23.438,135.742,207.520,38.086,79.590
1569100374.740,19.043,582.031,610.352,31.738,1.953
1569100374.744,29.785,513.184,521.973,44.922,24.902
1569100374.748,32.227,-58.594,3.418,51.758,117.676
1569100374.752,20.996,32.227,74.219,39.062,114.746
1569100374.755,23.438,424.316,419.434,25.391,7.812
1569100374.759,22.949,520.996,501.465,29.297,15.137
1569100374.763,25.391,253.906,250.977,51.270,120.605
1569100374.767,33.203,20.508,55.176,60.547,129.395
1569100374.771,28.809,441.406,449.219,44.434,57.129
1569100374.775,31.250,630.859,617.676,41.016,0.488
1569100374.779,39.062,-62.500,5.371,66.406,26.367
1569100374.783,29.785,-322.754,-226.074,59.082,120.605
1569100374.787,23.438,114.746,146.484,39.551,68.848
1569100374.791,27.344,391.113,380.371,32.227,-23.438
1569100374.795,25.391,-12.695,12.695,37.109,19.043
1569100374.798,27.344,-547.363,-477.051,51.758,88.379
1569100374.802,22.461,-242.676,-240.723,35.645,44.434
1569100374.806,17.578,420.898,317.383,20.020,-36.621
1569100374.810,17.090,371.582,276.855,28.320,0.977
1569100374.814,21.484,-111.328,-142.578,39.551,91.309
1569100374.818,22.461,-375.488,-359.375,38.574,51.270
1569100374.822,20.996,116.699,83.008,26.855,-25.879
1569100374.826,20.996,512.207,406.250,29.785,-12.695
1569100374.830,7.812,64.941,-9.766,53.711,56.641
1569100374.834,20.508,-177.734,-245.605,69.824,66.406
1569100374.837,41.016,-83.984,-176.758,51.758,-33.691
1569100374.841,28.320,-209.961,-308.105,35.156,-62.500
1569100374.845,25.879,-221.680,-419.434,46.387,21.484
1569100374.849,40.527,37.109,-304.199,68.848,75.684
1569100374.853,34.668,541.504,120.117,62.500,16.602
1569100374.857,25.391,958.984,528.320,44.434,-30.762
1569100374.861,32.227,769.531,396.484,48.828,26.855
1569100374.865,37.109,129.395,-133.301,62.988,77.637
1569100374.869,41.504,76.660,-140.137,70.312,56.152
1569100374.873,45.898,695.312,409.668,57.129,-17.578
1569100374.877,42.480,610.352,323.730,50.293,-23.926
1569100374.880,36.133,70.312,-147.949,66.895,73.242
1569100374.884,44.922,-147.461,-317.871,75.195,83.496
1569100374.888,39.062,234.375,31.738,45.898,-3.906
1569100374.892,25.879,791.504,504.395,38.574,20.020
1569100374.896,25.391,335.449,104.492,46.875,102.539
1569100374.900,23.438,-213.379,-347.168,46.875,101.074
1569100374.904,29.785,282.227,116.211,60.547,26.367
1569100374.908,41.504,796.875,586.426,58.594,9.277
1569100374.912,37.598,575.684,394.043,62.500,79.590
1569100374.916,30.762,-53.711,-134.766,62.988,119.141
1569100374.920,19.531,-68.359,-114.258,43.457,44.922
1569100374.923,12.207,554.688,438.965,40.039,6.836
1569100374.927,20.508,596.191,458.008,54.688,54.688
1569100374.931,24.902,-31.250,-94.727,59.082,104.980
1569100374.935,22.949,-222.168,-243.164,52.246,62.988
1569100374.939,24.414,-86.426,-107.910,47.363,-45.898
1569100374.943,32.715,73.242,7.812,57.617,6.836
1569100374.947,32.715,117.676,-23.926,63.477,101.562
1569100374.951,22.461,149.414,-0.488,63.477,96.191
1569100374.955,36.621,674.805,510.254,52.246,32.227
1569100374.959,56.152,780.273,627.441,58.105,-29.785
1569100374.962,42.480,367.676,277.344,79.590,38.086
1569100374.966,36.621,26.855,-6.836,65.918,87.891
1569100374.970,37.598,333.008,283.691,43.945,26.855
1569100374.974,50.293,767.090,661.621,47.363,-14.160
1569100374.978,57.129,271.973,200.684,61.035,20.508
1569100374.982,36.133,-401.367,-416.992,52.734,73.730
1569100374.986,31.250,-227.539,-289.062,34.180,38.574
1569100374.990,49.805,388.672,215.820,34.668,-24.902
1569100374.994,57.129,584.473,343.750,53.223,33.203
1569100374.998,54.688,-25.879,-203.613,67.383,98.633
1569100375.002,38.574,-183.594,-337.891,53.223,52.734
1569100375.005,21.973,409.668,175.781,33.203,-43.457
1569100375.009,27.344,572.754,315.918,41.016,-29.297
1569100375.013,35.645,121.094,-86.914,46.387,65.430
1569100375.017,38.086,-369.629,-515.625,44.922,51.758
1569100375.021,24.902,21.973,-161.133,37.598,-21.973
1569100375.025,17.090,380.371,135.254,38.574,-56.152
1569100375.029,31.738,-129.395,-328.613,54.688,5.371
1569100375.033,32.715,-430.664,-602.539,48.340,65.918
1569100375.037,15.625,-199.707,-403.320,43.945,3.418
1569100375.041,22.461,-212.891,-419.434,40.039,-88.867
1569100375.044,24.414,-143.066,-415.039,39.062,-12.695
1569100375.048,22.949,41.504,-324.219,53.711,87.402
1569100375.052,21.973,278.320,-114.258,41.992,40.527
1569100375.056,22.461,667.480,270.020,30.273,-35.156
1569100375.060,26.855,569.336,200.195,35.156,-22.461
1569100375.064,18.555,133.301,-181.152,47.363,57.617
1569100375.068,26.367,-21.973,-293.457,51.270,49.805
1569100375.072,37.109,353.516,72.754,41.016,-17.578
1569100375.076,31.250,259.766,-10.254,43.457,-63.965
1569100375.080,28.809,-477.539,-677.734,52.246,-13.672
1569100375.084,29.297,-463.379,-707.520,45.898,33.691
1569100375.087,30.762,365.234,-10.742,35.156,-8.301
1569100375.091,43.945,765.137,346.680,36.133,-23.438
1569100375.095,41.016,313.965,-38.574,46.875,27.344
1569100375.099,41.992,-174.805,-453.613,46.875,58.105
1569100375.103,36.621,194.824,-109.375,31.738,14.648
1569100375.107,20.996,748.535,395.996,20.508,-20.508
1569100375.111,25.391,573.242,250.000,33.203,16.602
1569100375.115,21.973,-39.062,-277.832,49.805,68.359
1569100375.119,24.902,-182.129,-375.488,49.805,38.574
1569100375.123,30.273,244.629,8.789,31.738,-39.551
1569100375.127,31.738,368.652,95.703,30.273,-20.996
1569100375.130,25.391,47.852,-214.355,46.387,57.129
1569100375.134,22.949,3.418,-245.117,46.387,74.707
1569100375.138,24.414,328.613,72.754,27.344,-2.441
1569100375.142,18.555,591.797,308.594,31.738,-20.996
1569100375.146,26.367,296.387,40.527,42.969,69.336
1569100375.150,31.250,-209.961,-389.160,51.758,85.938
1569100375.154,25.391,193.359,-18.555,51.270,17.090
1569100375.158,33.203,380.859,152.832,44.434,-48.340
1569100375.162,44.434,20.996,-176.758,50.781,1.953
1569100375.166,41.016,-177.734,-377.441,53.223,85.449
1569100375.169,40.039,-42.480,-254.883,47.363,47.363
1569100375.173,45.410,598.145,306.641,36.133,-26.367
1569100375.177,65.430,347.656,76.660,48.340,-24.414
1569100375.181,52.246,-442.871,-617.188,56.641,44.434
1569100375.185,14.648,-62.500,-308.594,37.109,47.363
1569100375.189,24.414,742.676,394.531,38.086,-14.160
1569100375.193,39.551,914.062,569.336,57.129,10.742
1569100375.197,41.504,314.453,62.012,56.152,95.703
1569100375.201,35.156,27.832,-164.551,24.902,106.934
1569100375.205,24.902,370.117,156.738,7.812,3.418
1569100375.209,34.668,626.953,394.043,30.273,-10.742
1569100375.212,44.922,274.902,83.496,45.410,83.984
1569100375.216,41.504,-347.168,-450.684,48.828,114.258
1569100375.220,32.715,-170.410,-278.320,27.832,61.523
1569100375.224,20.020,558.594,323.730,15.137,-2.930
1569100375.228,34.668,533.203,263.672,46.387,20.020
1569100375.232,38.086,138.184,-72.266,54.688,110.352
1569100375.236,24.902,190.430,-0.977,37.598,72.266
1569100375.240,20.996,565.430,355.469,32.227,0.000
1569100375.244,20.020,598.145,385.254,46.387,33.203
1569100375.248,24.902,45.410,-115.723,64.453,86.914
1569100375.251,22.949,-6.348,-159.668,51.270,76.172
1569100375.255,20.020,434.570,245.605,29.785,8.789
1569100375.259,29.785,339.844,165.527,43.945,-8.789
1569100375.263,26.855,-184.570,-314.941,52.734,55.176
1569100375.267,21.484,-402.832,-525.879,41.504,67.871
1569100375.271,18.555,254.883,42.480,26.855,13.184
1569100375.275,12.207,800.781,523.438,23.438,6.348
1569100375.279,20.020,-51.270,-211.914,32.227,22.949
1569100375.283,6.836,-476.074,-593.262,29.297,70.312
1569100375.287,-1.953,312.012,83.496,22.949,61.523
1569100375.291,14.160,810.547,523.926,7.324,-17.578
1569100375.294,20.508,523.438,282.227,21.484,11.230
1569100375.298,12.695,-161.133,-307.617,36.133,57.129
1569100375.302,9.766,-55.176,-208.008,22.461,19.531
1569100375.306,13.672,321.777,127.441,23.438,-67.871
1569100375.310,2.441,217.285,20.508,24.902,-45.898
1569100375.314,2.441,-18.066,-227.051,23.926,49.316
1569100375.318,18.555,-409.180,-572.754,19.043,42.480
1569100375.322,9.766,-75.195,-280.762,6.348,-28.320
1569100375.326,14.160,541.504,216.797,15.625,-47.852
1569100375.330,18.555,179.688,-129.883,20.020,10.254
1569100375.334,-1.465,-177.734,-446.777,2.930,12.695
1569100375.337,2.441,143.066,-136.719,8.789,-28.320
1569100375.341,21.973,511.719,190.430,21.973,-59.082
1569100375.345,15.625,265.137,-46.387,8.789,-12.695
1569100375.349,16.602,-164.062,-431.152,15.625,28.809
1569100375.353,17.090,-189.453,-445.312,24.902,-52.246
1569100375.357,4.395,0.000,-278.320,18.555,-76.660
1569100375.361,7.812,51.758,-280.762,31.250,-35.645
1569100375.365,2.930,-224.121,-576.660,31.250,-27.344
1569100375.369,3.418,-175.293,-540.039,23.438,-47.363
1569100375.373,9.277,345.215,-80.566,28.320,-89.844
1569100375.376,19.531,230.469,-180.176,35.156,-70.801
1569100375.380,23.438,-177.734,-548.828,44.434,-7.812
1569100375.384,12.207,-30.762,-426.758,42.969,6.348
1569100375.388,15.625,392.090,-42.969,24.414,-77.637
1569100375.392,24.414,662.109,212.402,21.484,-68.359
1569100375.396,21.484,154.297,-220.215,35.156,0.000
1569100375.400,15.137,-567.383,-838.867,35.156,24.902
1569100375.404,0.977,-39.551,-389.160,7.324,3.906
1569100375.408,8.789,725.098,258.789,-6.836,-22.461
1569100375.412,16.113,629.883,180.664,14.648,22.949
1569100375.416,16.113,71.777,-282.227,38.574,37.598
1569100375.419,20.996,130.371,-181.152,16.602,21.973
1569100375.423,14.648,735.840,375.488,1.465,-41.992
1569100375.427,24.902,760.742,430.176,43.457,20.996
1569100375.431,34.668,237.793,-1.953,65.430,90.820
1569100375.435,39.551,57.617,-142.578,53.223,25.391
1569100375.439,40.039,460.449,239.258,40.039,-8.301
1569100375.443,40.527,748.535,489.258,45.898,7.324
1569100375.447,42.969,272.461,72.266,62.988,67.871
1569100375.451,34.668,-46.387,-200.195,49.805,54.199
1569100375.455,30.273,603.516,386.230,34.180,9.277
1569100375.459,43.945,521.484,335.938,57.129,-32.227
1569100375.462,46.387,98.633,-41.016,70.801,35.645
1569100375.466,42.969,201.172,18.066,57.617,82.031
1569100375.470,41.992,557.129,346.680,50.293,21.484
1569100375.474,45.410,888.672,681.152,64.453,-25.879
1569100375.478,51.758,476.074,339.355,82.031,-1.465
1569100375.482,38.086,13.672,-79.102,83.008,41.016
1569100375.486,27.832,192.383,89.355,64.453,43.945
1569100375.490,42.969,623.047,486.816,61.035,6.836
1569100375.494,60.547,498.047,373.047,73.730,-3.418
1569100375.498,67.383,-114.746,-171.387,64.453,67.871
1569100375.501,47.852,-13.672,-96.680,37.109,62.500
1569100375.505,27.832,678.711,517.578,37.109,1.465
1569100375.509,26.367,810.547,646.973,49.316,0.488
1569100375.513,20.996,399.414,291.016,46.875,69.336
1569100375.517,23.438,-193.848,-210.938,25.879,58.105
1569100375.521,19.531,34.668,10.254,5.371,21.973
1569100375.525,9.766,758.301,621.094,15.137,21.484
1569100375.529,12.695,481.445,352.539,28.320,40.527
1569100375.533,16.113,145.020,71.289,21.484,107.422
1569100375.537,10.254,354.492,291.504,11.719,64.941
1569100375.541,14.160,595.215,527.832,12.207,-2.441
1569100375.544,14.160,433.105,374.512,32.227,66.895
1569100375.548,18.066,-69.824,-96.191,41.992,113.770
1569100375.552,6.348,225.098,142.090,20.508,70.312
1569100375.556,0.977,820.312,666.504,19.531,41.504
1569100375.560,27.832,458.984,340.332,42.480,46.387
1569100375.564,19.531,76.660,-39.551,41.992,90.820
1569100375.568,2.930,210.938,50.781,24.414,85.938
1569100375.572,13.672,775.879,623.535,26.367,51.270
1569100375.576,32.227,915.527,778.809,45.410,68.848
1569100375.580,21.484,278.320,166.016,36.133,101.074
1569100375.583,8.789,0.000,-53.711,20.996,108.887
1569100375.587,20.508,360.840,314.453,45.410,70.801
1569100375.591,29.785,749.023,675.293,49.805,50.781
1569100375.595,34.180,466.797,417.480,46.875,103.027
1569100375.599,41.992,-297.852,-247.559,53.223,109.375
1569100375.603,32.715,10.742,49.805,39.062,81.543
1569100375.607,20.508,914.062,862.305,38.574,99.121
1569100375.611,33.203,773.438,725.586,30.762,99.609
1569100375.615,36.133,14.160,61.523,15.625,111.816
1569100375.619,26.367,-259.766,-115.723,39.062,120.605
1569100375.623,23.438,468.750,550.781,45.898,96.680
1569100375.626,7.812,798.828,798.828,19.531,82.031
1569100375.630,1.465,42.969,112.793,18.066,88.379
1569100375.634,27.344,-357.910,-213.379,25.879,79.590
1569100375.638,38.086,-161.133,-6.836,18.555,22.461
1569100375.642,14.160,228.516,301.270,9.766,26.855
1569100375.646,0.977,186.523,192.383,25.391,101.562
1569100375.650,12.207,-125.977,-99.121,22.949,108.398
1569100375.654,22.949,366.211,375.488,17.090,74.707
1569100375.658,26.855,776.367,775.391,24.902,74.707
1569100375.662,14.160,386.719,422.363,23.438,110.840
1569100375.666,1.465,-229.980,-142.090,26.855,93.262
1569100375.669,1.953,-53.223,39.062,19.043,45.410
1569100375.673,4.395,654.785,685.547,7.324,35.645
1569100375.677,17.578,413.574,467.285,32.227,44.434
1569100375.681,20.996,-461.426,-321.777,44.922,54.688
1569100375.685,2.930,-457.520,-323.242,19.043,57.129
1569100375.689,11.230,355.469,391.113,15.137,37.598
1569100375.693,25.391,826.660,779.297,22.461,83.984
1569100375.697,29.785,-56.152,-21.484,38.574,79.590
1569100375.701,26.855,-776.367,-645.020,34.180,26.855
1569100375.705,22.461,233.887,243.164,28.320,39.062
1569100375.708,34.180,915.039,811.523,43.457,40.527
1569100375.712,35.156,282.715,226.074,32.715,54.688
1569100375.716,34.180,-477.051,-435.059,41.504,54.688
1569100375.720,20.020,10.742,22.461,40.527,35.156
1569100375.724,12.695,764.648,675.781,23.438,14.160
1569100375.728,27.832,262.695,205.078,29.785,23.438
1569100375.732,20.020,-449.707,-440.918,29.785,74.219
1569100375.736,10.742,-287.598,-301.758,30.273,25.879
1569100375.740,17.090,395.508,309.570,32.227,-31.250
1569100375.744,14.160,574.707,437.988,31.250,10.742
1569100375.748,17.578,-64.453,-157.227,39.551,54.688
1569100375.751,19.531,-123.047,-193.848,32.227,49.316
1569100375.755,22.949,494.629,392.578,38.574,19.531
1569100375.759,22.461,395.508,328.613,48.828,30.273
1569100375.763,9.766,-159.180,-209.961,45.898,63.477
1569100375.767,18.066,-315.918,-389.648,58.594,44.922
1569100375.771,23.926,208.008,94.727,48.340,12.207
1569100375.775,29.297,575.684,421.387,40.039,13.184
1569100375.779,48.828,-255.859,-346.680,57.617,28.320
1569100375.783,36.133,-729.980,-817.383,52.734,33.691
1569100375.787,20.508,39.062,-165.527,43.945,-0.977
1569100375.791,28.809,648.926,385.254,53.711,-36.133
1569100375.794,32.227,405.273,159.180,57.617,2.441
1569100375.798,33.203,-276.367,-459.473,50.781,54.688
1569100375.802,31.250,-47.363,-230.469,42.480,70.312
1569100375.806,33.203,727.539,487.305,39.551,39.551
1569100375.810,41.992,674.316,434.570,51.758,32.227
1569100375.814,38.574,-123.047,-300.293,57.617,39.551
1569100375.818,30.762,-383.789,-516.113,55.664,41.504
1569100375.822,37.598,239.258,66.406,39.062,24.902
1569100375.826,48.828,479.492,259.277,31.250,20.996
1569100375.830,42.969,-184.570,-376.953,50.293,48.828
1569100375.833,22.461,-465.332,-655.762,34.668,62.012
1569100375.837,6.348,187.988,-61.035,22.949,53.223
1569100375.841,8.789,683.594,385.254,37.598,15.137
1569100375.845,19.531,354.980,61.523,28.809,35.645
1569100375.849,23.438,-264.160,-500.000,11.719,53.711
1569100375.853,19.531,122.070,-116.699,7.324,32.227
1569100375.857,10.254,502.930,275.391,10.254,1.465
1569100375.861,4.883,74.219,-107.422,23.438,33.203
1569100375.865,12.207,-241.699,-446.289,31.250,74.219
1569100375.869,15.137,-258.789,-461.914,25.879,27.832
1569100375.873,-10.742,458.008,216.797,11.230,12.695
1569100375.876,-6.348,562.012,316.406,18.555,23.438
1569100375.880,22.461,-380.859,-532.227,31.738,46.875
1569100375.884,16.602,-372.070,-535.645,29.297,73.730
1569100375.888,-2.441,555.176,300.293,25.391,37.109
1569100375.892,-2.441,947.754,664.062,33.691,9.766
1569100375.896,14.160,213.867,15.137,48.340,37.109
1569100375.900,17.090,-348.633,-469.238,37.598,45.410
1569100375.904,13.672,293.457,146.484,21.484,35.645
1569100375.908,30.273,918.945,749.023,34.180,46.387
1569100375.912,38.574,574.707,451.660,41.504,82.031
1569100375.915,45.898,-315.918,-327.637,51.270,83.008
1569100375.919,46.387,-531.250,-478.027,46.875,18.066
1569100375.923,31.738,367.676,302.734,37.109,-16.113
1569100375.927,36.133,625.000,467.285,53.711,19.043
1569100375.931,41.992,-77.148,-188.965,47.363,41.016
1569100375.935,42.480,-139.648,-206.055,35.645,34.180
1569100375.939,29.297,446.777,381.348,28.809,18.066
1569100375.943,22.461,598.145,517.578,30.762,26.367
1569100375.947,34.668,-25.391,-79.102,43.457,41.504
1569100375.951,31.250,-255.371,-283.203,32.715,47.852
1569100375.955,23.438,434.570,373.047,32.715,37.109
1569100375.958,22.949,791.016,711.914,32.227,41.016
1569100375.962,22.461,95.703,74.707,24.902,62.988
1569100375.966,20.996,-567.383,-537.109,25.391,47.852
1569100375.970,11.230,106.934,72.266,14.160,35.645
1569100375.974,9.766,932.129,828.125,13.184,42.480
1569100375.978,20.508,418.457,366.211,18.555,55.664
1569100375.982,17.578,-369.141,-359.375,27.832,43.457
1569100375.986,4.883,-36.621,-44.922,21.484,19.531
1569100375.990,-7.324,806.641,750.000,-5.859,32.715
1569100375.994,-13.672,749.512,697.266,-2.930,48.828
1569100375.998,-2.441,-434.082,-377.930,23.438,20.020
1569100376.001,0.000,-639.160,-563.965,16.113,20.020
1569100376.005,-3.418,514.648,462.402,19.043,25.391
1569100376.009,9.277,621.582,547.852,28.809,12.695
1569100376.013,8.301,-119.141,-141.113,30.762,57.617
1569100376.017,17.578,-582.031,-562.012,31.738,49.805
1569100376.021,24.414,-322.754,-309.082,26.367,-13.184
1569100376.025,17.578,491.699,375.488,27.832,-7.324
1569100376.029,30.762,242.188,76.660,39.551,9.277
1569100376.033,38.086,-420.410,-546.875,33.691,-9.766
1569100376.037,26.855,-49.805,-187.988,27.832,-18.066
1569100376.040,17.578,637.695,448.730,33.691,-24.414
1569100376.044,30.762,471.191,276.855,27.832,17.578
1569100376.048,41.016,-252.930,-391.602,31.738,50.293
1569100376.052,45.410,-149.902,-268.066,52.246,40.039
1569100376.056,49.805,435.059,305.176,50.293,31.738
1569100376.060,42.969,336.426,201.660,47.852,34.180
1569100376.064,44.922,-279.297,-416.992,34.180,12.207
1569100376.068,44.922,-231.934,-374.512,24.414,30.762
1569100376.072,32.227,692.871,510.254,39.062,42.480
1569100376.076,44.434,850.586,687.500,53.711,17.578
1569100376.080,41.992,-42.480,-108.887,63.477,29.785
1569100376.083,31.250,-355.469,-389.160,63.965,36.133
1569100376.087,37.598,385.742,316.406,55.176,45.410
1569100376.091,35.156,982.910,882.812,45.898,51.270
1569100376.095,34.180,304.199,272.461,41.992,36.621
1569100376.099,23.926,-603.027,-542.480,34.180,25.391
1569100376.103,14.160,-181.152,-144.043,38.086,37.109
1569100376.107,23.438,624.512,589.355,44.922,46.875
1569100376.111,28.809,372.070,329.102,51.270,41.992
1569100376.115,37.598,-319.336,-338.867,51.270,30.273
1569100376.119,39.551,-524.414,-500.000,51.270,14.160
1569100376.122,26.367,233.887,210.449,35.645,46.387
1569100376.126,37.598,789.551,648.926,32.227,53.711
1569100376.130,36.133,60.547,-47.852,61.035,24.414
1569100376.134,29.297,-249.512,-295.898,60.059,17.090
1569100376.138,29.297,482.422,423.828,41.504,39.062
1569100376.142,20.020,932.617,851.562,26.855,54.688
1569100376.146,33.203,212.891,192.383,37.598,33.203
1569100376.150,24.902,-580.566,-504.883,45.898,15.625
1569100376.154,8.301,23.926,61.523,23.438,13.672
1569100376.158,17.578,572.266,564.453,17.090,16.602
1569100376.162,27.344,34.668,45.898,19.531,31.738
1569100376.165,22.949,-386.230,-390.625,19.531,41.992
1569100376.169,14.160,-15.625,-47.852,5.859,24.414
1569100376.173,21.484,917.969,864.258,20.020,34.180
1569100376.177,23.926,763.184,728.516,45.898,51.758
1569100376.181,15.137,-95.215,-83.008,31.250,60.547
1569100376.185,9.766,-0.977,28.320,19.043,74.707
1569100376.189,8.789,819.336,815.918,24.902,68.359
1569100376.193,9.277,916.992,911.133,36.133,48.828
1569100376.197,28.320,-222.656,-142.578,43.945,17.578
1569100376.201,35.645,-755.371,-618.652,42.480,32.227
1569100376.205,10.742,289.551,314.453,30.762,51.758
1569100376.208,12.207,852.051,802.734,36.133,28.809
1569100376.212,37.109,139.160,137.207,42.969,32.715
1569100376.216,43.457,-705.078,-641.602,39.062,7.812
1569100376.220,36.621,-335.938,-290.039,36.133,24.902
1569100376.224,32.715,604.980,524.902,38.574,54.688
1569100376.228,26.855,375.977,250.977,38.574,55.176
1569100376.232,35.645,-342.285,-426.758,39.551,45.898
1569100376.236,33.691,-225.098,-293.457,38.574,23.926
1569100376.240,21.484,559.570,451.660,41.504,26.855
1569100376.244,45.898,434.082,330.566,53.711,25.391
1569100376.247,46.387,-599.121,-628.906,46.387,15.137
1569100376.251,11.719,-552.734,-607.422,14.160,7.812
1569100376.255,14.160,432.129,297.363,7.812,11.719
1569100376.259,41.016,299.805,195.801,22.949,-5.371
1569100376.263,41.504,-496.094,-583.008,12.207,-21.973
1569100376.267,27.832,-504.395,-642.578,15.137,11.230
1569100376.271,17.578,422.363,218.750,31.250,47.852
1569100376.275,19.043,907.715,675.293,28.320,26.367
1569100376.279,24.902,23.926,-126.953,35.156,19.043
1569100376.283,20.996,-690.918,-801.758,28.320,-8.789
1569100376.287,20.020,14.648,-161.133,11.230,4.883
1569100376.290,24.414,783.203,567.383,15.137,48.828
1569100376.294,30.273,292.969,110.840,30.762,27.832
1569100376.298,28.809,-631.836,-768.066,38.574,-2.930
1569100376.302,19.531,-284.180,-464.355,45.410,17.578
1569100376.306,12.695,772.461,509.277,49.316,24.902
1569100376.310,21.973,722.656,462.402,45.898,7.324
1569100376.314,35.156,-199.219,-386.230,37.109,12.207
1569100376.318,29.785,-583.008,-708.496,25.879,4.883
1569100376.322,16.602,306.641,122.070,25.879,21.484
1569100376.326,22.949,833.984,584.961,37.598,42.969
1569100376.330,33.691,-39.551,-232.910,50.293,25.391
1569100376.333,27.344,-578.613,-742.676,43.457,0.488
1569100376.337,28.320,-168.945,-344.238,33.203,-1.465
1569100376.341,36.621,97.656,-100.586,27.832,9.277
1569100376.345,31.250,-144.043,-420.410,37.109,4.395
1569100376.349,28.320,-528.809,-836.426,30.273,14.648
1569100376.353,24.902,73.730,-270.020,19.531,49.805
1569100376.357,31.250,769.043,414.551,30.273,60.547
1569100376.361,30.762,328.613,17.578,42.480,41.992
1569100376.365,10.742,-390.625,-674.805,31.250,43.457
1569100376.369,5.859,-271.973,-561.523,15.137,33.691
1569100376.372,23.438,678.711,342.285,14.648,37.109
1569100376.376,29.297,718.750,411.621,20.508,60.547
1569100376.380,21.484,-258.301,-483.887,33.691,34.180
1569100376.384,13.184,-669.434,-858.398,12.695,-11.719
1569100376.388,9.766,151.367,-86.914,0.000,1.953
1569100376.392,14.648,775.391,459.961,27.832,27.344
1569100376.396,19.531,-74.219,-315.918,35.156,12.695
1569100376.400,26.855,-872.559,-960.938,14.160,3.906
1569100376.404,26.367,90.820,-104.492,10.254,37.598
1569100376.408,36.621,-965.332,710.938,46.387,20.508
1569100376.412,29.785,502.930,234.863,51.758,5.859
1569100376.415,11.719,-430.176,-609.375,23.926,0.000
1569100376.419,13.184,-208.008,-378.906,8.301,7.812
1569100376.423,24.414,809.082,574.707,23.438,56.641
1569100376.427,36.621,698.730,470.215,48.340,62.988
1569100376.431,36.133,-383.789,-518.066,45.898,32.715
1569100376.435,30.762,-585.938,-664.062,30.762,28.320
1569100376.439,32.227,319.824,182.617,30.762,15.137
1569100376.443,33.691,730.957,533.203,35.156,17.090
1569100376.447,29.785,-75.195,-221.680,36.621,2.930
1569100376.451,26.855,-541.016,-622.070,35.156,-6.836
1569100376.454,25.391,396.973,278.320,33.691,33.203
1569100376.458,31.250,618.164,503.906,40.039,14.648
1569100376.462,22.949,-168.945,-249.023,32.227,15.137
1569100376.466,12.695,-538.574,-634.277,33.203,12.695
1569100376.470,7.812,94.727,-43.457,33.203,11.719
1569100376.474,10.254,959.473,777.344,35.156,48.828
1569100376.478,23.926,324.219,215.332,52.246,21.484
1569100376.482,24.902,-698.730,-720.215,34.180,-2.441
1569100376.486,14.160,-174.805,-251.465,5.371,31.250
1569100376.490,10.254,876.465,742.188,19.043,33.203
1569100376.494,14.160,903.809,743.164,23.926,43.945
1569100376.497,20.508,-328.613,-408.203,23.926,11.719
1569100376.501,15.625,-722.168,-746.582,24.902,-11.719
1569100376.505,18.066,544.922,412.598,21.973,51.758
1569100376.509,35.156,958.984,799.316,32.227,54.688
1569100376.513,20.508,204.590,116.699,31.250,41.992
1569100376.517,8.789,-358.887,-347.656,27.832,16.113
1569100376.521,17.090,399.414,412.598,34.180,40.039
1569100376.525,25.879,985.840,987.793,41.504,69.336
1569100376.529,33.203,86.426,154.297,64.941,26.367
1569100376.533,36.133,-546.875,-475.098,62.988,14.648
1569100376.537,45.410,-15.137,0.488,45.410,40.039
1569100376.540,53.223,714.355,671.875,51.758,56.152
1569100376.544,58.105,449.219,399.414,60.547,35.645
1569100376.548,51.758,-477.539,-456.543,56.641,2.441
1569100376.552,48.828,-219.238,-194.824,38.086,22.949
1569100376.556,51.270,657.715,650.879,54.199,49.316
1569100376.560,54.199,509.277,538.574,58.594,50.781
1569100376.564,41.016,-387.695,-304.688,46.875,20.996
1569100376.568,27.344,-436.035,-354.980,51.758,27.832
1569100376.572,30.762,398.926,423.828,54.688,28.320
1569100376.576,33.691,540.039,559.570,59.570,33.203
1569100376.579,47.852,-515.625,-470.215,54.688,-0.977
1569100376.583,42.480,-863.281,-892.090,31.738,-38.574
1569100376.587,28.809,308.594,194.336,18.066,36.133
1569100376.591,36.133,-899.902,991.699,31.250,72.754
1569100376.595,35.645,465.332,381.348,35.645,46.875
1569100376.599,35.645,-416.504,-433.594,30.273,36.621
1569100376.603,16.602,90.332,59.570,26.367,53.711
1569100376.607,11.719,957.031,874.023,29.297,64.453
1569100376.611,16.113,642.578,586.426,18.066,59.570
1569100376.615,18.066,-293.945,-271.484,14.160,57.617
1569100376.619,23.926,-357.422,-296.875,9.277,64.941
1569100376.622,32.227,472.168,480.957,18.066,62.500
1569100376.626,36.621,545.898,525.391,27.344,47.852
1569100376.630,30.273,-278.320,-277.832,10.254,38.086
1569100376.634,21.484,-440.430,-455.078,18.066,33.691
1569100376.638,19.531,345.703,278.320,23.438,41.992
1569100376.642,25.391,803.711,689.453,17.578,42.480
1569100376.646,33.203,210.938,126.465,33.691,63.477
1569100376.650,39.551,-378.418,-410.645,26.367,54.688
1569100376.654,48.828,248.047,191.895,11.230,59.570
1569100376.658,53.711,760.742,698.730,44.922,50.293
1569100376.661,53.711,206.543,190.918,54.688,23.438
1569100376.665,49.316,-516.113,-482.422,44.434,40.039
1569100376.669,28.320,-277.344,-257.324,35.645,50.781
1569100376.673,32.715,600.586,536.133,25.391,38.086
1569100376.677,53.711,268.555,220.703,43.457,15.137
1569100376.681,53.711,-822.266,-801.270,52.734,10.254
1569100376.685,48.340,-401.367,-492.676,42.480,23.438
1569100376.689,34.180,768.066,651.855,24.414,54.688
1569100376.693,32.227,985.352,922.852,31.250,85.938
1569100376.697,52.734,63.965,-3.418,48.828,45.410
1569100376.701,38.086,-387.695,-407.715,41.504,32.715
1569100376.704,12.695,496.094,430.664,37.109,49.805
1569100376.708,12.207,929.688,848.633,27.832,39.551
1569100376.712,13.184,105.957,103.516,28.320,29.785
1569100376.716,9.766,-699.707,-625.488,43.945,33.203
1569100376.720,14.648,-103.027,-84.961,31.738,20.508
1569100376.724,21.973,911.621,819.824,12.207,50.293
1569100376.728,42.480,654.297,568.848,14.648,89.844
1569100376.732,48.340,-199.707,-221.680,26.367,75.195
1569100376.736,26.855,-274.902,-275.879,20.508,42.480
1569100376.740,16.602,351.562,287.598,0.000,-2.930
1569100376.744,16.602,510.254,395.508,9.277,22.461
1569100376.747,29.297,-203.613,-285.645,18.555,52.246
1569100376.751,34.180,-256.348,-340.332,11.230,53.223
1569100376.755,33.203,491.699,363.770,2.930,27.344
1569100376.759,36.133,184.082,102.051,-15.137,11.230
1569100376.763,38.086,-635.742,-723.633,-8.789,19.043
1569100376.767,28.320,-425.293,-638.184,-4.395,59.082
1569100376.771,10.254,408.691,92.285,-14.160,41.992
1569100376.775,17.578,741.699,411.133,-9.277,-10.254
1569100376.779,26.367,82.520,-181.152,7.324,25.879
1569100376.783,20.996,-355.469,-589.844,14.160,53.223
1569100376.786,20.996,99.609,-138.184,5.371,30.762
1569100376.790,25.391,757.324,520.996,0.977,25.879
1569100376.794,40.527,627.441,435.547,14.648,52.734
1569100376.798,52.734,-189.453,-281.738,26.855,40.527
1569100376.802,35.645,-18.555,-89.355,-1.953,28.320
1569100376.806,23.438,742.188,659.668,-6.836,32.227
1569100376.810,22.461,509.766,485.352,13.184,12.695
1569100376.814,27.344,-146.973,-124.023,21.484,40.039
1569100376.818,23.926,-474.609,-416.992,4.883,31.250
1569100376.822,18.066,115.723,132.812,-23.438,4.883
1569100376.826,42.480,852.539,786.621,-11.719,43.457
1569100376.829,63.965,343.750,333.008,17.578,78.125
1569100376.833,37.109,-82.031,-13.184,11.230,83.008
1569100376.837,24.414,376.465,474.609,10.742,53.711
1569100376.841,44.434,858.398,960.449,20.508,46.387
1569100376.845,67.871,271.973,432.617,29.785,59.570
1569100376.849,66.406,-376.953,-164.062,32.715,73.730
1569100376.853,58.594,24.414,205.078,22.949,46.387
1569100376.857,52.246,391.113,557.129,6.348,-12.695
1569100376.861,48.340,72.266,258.301,11.230,12.207
1569100376.865,40.039,-267.578,-114.746,22.949,54.199
1569100376.869,30.273,28.320,126.465,8.301,46.875
1569100376.872,43.945,784.668,825.684,16.602,24.414
1569100376.876,65.918,750.977,811.523,31.250,43.457
1569100376.880,58.105,-36.133,96.191,25.391,82.031
1569100376.884,38.574,-160.645,-25.879,10.742,87.891
1569100376.888,51.270,458.008,550.293,2.930,33.691
1569100376.892,51.758,800.293,880.859,20.996,33.691
1569100376.896,51.758,83.496,233.887,26.855,60.547
1569100376.900,36.133,-606.445,-395.996,8.301,53.711
1569100376.904,10.742,-16.113,147.461,7.324,54.199
1569100376.908,9.277,571.289,673.828,23.438,25.879
1569100376.911,21.484,389.648,480.957,13.184,66.406
1569100376.915,36.621,-152.344,-31.250,-1.953,101.074
1569100376.919,17.090,-96.680,20.508,-3.418,38.086
1569100376.923,6.348,674.805,716.309,12.695,-1.953
1569100376.927,35.645,624.512,661.621,28.320,26.855
1569100376.931,35.156,-22.949,70.312,27.344,71.777
1569100376.935,14.648,54.199,175.781,16.113,93.750
1569100376.939,19.043,434.082,577.637,-5.859,38.086
1569100376.943,22.949,615.234,754.883,5.859,45.410
1569100376.947,39.551,38.086,206.543,30.762,74.219
1569100376.951,36.133,-312.500,-119.141,26.367,71.289
1569100376.954,24.414,582.520,700.195,13.672,69.336
1569100376.958,40.039,642.090,785.645,5.859,38.086
1569100376.962,41.016,-29.785,171.387,23.926,55.664
1569100376.966,49.316,-114.746,83.008,56.641,77.148
1569100376.970,46.875,428.223,604.004,42.969,45.898
1569100376.974,47.363,961.914,-942.871,39.551,22.949
1569100376.978,54.688,566.895,798.340,58.594,68.848
1569100376.982,50.781,-3.906,388.184,46.387,107.422
1569100376.986,47.852,258.789,655.273,45.410,69.336
1569100376.990,40.527,848.633,-969.238,42.969,12.695
1569100376.993,40.527,668.457,951.660,39.062,33.691
1569100376.997,46.387,-272.949,311.035,55.176,65.430
1569100377.001,53.223,-360.840,229.980,47.363,43.457
1569100377.005,59.082,689.941,926.270,28.809,36.133
1569100377.009,50.781,967.773,-941.406,32.715,57.617
1569100377.013,39.551,206.055,591.309,57.617,89.844
1569100377.017,40.527,-398.926,29.297,67.871,81.543
1569100377.021,34.668,105.469,447.266,32.715,20.020
1569100377.025,23.438,680.176,954.102,22.461,13.672
1569100377.029,26.367,273.438,570.801,51.270,60.547
1569100377.033,26.367,-145.996,185.059,42.480,85.449
1569100377.036,30.762,158.203,488.281,44.922,32.227
1569100377.040,32.227,606.934,931.152,50.293,-3.906
1569100377.044,45.898,365.234,712.891,46.875,38.574
1569100377.048,57.617,-186.523,189.941,64.453,89.844
1569100377.052,44.434,103.516,434.570,59.570,61.523
1569100377.056,50.293,556.641,875.488,58.594,-9.277
1569100377.060,46.387,236.328,615.234,65.430,1.953
1569100377.064,27.832,-89.844,280.762,66.895,77.637
1569100377.068,42.969,138.184,510.742,65.918,101.562
1569100377.072,38.574,697.266,950.195,72.266,34.668
1569100377.076,37.598,769.531,997.559,73.730,-0.977
1569100377.079,50.293,256.836,694.824,82.520,74.707
1569100377.083,46.875,49.805,533.203,81.055,93.262
1569100377.087,43.457,322.266,786.133,67.871,24.902
1569100377.091,38.574,589.355,-956.055,62.500,-17.578
1569100377.095,36.133,200.195,702.637,51.270,9.277
1569100377.099,39.062,-759.277,-280.762,50.781,4.395
1569100377.103,38.086,-487.305,-133.301,36.133,-6.348
1569100377.107,32.715,412.598,619.141,29.297,-3.906
1569100377.111,20.996,207.520,362.793,61.035,5.371
1569100377.115,30.273,-426.270,-257.812,70.801,61.035
1569100377.118,39.551,-425.781,-285.645,52.246,38.574
1569100377.122,41.504,424.805,489.746,49.805,10.742
1569100377.126,48.828,598.145,665.527,62.988,30.273
1569100377.130,41.504,-20.020,108.398,62.012,72.266
1569100377.134,35.156,-172.852,-22.949,58.594,71.777
1569100377.138,35.645,312.988,439.941,61.035,0.000
1569100377.142,37.109,761.719,850.098,48.340,-9.277
1569100377.146,38.086,350.098,460.938,70.312,39.062
1569100377.150,19.043,-70.312,69.336,79.590,64.453
1569100377.154,25.879,423.340,532.227,42.969,27.344
1569100377.158,45.410,549.805,681.641,37.109,-20.020
1569100377.161,31.738,-30.762,133.301,46.875,-1.953
1569100377.165,23.438,-220.703,-100.098,52.246,58.594
1569100377.169,26.855,136.230,211.426,44.922,47.852
1569100377.173,32.227,673.340,722.656,37.109,4.395
1569100377.177,42.969,318.359,407.715,55.664,13.672
1569100377.181,38.086,-626.953,-498.047,68.848,42.480
1569100377.185,36.133,-788.086,-720.215,62.500,36.133
1569100377.189,43.945,-180.664,-250.488,66.406,-15.625
1569100377.193,35.645,93.262,-137.207,58.594,-1.465
1569100377.197,33.203,-557.617,-690.430,57.617,34.668
1569100377.200,39.062,-932.129,-1000.000,45.898,-17.090
1569100377.204,31.738,-56.152,-389.648,41.016,-35.156
1569100377.208,27.344,642.090,234.863,39.551,-20.996
1569100377.212,33.691,388.672,69.824,46.387,30.273
1569100377.216,42.969,1.465,-214.844,78.125,56.152
1569100377.220,38.086,430.664,266.113,69.336,11.719
1569100377.224,27.344,-919.922,968.750,62.500,-11.230
1569100377.228,50.781,639.648,590.820,73.242,10.254
1569100377.232,51.270,20.020,32.715,73.730,51.270
1569100377.236,15.625,242.676,273.926,60.547,29.297
1569100377.240,24.902,735.840,761.719,42.480,-4.395
1569100377.243,36.621,780.273,796.387,39.062,21.484
1569100377.247,38.574,301.270,317.871,47.363,48.340
1569100377.251,30.762,293.457,310.059,43.457,41.016
1569100377.255,16.602,799.316,825.195,35.645,12.695
1569100377.259,22.461,732.910,799.316,46.875,-4.395
1569100377.263,38.574,120.605,211.914,49.805,19.531
1569100377.267,30.273,-230.957,-138.672,33.691,32.227
1569100377.271,9.277,311.523,343.262,42.969,4.395
1569100377.275,30.762,604.980,625.000,55.176,-7.812
1569100377.279,51.270,-344.727,-269.043,62.988,-4.883
1569100377.283,29.297,-944.824,-932.617,57.617,-6.836
1569100377.286,-3.906,-178.711,-300.781,14.648,-0.977
1569100377.290,-4.883,533.203,328.613,3.906,-13.672
1569100377.294,14.160,296.875,105.957,32.715,34.180
1569100377.298,30.273,-550.293,-675.293,54.688,53.223
1569100377.302,34.180,-490.723,-648.438,51.270,14.160
1569100377.306,29.297,363.281,106.445,32.715,-0.488
1569100377.310,30.762,412.598,127.930,37.598,12.207
1569100377.314,39.551,-200.195,-457.520,64.453,55.664
1569100377.318,29.297,-394.043,-646.484,57.129,53.711
1569100377.322,22.949,86.914,-225.586,31.738,-10.742
1569100377.325,29.297,292.480,-75.195,47.363,-26.855
1569100377.329,34.668,-80.078,-471.680,55.664,34.668
1569100377.333,30.273,-144.043,-578.125,44.922,57.129
1569100377.337,22.949,339.355,-111.328,30.273,23.438
1569100377.341,32.715,728.027,279.297,27.832,-22.949
1569100377.345,34.180,473.145,55.664,54.199,6.348
1569100377.349,36.621,79.102,-285.156,52.734,77.148
1569100377.353,31.738,380.371,47.363,49.316,73.730
1569100377.357,29.297,589.844,305.664,62.988,-15.137
1569100377.361,37.598,335.938,97.656,62.500,-20.020
1569100377.365,31.738,-69.824,-269.531,54.688,32.715
1569100377.368,30.273,-181.152,-334.961,47.852,9.766
1569100377.372,48.828,262.207,125.977,47.852,-46.387
1569100377.376,61.035,288.086,191.406,76.172,-12.695
1569100377.380,55.176,-380.859,-421.875,86.426,18.555
1569100377.384,41.504,-531.250,-590.820,59.082,-20.508
1569100377.388,44.434,208.984,88.379,50.293,-30.273
1569100377.392,73.730,611.816,462.891,59.082,-42.480
1569100377.396,77.148,-17.578,-128.906,78.613,-28.809
1569100377.400,53.223,-286.621,-424.805,78.613,-5.859
1569100377.404,31.738,546.387,375.977,65.918,-5.859
1569100377.408,40.527,-921.387,-964.844,73.730,11.230
1569100377.411,53.223,687.012,679.688,61.523,30.762
1569100377.415,51.758,40.527,54.688,70.312,41.504
1569100377.419,50.781,-80.566,-3.418,68.359,14.648
1569100377.423,59.082,186.035,244.629,55.176,-41.992
1569100377.427,54.199,445.312,422.852,65.430,-9.766
1569100377.431,38.086,393.066,319.824,58.105,65.918
1569100377.435,44.434,469.238,427.246,58.594,92.285
1569100377.439,46.875,886.719,878.906,60.547,43.457
1569100377.443,41.992,939.453,967.285,63.965,18.066
1569100377.447,44.922,327.148,430.664,61.035,59.082
1569100377.450,33.203,-31.250,98.145,52.246,49.805
1569100377.454,33.203,460.938,566.895,53.711,26.855
1569100377.458,40.527,635.254,737.305,59.082,4.883
1569100377.462,30.273,49.316,180.176,68.848,50.781
1569100377.466,17.578,-480.957,-352.539,56.152,59.082
1569100377.470,14.160,-146.484,-75.684,33.691,10.254
1569100377.474,13.672,479.492,482.910,37.109,2.930
1569100377.478,15.625,154.785,150.391,49.805,13.184
1569100377.482,10.742,-312.500,-322.754,57.617,59.082
1569100377.486,2.441,57.617,-0.977,36.621,56.641
1569100377.490,-1.953,607.910,522.949,13.672,1.465
1569100377.493,10.742,494.629,430.176,41.992,2.441
1569100377.497,22.461,-249.023,-263.184,63.477,52.734
1569100377.501,14.648,-311.523,-348.145,48.828,62.012
1569100377.505,11.230,408.203,305.664,33.203,14.648
1569100377.509,20.508,432.129,330.078,41.992,-3.418
1569100377.513,24.902,-201.660,-289.551,59.570,28.809
1569100377.517,13.672,-506.836,-605.957,43.945,61.523
1569100377.521,14.160,-290.039,-419.434,18.555,26.855
1569100377.525,27.832,201.172,-17.090,22.461,-15.625
1569100377.529,41.016,292.969,11.230,45.898,24.902
1569100377.532,31.250,42.480,-223.145,44.922,52.734
1569100377.536,13.184,272.461,38.086,22.949,22.461
1569100377.540,30.762,700.195,485.840,27.832,-15.625
1569100377.544,46.387,529.297,353.027,45.898,13.184
1569100377.548,38.574,-110.352,-237.793,59.082,33.691
1569100377.552,22.949,-1.465,-127.441,39.062,9.766
1569100377.556,17.090,385.742,275.391,24.414,-18.555
1569100377.560,29.785,25.391,-41.016,44.434,-20.508
1569100377.564,38.574,-295.410,-393.066,48.828,25.391
1569100377.568,24.414,-58.105,-209.473,33.203,48.828
1569100377.572,11.719,578.613,410.156,23.438,17.090
1569100377.575,25.391,754.883,628.906,43.457,21.484
1569100377.579,39.062,23.926,-22.461,62.012,50.781
1569100377.583,32.715,-256.836,-287.598,41.016,94.238
1569100377.587,11.719,368.652,294.922,25.391,65.918
1569100377.591,6.348,768.066,691.406,31.738,11.230
1569100377.595,28.320,275.391,266.113,47.852,38.574
1569100377.599,23.926,-334.961,-302.734,45.898,62.500
1569100377.603,20.020,-91.797,-95.215,38.574,28.320
1569100377.607,21.484,328.125,280.762,31.738,-36.133
1569100377.611,5.371,302.246,227.539,27.344,-7.324
1569100377.615,3.906,-119.629,-189.453,46.875,54.199
1569100377.618,14.160,-197.754,-263.184,49.805,37.109
1569100377.622,20.020,452.637,343.262,40.527,-11.230
1569100377.626,20.996,611.328,492.188,48.340,-5.859
1569100377.630,26.855,23.926,-64.941,55.664,49.316
1569100377.634,26.855,-131.348,-223.145,43.945,55.176
1569100377.638,22.461,86.914,0.977,40.039,21.484
1569100377.642,20.508,250.977,128.906,42.480,-4.395
1569100377.646,26.855,128.906,-52.246,56.152,33.691
1569100377.650,30.273,-271.973,-457.520,52.734,61.523
1569100377.654,25.391,94.238,-122.070,29.785,24.902
1569100377.657,29.297,358.398,149.414,42.480,-17.090
1569100377.661,43.457,-46.875,-241.699,47.852,-4.883
1569100377.665,49.316,-92.285,-340.332,61.035,57.129
1569100377.669,40.039,331.543,61.523,67.871,41.016
1569100377.673,35.645,862.305,612.793,62.500,-5.859
1569100377.677,45.410,617.188,438.477,70.801,8.301
1569100377.681,56.641,-15.137,-142.090,84.473,39.551
1569100377.685,61.523,43.457,-85.938,89.355,27.344
1569100377.689,46.387,536.133,411.133,82.031,-20.508
1569100377.693,44.922,629.883,536.133,82.031,-8.301
1569100377.697,57.129,-154.785,-180.176,97.656,41.016
1569100377.700,41.016,-459.961,-490.234,83.008,56.641
1569100377.704,36.621,447.754,321.289,70.312,20.508
1569100377.708,52.734,885.742,750.000,93.750,-5.859
1569100377.712,62.012,425.293,350.098,95.703,40.527
1569100377.716,56.641,-127.930,-155.762,100.586,61.035
1569100377.720,46.875,81.055,51.270,99.121,0.488
1569100377.724,56.641,711.426,655.762,80.566,-0.977
1569100377.728,66.895,458.496,429.199,85.449,39.062
1569100377.732,59.082,-134.766,-136.230,64.453,49.805
1569100377.736,54.199,-59.082,-56.152,56.641,32.227
1569100377.739,51.270,468.262,465.820,71.289,1.465
1569100377.743,53.223,383.301,399.414,70.801,9.277
1569100377.747,54.199,-244.629,-195.312,66.406,62.988
1569100377.751,50.293,-194.336,-178.223,59.570,55.176
1569100377.755,49.805,502.441,481.934,63.477,19.043
1569100377.759,56.152,309.082,333.984,62.988,-21.973
1569100377.763,52.734,-186.035,-160.645,57.617,27.832
1569100377.767,45.898,-11.230,-37.598,56.152,86.426
1569100377.771,28.809,529.785,491.699,38.086,44.922
1569100377.775,18.066,796.387,792.480,33.691,14.160
1569100377.779,28.320,209.961,266.602,54.199,29.785
1569100377.782,25.879,-191.895,-127.930,54.199,57.617
1569100377.786,26.855,209.473,242.188,53.711,34.180
1569100377.790,22.461,554.199,585.938,60.059,6.836
1569100377.794,14.160,300.781,348.145,55.176,29.785
1569100377.798,21.484,-421.387,-350.586,31.250,62.012
1569100377.802,18.555,-339.844,-317.871,28.809,47.363
1569100377.806,11.719,491.699,428.223,32.715,-4.883
1569100377.810,12.207,555.176,489.746,32.715,14.160
1569100377.814,19.043,151.367,109.863,47.852,89.355
1569100377.818,18.066,-86.426,-103.516,41.016,67.871
1569100377.822,9.277,416.992,393.066,25.879,29.297
1569100377.825,24.902,619.629,603.027,39.551,0.000
1569100377.829,33.691,120.605,138.672,59.082,47.852
1569100377.833,18.066,-131.348,-112.305,53.223,89.844
1569100377.837,23.926,70.312,71.777,50.781,19.531
1569100377.841,27.344,281.250,262.207,46.387,-16.602
1569100377.845,19.531,116.211,60.059,39.062,28.320
1569100377.849,23.926,-179.688,-263.184,43.457,63.477
1569100377.853,25.391,157.227,53.223,34.668,46.875
1569100377.857,22.461,474.121,374.512,37.109,-14.648
1569100377.861,23.438,223.145,146.484,41.992,14.160
1569100377.864,24.414,-208.496,-290.527,42.969,73.730
1569100377.868,26.367,-146.484,-261.719,33.203,49.316
1569100377.872,20.996,531.250,378.418,20.996,3.418
1569100377.876,23.926,352.539,242.676,44.922,-18.066
1569100377.880,37.598,-396.484,-459.961,56.152,26.855
1569100377.884,34.668,-367.676,-480.957,51.270,44.434
1569100377.888,14.160,223.145,64.453,37.109,26.855
1569100377.892,9.766,651.367,472.168,45.410,42.480
1569100377.896,23.438,181.641,28.809,60.059,54.688
