timestamps,TP9,AF7,AF8,TP10,Right AUX
1571283369.300,28.320,-189.941,31.250,15.137,28.320
1571283369.303,34.668,-218.262,-12.695,0.000,-24.902
1571283369.307,36.133,-106.934,92.285,4.883,14.160
1571283369.311,35.156,-11.230,207.520,23.926,77.637
1571283369.315,33.691,-24.902,202.148,22.949,64.941
1571283369.319,36.133,-289.062,-20.508,5.371,13.184
1571283369.323,33.691,-438.965,-129.883,2.930,8.301
1571283369.327,40.039,-513.184,-160.645,20.020,26.855
1571283369.331,49.316,-724.121,-314.941,25.879,30.273
1571283369.335,40.527,-354.980,-56.152,6.348,28.320
1571283369.339,34.180,-172.852,48.340,3.906,-0.488
1571283369.343,31.738,-250.488,10.742,26.367,12.207
1571283369.346,28.809,-109.375,147.949,33.691,66.895
1571283369.350,33.203,-11.719,197.754,17.578,31.738
1571283369.354,39.062,-205.566,32.227,15.137,-14.160
1571283369.358,41.504,-337.891,-36.621,34.668,2.930
1571283369.362,35.645,-148.926,144.043,41.016,54.199
1571283369.366,34.668,-198.242,94.238,33.203,45.410
1571283369.370,38.574,-593.262,-233.887,25.391,-18.066
1571283369.374,39.062,-922.363,-522.949,23.438,-37.109
1571283369.378,29.297,-622.070,-261.719,26.855,27.344
1571283369.382,29.297,43.945,282.227,31.738,97.168
1571283369.386,45.898,-127.441,104.004,34.668,41.016
1571283369.389,35.156,-395.508,-94.727,28.320,6.836
1571283369.393,24.414,-102.539,165.039,33.203,41.504
1571283369.397,29.785,95.215,322.266,41.992,72.266
1571283369.401,33.203,-124.512,128.418,27.344,36.621
1571283369.405,35.156,-392.090,-83.496,17.578,-10.254
1571283369.409,30.762,-173.828,124.023,29.297,44.922
1571283369.413,29.785,-45.898,262.207,39.551,116.211
1571283369.417,35.645,-553.711,-166.016,28.320,40.527
1571283369.421,34.668,-953.613,-537.598,10.742,-36.133
1571283369.425,20.996,-533.691,-160.645,11.230,17.578
1571283369.428,18.555,-11.230,272.461,34.180,96.680
1571283369.432,26.855,-72.754,193.848,23.926,75.195
1571283369.436,29.785,-211.426,64.941,4.883,31.738
1571283369.440,24.902,-210.449,67.383,15.137,22.949
1571283369.444,24.414,-175.781,130.371,28.320,79.590
1571283369.448,30.273,-166.016,146.973,21.973,87.891
1571283369.452,29.785,-291.504,19.043,5.859,15.137
1571283369.456,23.926,-272.461,31.738,11.719,14.648
1571283369.460,27.344,-297.852,47.852,31.250,66.406
1571283369.464,33.691,-721.680,-266.602,36.621,70.312
1571283369.468,24.414,-744.629,-300.293,18.066,37.109
1571283369.471,25.879,-305.664,12.695,11.230,31.738
1571283369.475,34.180,-173.340,128.906,32.227,68.359
1571283369.479,30.762,-202.637,129.395,41.016,73.242
1571283369.483,27.832,-141.113,167.480,24.902,40.527
1571283369.487,30.762,-138.184,151.367,16.113,21.973
1571283369.491,33.203,-279.297,56.641,27.832,16.602
1571283369.495,35.645,-151.855,200.195,40.527,84.961
1571283369.499,38.574,-112.305,229.004,36.133,86.426
1571283369.503,35.156,-313.477,51.758,18.066,-2.441
1571283369.507,38.086,-704.590,-279.297,16.113,-52.246
1571283369.511,28.320,-786.621,-301.758,20.508,20.020
1571283369.514,21.973,-227.539,166.016,10.742,89.844
1571283369.518,26.855,-159.668,147.949,-6.348,7.812
1571283369.522,21.973,-359.863,-8.789,-16.113,0.488
1571283369.526,20.020,-313.965,62.500,1.465,41.016
1571283369.530,15.625,-123.535,223.145,9.766,71.289
1571283369.534,17.578,-97.656,222.656,-9.766,56.152
1571283369.538,30.762,-392.578,-29.297,-10.742,-10.742
1571283369.542,28.809,-382.812,8.789,1.465,8.301
1571283369.546,28.809,-54.688,289.062,14.648,75.684
1571283369.550,42.969,-86.914,252.930,20.996,58.594
1571283369.553,45.410,-467.285,-59.570,13.672,4.395
1571283369.557,35.156,-708.496,-235.840,18.555,-17.090
1571283369.561,31.738,-550.293,-87.402,41.016,38.574
1571283369.565,35.156,-485.352,-45.898,41.992,52.246
1571283369.569,33.203,-873.535,-437.500,21.973,-28.809
1571283369.573,20.020,-743.164,-333.008,9.277,-15.625
1571283369.577,16.113,-88.867,236.816,25.879,68.848
1571283369.581,20.996,-106.445,198.730,36.133,49.805
1571283369.585,24.414,-359.375,-12.207,20.508,-8.789
1571283369.589,25.391,-311.035,27.344,12.695,-23.438
1571283369.593,27.344,-134.277,189.941,28.809,20.020
1571283369.596,25.391,-83.008,257.812,38.574,66.406
1571283369.600,23.926,-333.984,51.758,20.996,36.133
1571283369.604,25.391,-586.914,-163.574,9.766,0.000
1571283369.608,21.484,-397.949,-1.953,15.137,29.297
1571283369.612,28.809,-438.477,-23.438,30.762,54.688
1571283369.616,26.855,-734.863,-259.277,21.484,35.156
1571283369.620,20.020,-380.371,-8.301,0.977,21.484
1571283369.624,22.949,-125.977,179.688,7.324,19.531
1571283369.628,26.855,-47.852,283.691,26.367,84.961
1571283369.632,26.367,5.859,335.449,24.414,87.402
1571283369.636,18.555,-60.547,256.348,6.836,9.766
1571283369.639,24.902,-253.906,106.445,15.625,-26.367
1571283369.643,23.926,-274.414,127.930,29.785,20.508
1571283369.647,25.879,-300.293,126.465,34.180,63.965
1571283369.651,40.039,-484.375,-41.016,32.227,9.766
1571283369.655,37.109,-479.980,-52.734,24.414,-15.625
1571283369.659,30.273,-680.664,-175.781,31.250,31.250
1571283369.663,25.391,-509.766,-20.020,34.180,68.848
1571283369.667,30.762,-210.938,170.898,29.297,37.109
1571283369.671,49.316,-546.387,-118.652,35.645,-13.184
1571283369.675,39.551,-471.680,-36.133,35.156,14.648
1571283369.678,23.438,-52.246,302.246,38.574,68.848
1571283369.682,32.715,15.137,331.055,37.598,42.480
1571283369.686,43.945,-290.527,66.406,22.949,-20.020
1571283369.690,39.551,-392.578,0.000,22.949,-20.508
1571283369.694,35.645,-339.355,72.266,35.156,28.809
1571283369.698,32.715,-284.668,128.418,27.832,55.176
1571283369.702,35.156,-511.719,-89.844,12.207,-9.766
1571283369.706,37.598,-917.969,-450.684,9.277,-57.129
1571283369.710,23.926,-454.590,-33.203,20.508,2.930
1571283369.714,20.508,22.949,350.586,28.320,43.945
1571283369.718,20.020,-68.359,250.488,8.789,20.020
1571283369.721,15.137,-140.137,194.824,-7.324,6.836
1571283369.725,21.484,-48.828,292.480,16.113,23.438
1571283369.729,27.832,3.418,359.375,35.645,43.945
1571283369.733,16.113,-92.285,278.809,12.207,26.367
1571283369.737,13.184,-151.367,214.355,-2.930,4.883
1571283369.741,17.578,-198.242,182.617,9.277,22.949
1571283369.745,7.324,-224.609,187.988,17.090,70.312
1571283369.749,9.766,-525.879,-49.805,9.766,39.062
1571283369.753,11.719,-610.352,-138.672,-8.789,-17.090
1571283369.757,9.277,-144.043,214.844,-1.465,0.977
1571283369.761,17.578,-26.855,319.824,27.344,42.969
1571283369.764,19.043,0.977,349.609,26.367,77.148
1571283369.768,17.578,73.730,373.047,6.836,35.645
1571283369.772,21.484,-53.711,249.023,8.301,-20.508
1571283369.776,25.879,-126.953,219.238,26.367,8.301
1571283369.780,32.227,-172.852,206.543,40.527,50.781
1571283369.784,37.598,-312.988,77.637,35.156,9.277
1571283369.788,37.598,-413.574,-11.230,27.832,-15.625
1571283369.792,41.016,-646.484,-178.223,37.598,-5.859
1571283369.796,45.410,-776.367,-254.395,47.363,14.160
1571283369.800,43.945,-305.176,100.586,36.133,32.715
1571283369.803,44.434,-99.121,203.613,22.949,-10.742
1571283369.807,39.062,-155.273,170.898,25.391,3.906
1571283369.811,33.203,-68.359,270.996,34.180,38.574
1571283369.815,29.297,130.859,425.293,28.809,61.035
1571283369.819,35.645,-52.246,249.512,19.531,-11.719
1571283369.823,36.621,-357.910,14.160,21.973,-48.340
1571283369.827,25.391,-141.602,228.027,32.227,43.457
1571283369.831,19.043,62.012,386.230,31.738,62.012
1571283369.835,26.367,-267.090,110.352,18.555,2.930
1571283369.839,30.762,-842.773,-377.441,11.230,-25.879
1571283369.843,16.602,-696.777,-240.234,16.602,9.766
1571283369.846,7.324,-54.688,285.156,23.438,63.965
1571283369.850,20.508,-22.949,264.648,21.973,50.293
1571283369.854,29.297,-303.223,22.461,15.625,-3.906
1571283369.858,22.949,-210.938,110.840,24.902,-4.883
1571283369.862,21.973,50.293,335.938,44.434,53.223
1571283369.866,27.832,-64.941,229.980,34.668,36.621
1571283369.870,33.691,-338.379,-9.277,21.973,-20.996
1571283369.874,37.598,-271.484,45.898,34.668,-15.137
1571283369.878,39.062,-44.434,243.164,50.293,33.203
1571283369.882,47.363,-351.074,2.441,49.316,23.926
1571283369.886,50.293,-760.254,-329.590,33.691,-28.320
1571283369.889,39.062,-425.781,-66.895,29.785,-22.949
1571283369.893,40.527,-180.664,132.812,49.805,18.066
1571283369.897,46.875,-356.934,-2.441,55.176,37.598
1571283369.901,44.434,-339.844,-11.719,31.250,22.461
1571283369.905,42.969,-102.051,141.113,24.414,18.066
1571283369.909,33.691,-20.508,210.938,38.086,29.785
1571283369.913,28.320,-111.328,161.621,41.016,39.551
1571283369.917,28.320,-198.730,82.520,26.855,11.719
1571283369.921,23.926,-132.324,118.164,16.602,18.066
1571283369.925,22.461,-103.027,148.438,25.391,24.414
1571283369.928,19.043,-221.191,78.125,33.203,57.617
1571283369.932,25.391,-417.969,-81.055,23.438,41.992
1571283369.936,21.973,-423.828,-119.629,6.348,-22.949
1571283369.940,12.695,-299.316,-25.391,8.301,-5.859
1571283369.944,12.207,-558.105,-191.406,20.996,40.039
1571283369.948,8.789,-469.238,-119.141,11.230,46.387
1571283369.952,17.090,-280.273,-15.137,4.395,8.301
1571283369.956,17.090,-434.082,-143.555,7.324,-4.883
1571283369.960,10.254,-334.473,-41.504,19.531,1.953
1571283369.964,15.625,-54.199,191.406,29.785,31.738
1571283369.968,30.762,22.461,232.910,25.879,17.578
1571283369.971,33.691,-197.266,52.246,27.344,-11.230
1571283369.975,32.715,-298.340,10.254,44.922,37.598
1571283369.979,41.016,-243.164,75.684,59.082,83.984
1571283369.983,39.551,-140.625,136.230,36.621,60.547
1571283369.987,40.039,-520.508,-203.125,13.672,-31.250
1571283369.991,37.109,-821.289,-412.598,19.043,-28.809
1571283369.995,29.785,-201.172,111.328,36.133,61.523
1571283369.999,39.062,103.516,312.988,41.992,56.152
1571283370.003,47.363,-149.902,83.496,28.809,-2.441
1571283370.007,46.387,-308.594,-30.273,27.832,-7.812
1571283370.011,47.363,-104.980,161.133,45.898,56.641
1571283370.014,45.898,65.918,296.875,47.852,76.660
1571283370.018,41.504,-148.438,102.051,27.832,8.301
1571283370.022,36.133,-390.625,-80.078,20.508,-3.906
1571283370.026,29.297,-424.316,-77.148,35.645,25.391
1571283370.030,31.250,-211.914,92.773,42.969,51.758
1571283370.034,33.691,-562.500,-209.961,20.996,1.465
1571283370.038,19.531,-671.875,-312.012,0.977,-22.949
1571283370.042,12.695,-34.668,192.871,11.230,45.898
1571283370.046,18.555,53.711,255.371,28.809,62.500
1571283370.050,22.949,-87.891,133.301,20.996,39.551
1571283370.053,25.879,-100.586,104.980,8.301,-1.465
1571283370.057,15.137,-75.195,130.371,10.254,-5.859
1571283370.061,10.254,7.812,232.422,22.949,67.871
1571283370.065,17.578,-123.535,141.602,24.414,66.895
1571283370.069,19.531,-392.578,-87.891,10.742,-1.465
1571283370.073,20.996,-404.785,-90.332,17.090,18.555
1571283370.077,26.367,-456.543,-109.863,37.598,58.105
1571283370.081,18.066,-593.262,-219.727,21.484,53.711
1571283370.085,13.672,-279.785,-9.766,0.000,20.996
1571283370.089,26.367,-108.887,97.168,13.184,-5.859
1571283370.093,35.156,-165.039,79.102,38.086,9.277
1571283370.096,34.180,-111.816,138.184,39.551,36.621
1571283370.100,32.715,-28.809,168.945,21.973,15.625
1571283370.104,48.340,-227.051,-17.090,31.738,-36.621
1571283370.108,48.340,-314.941,-54.688,46.387,-2.441
1571283370.112,36.621,-85.449,148.926,41.992,63.477
1571283370.116,42.969,-187.988,60.059,34.180,38.574
1571283370.120,52.734,-574.219,-249.512,30.273,-13.184
1571283370.124,51.758,-888.184,-485.352,39.551,-16.602
1571283370.128,31.738,-603.027,-229.492,38.086,43.945
1571283370.132,26.855,-31.738,185.059,28.320,60.059
1571283370.136,41.504,-167.480,28.320,21.484,-3.418
1571283370.139,41.016,-411.133,-153.320,23.438,-34.668
1571283370.143,29.297,-133.789,100.098,38.574,24.902
1571283370.147,26.367,119.629,297.363,40.527,64.941
1571283370.151,23.926,-52.734,140.625,20.996,39.062
1571283370.155,19.043,-185.059,42.969,10.254,35.645
1571283370.159,14.648,-16.602,197.754,23.926,50.293
1571283370.163,19.531,-49.805,201.660,43.457,71.289
1571283370.167,30.762,-568.359,-234.863,34.668,9.766
1571283370.171,30.762,-903.320,-546.387,18.066,-42.969
1571283370.175,15.625,-406.250,-119.141,17.578,23.926
1571283370.178,18.066,-26.367,190.918,34.668,87.402
1571283370.182,30.762,-105.469,115.234,34.668,65.430
1571283370.186,29.297,-257.324,-26.367,15.625,-12.695
1571283370.190,22.949,-103.027,106.934,14.160,18.555
1571283370.194,24.414,112.305,299.316,33.203,77.637
1571283370.198,32.715,-28.320,185.059,35.645,49.316
1571283370.202,34.668,-181.152,46.875,24.414,3.418
1571283370.206,35.156,-237.793,-5.859,30.273,-26.367
1571283370.210,45.410,-312.500,-30.273,58.594,19.043
1571283370.214,42.969,-695.312,-307.129,60.547,45.898
1571283370.218,28.320,-790.527,-405.762,23.926,-17.578
1571283370.221,26.367,-301.758,-45.410,14.648,-1.953
1571283370.225,28.320,-114.258,117.188,33.691,50.781
1571283370.229,28.320,-100.098,146.973,35.156,65.918
1571283370.233,29.785,-41.992,186.523,18.066,65.430
1571283370.237,28.320,-257.812,-10.254,3.906,4.883
1571283370.241,24.414,-395.996,-118.652,7.812,-29.785
1571283370.245,20.996,-216.797,52.246,17.578,46.387
1571283370.249,21.484,8.789,221.680,7.812,73.730
1571283370.253,18.555,-52.734,143.555,-8.301,8.789
1571283370.257,21.484,-549.805,-233.398,6.836,-34.668
1571283370.261,30.762,-709.961,-304.688,32.227,21.973
1571283370.264,17.578,-206.543,87.402,18.066,64.453
1571283370.268,6.348,-83.008,124.023,-11.719,11.230
1571283370.272,10.254,-346.680,-77.637,-5.859,4.395
1571283370.276,11.230,-285.156,20.508,19.043,49.805
1571283370.280,12.695,104.980,340.332,25.879,86.914
1571283370.284,28.809,95.215,307.129,23.926,47.852
1571283370.288,30.762,-184.082,84.961,19.043,3.906
1571283370.292,18.555,-295.898,31.250,21.973,23.926
1571283370.296,18.555,-56.641,236.816,30.273,78.613
1571283370.300,27.344,13.672,269.043,21.484,53.223
1571283370.303,43.945,-310.547,-0.977,18.066,9.277
1571283370.307,36.133,-464.844,-92.285,20.020,29.297
1571283370.311,23.438,-312.988,52.734,32.227,49.805
1571283370.315,35.645,-122.070,183.105,36.621,60.547
1571283370.319,49.805,-612.793,-233.887,25.879,3.418
1571283370.323,38.574,-726.074,-316.406,19.531,-18.066
1571283370.327,29.297,-95.703,192.383,36.621,54.199
1571283370.331,33.691,-49.316,216.797,41.016,65.918
1571283370.335,39.551,-234.863,50.781,23.438,25.391
1571283370.339,43.945,-169.434,94.238,23.438,7.812
1571283370.343,40.527,38.086,279.785,41.504,60.547
1571283370.346,35.156,50.781,304.688,42.480,90.820
1571283370.350,40.527,-353.516,-29.297,31.250,9.766
1571283370.354,45.898,-684.082,-292.969,32.715,-41.992
1571283370.358,31.738,-452.637,-86.914,40.039,4.883
1571283370.362,27.832,-409.668,-37.109,46.387,47.852
1571283370.366,21.973,-685.059,-265.625,24.414,18.066
1571283370.370,17.090,-413.574,-98.145,6.348,-18.555
1571283370.374,25.879,-150.391,97.656,27.832,12.695
1571283370.378,18.066,13.184,258.301,43.945,84.473
1571283370.382,15.625,131.348,348.633,30.762,84.473
1571283370.386,27.344,99.121,290.527,15.137,16.602
1571283370.389,30.762,-29.297,192.871,23.926,-5.371
1571283370.393,29.785,-33.691,229.492,38.574,34.668
1571283370.397,36.133,-72.754,217.773,42.969,73.730
1571283370.401,35.156,-224.121,81.055,26.367,41.504
1571283370.405,34.180,-356.445,-41.992,16.602,-11.719
1571283370.409,24.414,-642.578,-243.652,18.555,2.930
1571283370.413,16.602,-412.109,-50.781,20.020,50.781
1571283370.417,28.320,153.809,349.609,18.066,66.895
1571283370.421,33.203,3.418,189.941,10.254,10.742
1571283370.425,20.996,-112.305,124.023,17.090,12.207
1571283370.428,20.996,258.789,449.219,29.785,96.680
1571283370.432,37.598,285.156,446.289,27.344,54.688
1571283370.436,39.062,-20.508,195.312,13.184,18.555
1571283370.440,34.180,-154.297,110.352,16.602,15.137
1571283370.444,33.691,-191.406,105.957,38.086,25.879
1571283370.448,39.062,-103.027,179.199,39.551,54.688
1571283370.452,52.246,-348.633,-47.852,23.926,-8.301
1571283370.456,52.734,-686.523,-306.152,20.020,-19.043
1571283370.460,54.688,-288.574,34.668,41.504,33.203
1571283370.464,42.969,-19.043,231.934,40.039,27.832
1571283370.468,29.297,-47.852,187.988,12.695,1.465
1571283370.471,37.598,-33.203,192.383,16.113,5.371
1571283370.475,36.621,248.047,420.410,31.250,47.852
1571283370.479,37.598,330.566,486.816,41.016,63.477
1571283370.483,45.898,97.168,296.387,35.156,22.949
1571283370.487,41.016,-24.414,197.266,18.555,-9.766
1571283370.491,33.691,-141.113,123.047,27.832,-12.695
1571283370.495,33.691,-230.469,87.891,45.898,27.344
1571283370.499,34.180,-466.309,-92.285,35.156,37.109
1571283370.503,33.203,-468.750,-131.836,14.648,0.488
1571283370.507,27.344,57.617,260.254,20.996,19.043
1571283370.511,24.414,246.582,420.898,41.016,69.824
1571283370.514,26.855,168.945,362.793,34.668,62.988
1571283370.518,19.043,41.504,251.465,10.254,23.438
1571283370.522,19.531,33.203,251.953,10.742,16.113
1571283370.526,17.090,118.164,347.168,24.902,41.992
1571283370.530,10.742,132.812,374.023,20.508,66.895
1571283370.534,20.996,185.059,392.090,5.371,39.062
1571283370.538,27.832,-47.363,196.777,3.418,2.930
1571283370.542,30.273,-379.395,-29.297,15.625,19.531
1571283370.546,24.902,-464.355,-65.918,16.602,49.316
1571283370.550,16.113,-83.984,210.449,-1.953,50.293
1571283370.553,27.344,45.410,262.207,-0.488,-11.230
1571283370.557,27.832,-105.957,155.273,18.555,-19.531
1571283370.561,20.508,76.172,327.148,33.203,58.594
1571283370.565,25.391,324.219,500.977,27.832,75.195
1571283370.569,31.250,218.262,389.648,14.648,25.879
1571283370.573,29.785,-162.598,104.492,19.043,-26.367
1571283370.577,29.785,-83.984,216.309,34.180,33.691
1571283370.581,31.250,229.004,463.867,34.668,75.684
1571283370.585,31.250,-58.594,199.219,19.043,4.395
1571283370.589,34.180,-668.945,-272.461,12.207,-7.324
1571283370.593,31.738,-516.602,-126.953,19.531,47.363
1571283370.596,31.250,121.582,354.004,31.738,77.148
1571283370.600,37.109,115.234,305.176,25.391,40.527
1571283370.604,35.156,-116.211,103.516,12.695,-1.953
1571283370.608,28.320,44.434,254.883,17.090,29.297
1571283370.612,26.367,244.141,430.176,26.367,67.383
1571283370.616,22.461,113.770,316.406,15.137,46.875
1571283370.620,22.461,-128.906,108.398,4.883,-2.441
1571283370.624,22.461,-66.406,160.156,15.625,-4.395
1571283370.628,18.555,167.969,359.375,24.902,59.570
1571283370.632,18.066,-9.766,219.238,17.578,53.711
1571283370.636,16.602,-360.352,-56.152,-2.441,10.254
1571283370.639,1.465,-255.371,37.598,-16.113,8.789
1571283370.643,-3.906,209.961,420.898,0.000,73.730
1571283370.647,13.184,27.832,279.785,18.555,93.262
1571283370.651,21.484,-499.512,-147.949,5.371,21.973
1571283370.655,11.230,-186.035,90.820,-5.859,24.902
1571283370.659,15.137,206.055,399.902,19.043,70.312
1571283370.663,31.738,205.566,402.344,38.574,86.914
1571283370.667,30.762,146.973,341.309,18.555,62.012
1571283370.671,26.855,153.320,326.172,3.906,22.949
1571283370.675,29.785,107.910,312.500,19.531,9.766
1571283370.678,35.156,-16.602,259.766,40.039,46.875
1571283370.682,36.133,-171.387,145.020,26.855,43.457
1571283370.686,30.273,-355.957,-35.645,8.301,-24.414
1571283370.690,35.645,-425.781,-96.680,23.926,-37.598
1571283370.694,34.668,-492.188,-117.676,38.574,28.320
1571283370.698,26.855,-215.820,85.449,27.344,62.988
1571283370.702,38.574,157.715,312.500,22.949,10.254
1571283370.706,38.086,35.156,200.684,28.320,-12.695
1571283370.710,27.344,64.453,253.906,38.086,38.086
1571283370.714,31.250,410.645,532.715,38.086,100.586
1571283370.718,33.691,372.559,461.426,17.578,40.527
1571283370.721,26.855,30.273,177.734,0.977,-23.438
1571283370.725,22.461,-148.926,82.520,9.766,9.277
1571283370.729,25.879,-206.543,59.082,21.973,29.785
1571283370.733,23.926,-56.152,148.926,11.719,2.930
1571283370.737,31.738,-330.566,-100.098,7.324,-51.270
1571283370.741,33.203,-688.965,-359.863,16.113,-26.367
1571283370.745,19.043,-210.938,33.203,20.508,63.477
1571283370.749,15.625,212.402,319.336,10.742,67.383
1571283370.753,27.832,50.781,148.926,5.859,0.000
1571283370.757,30.762,-20.996,100.098,18.555,-3.906
1571283370.761,21.973,302.734,378.418,35.156,65.918
1571283370.764,19.531,320.801,380.859,28.320,60.547
1571283370.768,22.949,26.855,124.023,11.719,5.371
1571283370.772,28.809,-234.375,-80.078,17.578,-18.066
1571283370.776,34.180,-252.441,-66.895,40.039,20.508
1571283370.780,31.738,-100.098,60.547,49.316,74.219
1571283370.784,41.016,-490.234,-281.250,40.527,3.418
1571283370.788,46.875,-535.156,-340.332,31.738,-29.785
1571283370.792,37.598,76.172,138.184,39.551,31.250
1571283370.796,44.922,125.000,177.734,55.664,63.477
1571283370.800,54.199,-30.273,51.758,51.758,51.758
1571283370.803,51.270,47.363,94.727,38.574,13.672
1571283370.807,44.922,247.070,258.789,42.969,28.809
1571283370.811,49.316,311.523,335.938,60.547,84.961
1571283370.815,43.945,230.957,266.602,40.527,67.383
1571283370.819,41.016,5.371,70.312,18.555,22.949
1571283370.823,41.016,-116.211,-6.836,27.344,30.762
1571283370.827,41.504,-179.199,-27.832,44.922,51.758
1571283370.831,44.434,-369.629,-172.363,49.316,54.688
1571283370.835,40.527,-125.488,-23.926,34.668,22.461
1571283370.839,39.551,72.266,93.262,32.715,-1.953
1571283370.843,32.227,99.609,134.766,43.945,38.574
1571283370.846,21.973,180.176,206.543,41.992,65.430
1571283370.850,21.484,224.121,211.426,25.879,19.531
1571283370.854,34.180,-13.672,9.277,24.414,-23.926
1571283370.858,31.250,-159.180,-70.801,35.156,6.836
1571283370.862,21.973,85.449,146.973,38.086,62.988
1571283370.866,36.621,55.176,104.492,33.691,48.340
1571283370.870,49.316,-255.371,-154.297,28.809,-1.465
1571283370.874,46.875,-578.613,-384.766,29.297,-7.324
1571283370.878,30.762,-426.270,-248.047,25.879,24.902
1571283370.882,26.855,175.293,188.965,26.367,53.223
1571283370.886,42.969,120.117,94.238,29.297,10.742
1571283370.889,42.480,-20.508,-10.254,32.715,6.836
1571283370.893,29.785,292.969,275.391,38.574,75.684
1571283370.897,30.762,440.918,400.879,46.387,90.332
1571283370.901,41.992,118.164,136.719,43.457,14.160
1571283370.905,43.945,-101.562,-19.043,39.062,-6.348
1571283370.909,31.738,176.270,225.098,42.480,66.406
1571283370.913,34.180,125.488,188.477,46.387,74.707
1571283370.917,51.270,-508.301,-335.449,40.527,-19.043
1571283370.921,53.223,-858.398,-655.762,24.902,-72.266
1571283370.925,39.551,-318.359,-207.031,27.344,0.977
1571283370.928,28.320,234.863,245.605,35.156,83.496
1571283370.932,24.414,111.328,120.117,18.555,36.621
1571283370.936,25.391,-45.898,-17.578,3.418,-7.324
1571283370.940,23.438,118.164,112.793,11.230,7.812
1571283370.944,29.297,227.051,218.262,34.668,42.480
1571283370.948,40.527,166.992,183.105,38.086,62.988
1571283370.952,41.504,59.570,83.008,14.648,18.555
1571283370.956,40.527,59.570,82.520,12.207,-7.324
1571283370.960,36.133,16.113,92.773,29.785,40.039
1571283370.964,29.785,-418.457,-214.844,23.438,55.664
1571283370.968,30.762,-483.887,-287.109,5.371,19.043
1571283370.971,28.809,-151.855,-55.664,7.324,20.020
1571283370.975,27.832,-46.387,30.762,27.832,37.109
1571283370.979,33.203,61.523,120.117,41.504,54.688
1571283370.983,33.691,215.820,227.539,32.715,49.316
1571283370.987,38.574,179.199,176.758,25.391,0.488
1571283370.991,41.504,81.055,129.395,36.133,17.090
1571283370.995,42.969,75.195,160.645,52.246,48.340
1571283370.999,44.434,111.328,179.199,42.969,26.367
1571283371.003,41.504,174.316,214.355,27.832,29.785
1571283371.007,45.898,-215.820,-86.914,40.527,4.883
1571283371.011,50.781,-511.230,-281.738,63.477,35.156
1571283371.014,33.203,-93.750,37.598,45.410,71.289
1571283371.018,26.367,144.531,163.574,13.184,20.996
1571283371.022,43.945,-94.238,-28.809,24.902,-5.371
1571283371.026,50.293,-184.082,-54.199,44.922,38.086
1571283371.030,28.320,207.520,259.277,37.598,91.309
1571283371.034,32.227,287.598,279.785,18.066,40.039
1571283371.038,41.504,13.672,60.547,20.020,-12.695
1571283371.042,30.273,83.008,156.738,37.598,34.668
1571283371.046,28.320,345.215,374.512,41.016,85.449
1571283371.050,26.855,306.641,320.312,25.391,51.270
1571283371.053,30.762,-71.777,13.672,4.883,-5.371
1571283371.057,29.297,-270.996,-108.398,6.348,4.883
1571283371.061,17.090,40.527,173.340,22.461,88.379
1571283371.065,20.020,231.934,300.293,24.414,92.285
1571283371.069,29.297,-31.738,50.293,10.254,8.301
1571283371.073,23.926,25.391,96.680,8.789,6.836
1571283371.077,27.832,324.707,352.539,35.645,56.641
1571283371.081,40.039,224.121,273.926,44.922,59.570
1571283371.085,40.039,-237.305,-89.844,30.273,27.344
1571283371.089,34.180,-136.230,-16.113,21.973,13.184
1571283371.093,37.109,259.277,293.945,41.504,46.387
1571283371.096,43.457,322.754,350.098,50.293,88.867
1571283371.100,45.410,30.273,100.586,31.738,35.645
1571283371.104,40.039,-231.445,-111.328,23.926,-12.207
1571283371.108,28.809,-70.801,33.691,30.762,3.418
1571283371.112,35.156,-52.734,64.453,47.852,41.992
1571283371.116,42.480,-307.617,-141.602,39.551,32.227
1571283371.120,35.645,-97.168,-14.648,20.508,-15.137
1571283371.124,40.039,137.695,145.508,40.527,-24.414
1571283371.128,39.551,154.297,173.340,51.758,22.461
1571283371.132,35.645,185.547,190.430,37.109,29.297
1571283371.136,43.457,241.211,205.566,25.879,-3.418
1571283371.139,45.410,8.301,35.645,37.109,-19.043
1571283371.143,35.645,-53.711,28.320,44.434,17.578
1571283371.147,34.180,13.184,77.148,34.180,35.645
1571283371.151,36.133,-120.117,-53.223,22.461,0.488
1571283371.155,30.762,-142.090,-67.871,12.207,4.395
1571283371.159,28.809,-379.395,-228.516,20.508,12.695
1571283371.163,30.273,-173.340,-54.688,24.902,55.664
1571283371.167,38.574,279.297,247.559,9.766,29.297
1571283371.171,43.945,103.027,78.125,8.789,-27.344
1571283371.175,41.992,124.023,139.160,25.879,28.320
1571283371.178,17.090,419.434,396.484,31.250,78.125
1571283371.182,10.742,439.941,399.902,20.508,53.711
1571283371.186,33.203,125.977,141.113,18.555,-4.883
1571283371.190,26.367,7.324,75.195,23.926,-4.883
1571283371.194,24.902,50.781,138.672,35.645,46.387
1571283371.198,25.391,6.836,102.051,35.645,62.500
1571283371.202,27.344,-348.633,-203.125,31.250,0.488
1571283371.206,26.367,-497.559,-315.430,32.715,-17.090
1571283371.210,19.531,89.355,161.621,47.852,53.711
1571283371.214,34.668,277.832,282.227,60.547,34.180
1571283371.218,39.062,-47.363,12.695,39.551,2.441
1571283371.221,34.180,-75.684,0.977,25.391,24.414
1571283371.225,30.762,214.844,237.305,40.039,26.367
1571283371.229,38.574,302.734,316.895,50.781,56.641
1571283371.233,45.410,119.629,160.156,40.039,29.297
1571283371.237,37.109,-1.953,43.457,23.926,-12.695
1571283371.241,31.250,-3.418,49.805,31.250,16.113
1571283371.245,32.227,-44.922,28.320,47.852,51.758
1571283371.249,43.945,-496.582,-343.262,34.180,7.324
1571283371.253,39.062,-807.617,-611.816,6.836,-45.410
1571283371.257,23.438,-197.266,-138.672,12.207,-1.953
1571283371.261,22.461,143.066,120.117,23.926,37.598
1571283371.264,24.902,96.680,73.730,16.602,30.762
1571283371.268,27.832,145.508,93.262,7.324,-3.906
1571283371.272,34.668,195.801,131.348,12.695,-10.254
1571283371.276,35.645,188.477,160.645,35.645,31.738
1571283371.280,23.438,195.801,186.523,36.621,63.965
1571283371.284,21.973,135.254,113.770,19.531,-2.441
1571283371.288,31.738,-61.035,-40.527,20.508,-20.508
1571283371.292,33.203,-308.105,-198.730,34.668,20.020
1571283371.296,27.344,-457.520,-297.363,32.227,40.039
1571283371.300,25.391,-116.699,-58.594,15.625,25.879
1571283371.303,34.180,85.449,55.664,16.602,-23.926
1571283371.307,35.645,-65.430,-46.875,32.715,-20.020
1571283371.311,39.062,65.918,93.262,52.246,53.223
1571283371.315,35.645,365.723,310.059,37.109,67.383
1571283371.319,32.715,270.508,200.195,13.672,6.348
1571283371.323,38.086,138.672,125.000,28.320,11.719
1571283371.327,47.363,257.324,264.648,56.152,59.570
1571283371.331,46.387,334.961,326.660,53.711,45.898
1571283371.335,45.410,-31.250,17.090,34.668,-31.738
1571283371.339,52.246,-650.391,-460.449,38.086,-57.129
1571283371.343,41.504,-510.742,-326.172,44.434,4.883
1571283371.346,34.668,151.367,177.246,41.992,53.223
1571283371.350,39.551,205.566,180.664,28.809,26.367
1571283371.354,43.457,-17.578,-2.441,22.949,-17.090
1571283371.358,36.621,196.289,201.172,34.180,27.832
1571283371.362,37.109,441.406,416.504,45.898,83.984
1571283371.366,45.410,182.129,202.637,38.086,52.734
1571283371.370,37.109,-80.566,-20.508,18.555,-8.301
1571283371.374,26.855,53.711,94.727,24.902,-6.348
1571283371.378,23.926,268.066,280.273,41.504,44.922
1571283371.382,33.203,-66.406,15.625,34.180,37.109
1571283371.386,30.273,-632.812,-445.801,10.254,-46.875
1571283371.389,15.137,-364.746,-233.887,6.836,-53.223
1571283371.393,19.531,146.484,185.547,33.691,38.574
1571283371.397,31.250,145.020,176.270,45.410,49.805
1571283371.401,30.762,-36.621,1.465,22.949,-15.625
1571283371.405,20.996,25.391,40.039,7.324,-27.344
1571283371.409,26.855,178.223,188.965,29.297,29.297
1571283371.413,39.551,82.031,131.836,44.922,35.645
1571283371.417,37.109,5.371,59.570,25.879,4.395
1571283371.421,41.992,-34.180,9.766,23.926,-5.371
1571283371.425,38.574,-88.379,-10.742,36.133,30.762
1571283371.428,29.785,-79.590,8.789,37.109,58.594
1571283371.432,29.785,-253.906,-149.414,24.902,10.742
1571283371.436,36.133,-354.004,-240.723,17.090,-21.484
1571283371.440,33.691,-189.453,-105.469,20.996,-9.277
1571283371.444,27.832,-319.336,-181.152,25.391,31.738
1571283371.448,27.832,-214.844,-98.145,20.508,56.641
1571283371.452,34.180,156.250,145.020,23.438,14.648
1571283371.456,31.250,148.438,130.859,22.949,28.320
1571283371.460,24.414,164.551,172.363,27.344,66.406
1571283371.464,21.484,270.020,257.324,31.250,48.340
1571283371.468,20.508,213.379,195.312,15.137,6.348
1571283371.471,23.438,16.602,50.293,11.230,-1.953
1571283371.475,18.555,-74.707,23.438,21.484,51.270
1571283371.479,24.414,-21.973,88.379,32.715,96.191
1571283371.483,38.086,-49.316,41.992,26.855,46.387
1571283371.487,36.621,-395.020,-260.254,18.066,-24.902
1571283371.491,22.461,-583.496,-390.137,17.578,-3.418
1571283371.495,13.672,-13.184,67.383,18.066,70.801
1571283371.499,20.508,309.082,286.133,22.949,57.129
1571283371.503,30.762,79.590,87.891,19.531,4.395
1571283371.507,29.785,16.602,53.711,23.438,3.906
1571283371.511,25.879,270.508,278.809,42.969,56.152
1571283371.514,31.738,251.953,259.766,39.551,43.457
1571283371.518,41.992,-86.426,-26.367,27.344,-26.367
1571283371.522,35.645,-258.789,-147.949,29.297,-11.230
1571283371.526,30.273,-170.410,-52.246,41.992,48.340
1571283371.530,37.598,-109.375,-4.883,52.246,58.105
1571283371.534,45.898,-258.789,-151.855,45.410,15.625
1571283371.538,33.691,-247.559,-159.668,27.832,12.695
1571283371.542,18.066,137.207,143.555,27.344,52.734
1571283371.546,23.926,275.391,255.859,32.227,85.449
1571283371.550,32.715,-303.711,-200.684,12.695,18.066
1571283371.553,33.203,-418.457,-291.504,0.000,-23.926
1571283371.557,29.297,91.797,114.746,18.066,27.832
1571283371.561,27.832,111.328,129.883,29.785,43.945
1571283371.565,20.508,24.414,50.781,8.789,25.879
1571283371.569,20.508,-51.758,-18.066,-3.906,25.879
1571283371.573,16.113,-58.594,-8.789,8.789,27.832
1571283371.577,15.625,-54.199,21.484,32.227,57.617
1571283371.581,18.555,-354.980,-211.914,22.949,43.457
1571283371.585,8.301,-197.266,-124.023,-7.324,-12.695
1571283371.589,7.812,83.496,78.125,-4.395,3.418
1571283371.593,4.395,82.031,104.492,8.789,50.781
1571283371.596,9.766,123.535,151.855,17.578,64.453
1571283371.600,20.508,231.934,214.844,11.719,33.691
1571283371.604,24.902,130.859,126.465,8.301,3.906
1571283371.608,20.020,93.750,137.695,16.602,47.852
1571283371.612,22.461,247.559,283.203,23.926,94.727
1571283371.616,37.598,81.055,126.953,24.902,37.109
1571283371.620,43.945,-319.824,-207.520,19.531,-33.203
1571283371.624,34.180,-694.824,-479.492,27.832,-29.297
1571283371.628,21.973,-422.852,-242.676,32.715,58.594
1571283371.632,25.391,169.434,174.805,21.484,56.641
1571283371.636,35.645,18.555,8.789,17.578,-23.926
1571283371.639,33.203,-108.887,-63.965,25.391,-11.230
1571283371.643,29.297,238.770,248.535,39.062,52.246
1571283371.647,33.203,351.562,346.680,41.016,78.613
1571283371.651,38.086,-44.922,19.043,29.297,18.555
1571283371.655,34.668,-108.398,-31.250,18.555,1.953
1571283371.659,30.762,157.715,192.871,25.391,33.691
1571283371.663,30.762,127.441,180.664,29.297,56.152
1571283371.667,39.062,-280.762,-149.902,19.043,17.090
1571283371.671,42.969,-689.941,-489.258,7.812,-71.289
1571283371.675,29.297,-264.648,-139.648,8.789,-21.484
1571283371.678,34.668,305.176,311.523,23.438,79.590
1571283371.682,32.715,271.973,261.719,14.160,65.430
1571283371.686,23.926,38.086,54.688,8.301,-10.254
1571283371.690,24.414,115.723,120.605,18.066,-18.066
1571283371.694,22.461,325.684,316.895,31.250,62.500
1571283371.698,23.438,217.285,233.398,28.320,49.316
1571283371.702,25.391,0.488,48.828,20.508,-21.484
1571283371.706,22.949,-31.738,46.387,25.391,4.395
1571283371.710,19.531,52.734,146.484,34.668,72.266
1571283371.714,33.691,-295.410,-123.535,42.480,55.664
1571283371.718,45.410,-406.250,-227.051,31.738,13.672
1571283371.721,43.945,55.664,106.445,25.879,-1.953
1571283371.725,40.039,187.500,216.309,41.992,19.043
1571283371.729,36.133,188.477,236.816,46.387,55.176
1571283371.733,42.969,241.699,258.789,30.762,14.648
1571283371.737,50.293,250.977,248.047,26.855,-16.113
1571283371.741,48.340,141.113,181.641,37.598,2.441
1571283371.745,48.340,101.562,177.734,52.734,45.898
1571283371.749,46.387,291.992,314.453,37.109,54.688
1571283371.753,44.922,217.285,217.285,21.973,-17.090
1571283371.757,54.688,-173.828,-73.242,44.922,-29.297
1571283371.761,51.270,-469.238,-266.113,50.293,22.949
1571283371.764,27.832,-150.879,-27.832,17.578,48.340
1571283371.768,32.227,218.262,216.797,7.324,30.273
1571283371.772,37.598,227.051,221.680,25.391,27.832
1571283371.776,23.926,289.551,292.480,29.297,54.688
1571283371.780,28.320,451.660,415.527,19.531,59.570
1571283371.784,40.039,378.906,343.750,13.672,23.438
1571283371.788,35.156,170.898,186.523,19.043,4.883
1571283371.792,23.438,214.355,252.441,34.180,36.133
1571283371.796,10.254,445.801,451.660,26.855,88.867
1571283371.800,15.625,373.047,369.629,10.742,51.270
1571283371.803,31.738,-25.391,45.898,15.625,-11.230
1571283371.807,32.227,-189.941,-47.363,27.832,11.230
1571283371.811,25.879,5.371,125.977,39.062,52.734
1571283371.815,34.180,192.383,250.488,37.109,59.570
1571283371.819,45.410,-296.387,-154.297,22.949,19.531
1571283371.823,30.762,-343.750,-185.059,13.184,12.207
1571283371.827,18.066,286.133,302.246,24.902,58.105
1571283371.831,31.738,302.734,296.875,33.203,60.059
1571283371.835,44.434,52.734,76.660,21.484,0.977
1571283371.839,45.898,60.059,77.637,24.902,-30.762
1571283371.843,52.246,299.805,296.875,47.363,36.133
1571283371.846,56.641,359.863,353.027,55.176,84.473
1571283371.850,52.734,16.113,61.523,37.598,22.949
1571283371.854,40.527,-205.078,-112.793,19.531,-7.812
1571283371.858,38.086,-128.906,-34.668,34.180,0.000
1571283371.862,44.434,-160.156,-42.480,47.852,29.785
1571283371.866,41.016,-346.191,-196.289,26.367,29.297
1571283371.870,36.133,-114.746,-62.500,15.625,-30.273
1571283371.874,41.504,41.016,50.293,35.645,-35.645
1571283371.878,35.156,51.270,93.262,48.828,37.109
1571283371.882,23.926,250.977,238.770,33.203,51.270
1571283371.886,25.879,275.879,210.938,14.160,-17.578
1571283371.889,21.973,236.328,188.477,16.602,-13.184
1571283371.893,18.555,297.852,285.645,36.133,59.570
1571283371.897,25.391,248.047,261.719,35.156,83.984
1571283371.901,30.273,57.129,94.727,14.648,52.246
1571283371.905,33.203,-20.020,26.367,19.043,20.020
1571283371.909,36.133,-295.898,-165.527,31.738,19.531
1571283371.913,23.438,-180.176,-56.641,23.926,66.406
1571283371.917,18.066,280.762,256.348,10.254,38.574
1571283371.921,30.762,104.004,76.660,14.160,-19.531
1571283371.925,31.738,71.289,74.707,29.785,17.578
1571283371.928,26.855,344.727,311.523,36.621,76.660
1571283371.932,34.180,290.039,259.277,33.691,58.594
1571283371.936,38.086,109.863,105.469,25.879,21.973
1571283371.940,37.109,112.793,122.070,32.715,23.438
1571283371.944,37.598,190.430,207.520,45.410,67.871
1571283371.948,40.527,57.129,89.355,39.551,54.199
1571283371.952,42.480,-170.898,-118.164,23.438,-13.672
1571283371.956,41.504,-123.535,-79.102,29.297,-13.184
1571283371.960,36.621,165.039,153.809,46.875,28.320
1571283371.964,31.738,417.480,353.027,35.156,72.754
1571283371.968,48.828,37.598,44.434,25.879,48.828
1571283371.971,53.223,-470.703,-348.633,29.297,-5.859
1571283371.975,38.574,49.805,80.078,37.109,51.270
1571283371.979,33.203,398.926,335.938,38.086,82.520
1571283371.983,28.320,132.812,94.727,16.602,11.719
1571283371.987,27.832,-125.000,-114.258,10.742,-37.598
1571283371.991,28.809,-114.258,-77.637,30.273,11.719
1571283371.995,30.273,61.035,77.637,43.945,67.871
1571283371.999,33.203,-236.328,-175.293,26.367,31.738
1571283372.003,25.879,-358.887,-289.062,-3.418,0.488
1571283372.007,22.461,213.379,159.180,6.836,29.297
1571283372.011,31.250,322.266,250.977,34.180,40.039
1571283372.014,34.668,206.055,166.504,35.645,39.062
1571283372.018,34.180,311.523,241.211,24.902,37.598
1571283372.022,35.645,388.184,295.898,26.367,28.809
1571283372.026,32.715,335.449,280.762,40.527,56.152
1571283372.030,34.668,265.137,241.699,42.480,57.617
1571283372.034,39.062,207.031,182.129,28.809,7.812
1571283372.038,38.574,115.723,125.488,27.344,35.156
1571283372.042,42.480,-103.516,-9.277,44.434,69.824
1571283372.046,42.480,-386.719,-223.145,49.805,40.527
1571283372.050,35.156,-90.332,-15.625,27.832,30.762
1571283372.053,41.016,269.531,229.004,24.414,32.227
1571283372.057,43.945,135.254,123.047,39.062,8.301
1571283372.061,40.039,93.262,122.559,48.340,51.270
1571283372.065,44.922,282.715,255.371,41.016,51.758
1571283372.069,53.223,184.082,138.184,28.320,-21.484
1571283372.073,48.340,56.641,56.152,32.227,-3.906
1571283372.077,44.922,220.703,218.750,44.434,67.383
1571283372.081,44.922,332.031,302.246,42.969,67.383
1571283372.085,47.852,28.809,40.039,32.715,3.906
1571283372.089,51.270,-549.316,-406.250,29.297,-22.461
1571283372.093,43.945,-520.508,-362.793,37.109,0.488
1571283372.096,32.715,133.301,132.324,30.273,54.688
1571283372.100,39.551,82.520,51.758,23.926,23.926
1571283372.104,35.645,-185.059,-165.527,19.531,-28.809
1571283372.108,21.973,156.738,129.395,24.414,30.762
1571283372.112,29.297,413.086,329.590,42.480,69.336
1571283372.116,36.133,234.375,170.898,36.133,35.645
1571283372.120,39.062,4.883,-17.090,28.809,-4.395
1571283372.124,37.598,133.789,104.492,42.480,11.719
1571283372.128,34.180,373.047,314.941,57.129,69.336
1571283372.132,41.992,-57.617,-34.180,51.270,19.043
1571283372.136,33.691,-611.328,-476.074,31.738,-42.969
1571283372.139,16.602,-209.473,-159.180,29.297,-2.441
1571283372.143,18.066,309.570,243.164,49.805,74.707
1571283372.147,39.551,180.176,124.512,59.082,37.598
1571283372.151,46.875,-40.527,-66.406,34.668,-31.250
1571283372.155,40.039,136.230,83.984,17.090,3.906
1571283372.159,47.363,183.105,164.062,49.316,76.172
1571283372.163,37.598,113.770,133.789,50.293,88.867
1571283372.167,25.879,129.883,121.582,16.602,26.855
1571283372.171,32.715,220.703,172.852,17.578,22.949
1571283372.175,36.133,304.199,244.629,39.551,51.758
1571283372.178,36.621,131.348,116.211,43.457,57.617
1571283372.182,34.668,-59.570,-33.203,25.879,68.359
1571283372.186,27.832,-33.203,-24.902,10.254,52.734
1571283372.190,18.066,98.633,76.172,16.113,28.320
1571283372.194,22.949,-160.156,-91.797,28.320,81.543
1571283372.198,23.438,-234.863,-155.762,11.719,60.547
1571283372.202,29.297,66.406,25.879,5.371,-6.348
1571283372.206,24.414,55.664,14.160,8.789,11.719
1571283372.210,15.137,135.742,113.281,17.090,75.195
1571283372.214,22.461,206.055,167.969,23.438,78.613
1571283372.218,33.203,124.512,72.266,12.695,24.902
1571283372.221,41.992,91.309,44.434,22.949,20.508
1571283372.225,38.086,-30.762,-22.949,48.340,46.387
1571283372.229,23.926,-74.219,-41.016,41.504,64.941
1571283372.233,23.926,-17.578,-20.996,25.879,28.320
1571283372.237,40.527,-230.469,-212.402,30.762,-22.461
1571283372.241,43.945,-572.266,-453.125,43.457,-18.555
1571283372.245,18.066,-81.055,-46.875,40.039,52.734
1571283372.249,18.066,276.855,187.012,28.809,23.438
1571283372.253,31.738,42.969,-24.414,17.090,-30.273
1571283372.257,35.645,95.215,37.598,29.785,3.418
1571283372.261,39.551,387.695,282.227,49.316,51.758
1571283372.264,43.457,420.410,304.199,47.363,47.363
1571283372.268,47.852,67.871,18.066,35.645,-16.113
1571283372.272,42.969,-160.645,-136.719,32.715,-9.277
1571283372.276,38.086,-83.984,-52.246,45.410,33.691
1571283372.280,46.387,-32.227,-19.043,46.875,44.434
1571283372.284,49.805,-372.070,-297.363,28.320,22.461
1571283372.288,37.598,-309.082,-248.047,15.625,21.973
1571283372.292,31.738,309.570,239.258,22.949,52.246
1571283372.296,36.133,369.141,284.180,28.809,62.500
1571283372.300,38.086,187.012,133.301,17.578,25.879
1571283372.303,37.598,247.070,177.246,13.672,7.324
1571283372.307,34.180,395.020,316.895,23.926,40.527
1571283372.311,24.902,385.254,336.914,30.273,76.172
1571283372.315,22.461,268.066,235.840,21.484,46.387
1571283372.319,30.762,-41.016,-27.344,16.113,-17.578
1571283372.323,23.926,-103.516,-57.617,17.090,-5.859
1571283372.327,28.320,-142.578,-65.918,33.691,20.508
1571283372.331,28.809,-437.500,-287.598,29.297,9.277
1571283372.335,13.672,-118.164,-59.082,5.371,-1.953
1571283372.339,19.531,250.000,202.148,14.648,10.742
1571283372.343,24.902,274.414,229.980,30.762,52.246
1571283372.346,28.809,295.410,245.605,33.691,68.359
1571283372.350,38.574,445.312,344.727,26.367,57.617
1571283372.354,45.898,354.004,262.207,25.391,13.184
1571283372.358,33.691,162.598,134.766,39.551,5.859
1571283372.362,33.691,240.234,218.750,47.852,59.570
1571283372.366,42.969,130.371,121.094,33.203,32.227
1571283372.370,35.645,-107.910,-63.965,22.949,6.348
1571283372.374,33.203,-418.457,-276.855,28.320,2.441
1571283372.378,20.020,-310.547,-171.387,26.367,23.926
1571283372.382,18.555,167.969,175.781,23.438,41.504
1571283372.386,32.715,50.293,41.016,15.137,1.465
1571283372.389,32.715,40.527,36.621,16.602,-7.324
1571283372.393,30.273,351.074,299.316,30.762,36.133
1571283372.397,31.250,541.504,442.871,28.320,58.594
1571283372.401,36.621,349.609,279.297,15.137,24.902
1571283372.405,29.297,225.586,198.242,9.766,23.438
1571283372.409,24.414,356.934,321.777,26.855,37.109
1571283372.413,40.039,214.355,210.938,44.434,28.809
1571283372.417,46.387,-218.750,-135.254,28.320,0.000
1571283372.421,39.551,-472.656,-336.914,14.648,-25.391
1571283372.425,28.320,-20.020,25.391,24.414,6.836
1571283372.428,26.855,426.758,373.047,33.203,57.129
1571283372.432,33.691,352.539,303.711,28.320,51.270
1571283372.436,36.133,246.094,211.426,20.020,23.926
1571283372.440,27.832,288.086,251.953,25.879,32.227
1571283372.444,23.926,387.207,347.168,40.527,76.660
1571283372.448,30.762,336.914,298.828,36.621,53.711
1571283372.452,37.109,217.285,188.965,22.461,15.625
1571283372.456,32.715,284.668,249.512,20.996,13.672
1571283372.460,35.156,234.375,239.746,37.598,42.969
1571283372.464,41.016,-228.516,-106.445,37.109,52.734
1571283372.468,31.250,-432.129,-286.621,10.742,-14.648
1571283372.471,27.832,20.508,46.875,15.625,-20.508
1571283372.475,25.391,279.785,259.766,32.715,51.758
1571283372.479,20.508,257.324,245.605,28.320,82.031
1571283372.483,28.320,165.527,143.066,20.508,18.066
1571283372.487,37.598,187.500,144.043,21.973,-10.742
1571283372.491,36.133,263.184,229.004,32.227,40.039
1571283372.495,35.645,235.352,228.027,35.156,81.055
1571283372.499,41.504,120.605,125.977,25.391,35.156
1571283372.503,40.039,125.977,112.305,20.508,-16.113
1571283372.507,41.016,-9.766,29.297,33.203,31.738
1571283372.511,40.527,-275.879,-151.367,37.598,81.055
1571283372.514,31.738,-27.344,3.906,19.531,41.992
1571283372.518,32.227,229.004,146.973,11.230,2.930
1571283372.522,33.203,174.805,104.004,15.137,16.113
1571283372.526,25.391,320.801,253.418,23.926,89.844
1571283372.530,26.855,457.520,348.633,29.297,75.195
1571283372.534,39.551,285.156,184.570,22.949,11.719
1571283372.538,41.016,112.305,57.129,22.949,16.602
1571283372.542,33.203,184.570,142.090,23.926,56.152
1571283372.546,35.156,368.652,292.480,28.809,79.102
1571283372.550,47.363,278.809,206.055,31.250,41.504
1571283372.553,48.828,-5.859,-7.812,31.738,30.762
1571283372.557,36.133,-119.629,-72.754,44.922,47.363
1571283372.561,27.832,-11.230,22.949,54.688,84.473
1571283372.565,32.227,-15.625,-5.859,40.527,52.734
1571283372.569,44.922,-455.078,-377.441,25.391,-9.766
1571283372.573,35.645,-435.059,-356.445,30.273,-9.277
1571283372.577,27.832,211.914,150.879,41.992,50.781
1571283372.581,25.879,299.316,201.660,33.203,70.801
1571283372.585,24.902,114.746,32.227,17.090,22.949
1571283372.589,25.879,201.660,95.215,20.996,2.930
1571283372.593,21.973,418.457,289.551,40.039,60.547
1571283372.596,26.855,339.844,241.699,46.387,73.242
1571283372.600,32.715,-20.508,-40.527,30.762,18.555
1571283372.604,20.508,-155.273,-133.789,20.020,16.113
1571283372.608,9.766,-4.395,1.465,28.809,53.711
1571283372.612,16.113,-96.680,-72.266,36.133,68.359
1571283372.616,9.277,-416.992,-351.074,7.812,4.883
1571283372.620,0.977,-175.781,-192.871,-4.395,-40.039
1571283372.624,9.277,192.871,90.820,18.066,-8.789
1571283372.628,13.672,209.961,117.676,28.320,30.273
1571283372.632,9.277,220.703,129.883,4.395,33.691
1571283372.636,17.578,319.336,192.383,-1.953,11.230
1571283372.639,28.809,322.754,208.496,25.391,0.488
1571283372.643,28.320,213.867,168.945,36.133,41.992
1571283372.647,25.879,80.566,75.684,27.344,56.152
1571283372.651,33.203,-98.633,-98.633,18.555,-8.301
1571283372.655,38.574,-92.773,-101.562,24.414,-16.602
1571283372.659,36.133,-215.820,-169.434,36.621,33.203
1571283372.663,35.645,-119.141,-83.008,32.227,70.312
1571283372.667,41.992,160.645,98.145,24.414,22.461
1571283372.671,43.945,58.594,-2.441,25.879,-21.973
1571283372.675,36.133,142.090,86.426,34.180,15.137
1571283372.678,22.461,462.891,353.516,34.668,72.754
1571283372.682,22.949,575.195,425.293,23.926,65.430
1571283372.686,28.320,313.965,203.613,19.531,8.789
1571283372.690,25.879,233.887,169.434,31.738,17.578
1571283372.694,18.555,328.125,285.645,39.062,93.262
1571283372.698,26.367,263.672,237.793,35.645,89.844
1571283372.702,40.527,-169.434,-130.859,31.738,-15.137
1571283372.706,26.367,-474.609,-354.980,27.832,-33.691
1571283372.710,11.719,38.086,62.988,39.062,36.621
1571283372.714,18.555,381.836,289.551,37.598,26.855
1571283372.718,26.855,213.379,129.395,21.973,-13.672
1571283372.721,21.484,95.703,50.293,18.066,2.441
1571283372.725,11.719,289.551,224.121,24.902,39.551
1571283372.729,20.020,431.152,337.402,34.668,48.340
1571283372.733,29.785,239.746,168.945,23.438,2.930
1571283372.737,22.461,189.453,130.371,8.789,-1.465
1571283372.741,17.090,209.473,170.898,20.020,35.645
1571283372.745,26.367,127.930,127.930,33.691,60.059
1571283372.749,30.762,-227.539,-147.461,17.578,48.340
1571283372.753,25.879,-324.219,-248.535,1.465,-5.371
1571283372.757,24.414,239.746,181.152,12.695,12.695
1571283372.761,34.180,361.816,277.344,40.039,42.480
1571283372.764,42.480,203.125,145.508,40.527,16.602
1571283372.768,35.645,251.953,172.852,25.391,-10.742
1571283372.772,34.668,304.688,220.703,37.109,-22.949
1571283372.776,46.387,318.848,270.996,64.453,40.527
1571283372.780,53.711,158.691,155.762,64.941,50.781
1571283372.784,42.969,133.301,109.863,37.598,-6.348
1571283372.788,40.039,66.406,54.688,39.062,-21.484
1571283372.792,41.504,-151.367,-74.707,56.641,23.926
1571283372.796,25.391,-284.668,-157.227,43.945,53.223
1571283372.800,15.137,-20.996,4.395,20.020,11.230
1571283372.803,20.996,263.672,178.223,21.484,-16.113
1571283372.807,20.020,246.582,173.828,33.691,6.836
1571283372.811,22.949,322.754,259.766,46.387,60.547
1571283372.815,31.250,431.641,332.031,43.457,36.133
1571283372.819,31.250,358.398,258.789,20.508,0.000
1571283372.823,24.902,185.547,143.555,29.297,-3.906
1571283372.827,16.602,223.145,201.660,43.457,34.668
1571283372.831,13.184,372.070,312.012,31.738,58.105
1571283372.835,21.484,184.570,138.184,23.438,19.043
1571283372.839,36.621,-375.488,-288.086,32.227,0.488
1571283372.843,32.227,-392.578,-273.438,43.945,19.531
1571283372.846,17.578,178.711,154.785,31.250,32.715
1571283372.850,27.344,242.188,167.480,19.531,18.066
1571283372.854,39.551,113.770,58.105,19.531,4.883
1571283372.858,25.391,278.809,203.613,22.949,23.926
1571283372.862,21.484,460.449,350.586,24.902,54.199
1571283372.866,38.086,297.852,208.496,17.090,31.738
1571283372.870,38.574,125.000,67.871,12.695,10.742
1571283372.874,29.297,172.852,114.746,24.902,-3.418
1571283372.878,38.574,290.527,223.633,47.363,26.367
1571283372.882,57.617,-55.176,-48.340,49.316,9.766
1571283372.886,50.781,-461.914,-376.953,29.297,-37.598
1571283372.889,27.832,-118.164,-111.816,22.949,-24.414
1571283372.893,16.602,164.062,110.840,33.691,40.527
1571283372.897,15.625,37.109,0.977,31.250,50.781
1571283372.901,20.508,-104.004,-143.066,20.508,-19.531
1571283372.905,18.555,52.246,-25.879,22.461,-14.648
1571283372.909,18.066,299.805,193.359,33.203,46.387
1571283372.913,22.949,333.008,230.957,35.156,63.965
1571283372.917,15.137,240.234,145.020,11.230,24.414
1571283372.921,4.883,220.215,112.793,1.465,-17.578
1571283372.925,12.207,288.086,187.500,24.414,25.879
1571283372.928,14.160,219.727,159.668,33.203,85.938
1571283372.932,15.625,-82.031,-91.797,20.508,30.273
1571283372.936,20.996,-156.738,-167.480,10.742,-21.484
1571283372.940,21.484,133.301,78.125,20.996,36.133
1571283372.944,31.738,-87.891,-70.801,43.945,73.730
1571283372.948,21.973,-309.570,-250.977,22.461,34.668
1571283372.952,13.184,-51.758,-82.031,-1.465,1.953
1571283372.956,24.414,77.148,5.859,16.113,6.348
1571283372.960,33.203,133.301,60.547,39.551,28.320
1571283372.964,33.691,298.340,190.918,31.738,37.598
1571283372.968,37.598,349.121,216.309,14.160,15.137
1571283372.971,48.340,196.289,111.816,27.344,3.906
1571283372.975,39.551,16.602,9.766,41.016,28.320
1571283372.979,29.785,-83.008,-63.477,34.668,36.133
1571283372.983,37.598,-0.488,-34.180,17.578,9.277
1571283372.987,47.363,-133.789,-164.062,17.578,-13.672
1571283372.991,44.434,-346.191,-302.246,30.762,22.461
1571283372.995,30.273,123.535,78.613,30.273,77.148
1571283372.999,32.227,423.828,282.715,21.484,56.152
1571283373.003,30.273,245.117,127.930,7.324,25.879
1571283373.007,27.832,82.031,16.113,20.020,26.367
1571283373.011,22.461,251.465,162.598,35.156,59.082
1571283373.014,17.090,404.785,271.484,21.484,75.684
1571283373.018,27.344,259.277,141.113,10.254,47.852
1571283373.022,22.949,54.688,-10.254,14.648,22.461
1571283373.026,12.207,-32.715,-49.805,27.832,34.180
1571283373.030,14.648,185.547,133.789,27.344,68.359
1571283373.034,26.855,-215.820,-197.266,18.066,14.648
1571283373.038,18.066,-395.996,-326.172,9.277,9.277
1571283373.042,1.953,296.387,223.145,18.555,68.359
1571283373.046,14.160,369.629,261.230,33.691,58.105
1571283373.050,24.414,203.125,125.488,23.438,32.227
1571283373.053,24.902,288.086,184.570,12.207,16.113
1571283373.057,27.344,434.570,309.570,26.855,26.367
1571283373.061,25.879,340.820,259.766,39.551,68.848
1571283373.065,29.785,169.922,123.535,31.738,57.617
1571283373.069,39.551,15.137,-18.555,27.344,-6.348
1571283373.073,36.133,46.875,20.996,32.715,6.836
1571283373.077,42.480,97.656,79.102,47.363,51.270
1571283373.081,50.781,-285.156,-230.957,39.551,3.906
1571283373.085,41.504,-45.410,-65.918,14.648,-5.859
1571283373.089,44.434,337.891,210.449,27.344,9.766
1571283373.093,39.551,330.566,226.074,46.875,45.410
1571283373.096,37.109,306.152,216.309,36.621,60.547
1571283373.100,43.457,358.887,233.398,20.996,18.555
1571283373.104,41.992,361.328,237.305,22.949,17.090
1571283373.108,37.598,277.344,198.730,37.598,39.551
1571283373.112,36.133,304.688,237.793,39.551,63.965
1571283373.116,37.109,152.832,101.074,21.484,33.691
1571283373.120,33.691,-138.184,-141.113,12.207,-14.648
1571283373.124,31.250,-414.551,-332.520,23.438,0.977
1571283373.128,23.926,-315.918,-245.117,28.320,34.668
1571283373.132,22.461,201.172,126.953,22.461,26.855
1571283373.136,29.297,255.859,140.625,12.695,13.184
1571283373.139,26.367,176.758,92.773,15.625,11.719
1571283373.143,16.113,333.496,242.188,26.367,31.250
1571283373.147,15.137,455.566,343.750,20.020,43.945
1571283373.151,26.855,218.750,143.066,14.648,-11.719
1571283373.155,19.531,-11.719,-28.320,19.043,-47.852
1571283373.159,17.090,225.586,189.453,33.691,23.926
1571283373.163,30.762,250.977,204.590,45.410,59.082
1571283373.167,40.039,-201.172,-172.852,35.645,-7.324
1571283373.171,38.086,-503.906,-406.738,24.414,-41.504
1571283373.175,31.250,-153.809,-115.723,33.691,13.672
1571283373.178,37.109,231.445,182.617,46.387,71.289
1571283373.182,43.457,252.930,174.805,35.645,40.527
1571283373.186,45.410,191.406,101.074,29.785,-9.766
1571283373.190,43.945,447.754,312.012,42.480,39.551
1571283373.194,47.363,535.156,391.602,57.617,64.453
1571283373.198,51.270,301.270,201.172,53.711,26.855
1571283373.202,55.664,116.699,36.621,38.574,-30.762
1571283373.206,51.758,254.883,156.250,36.621,-0.488
1571283373.210,43.945,340.332,256.836,51.758,92.285
1571283373.214,43.945,-206.055,-173.340,43.945,53.711
1571283373.218,38.086,-412.109,-358.398,17.090,-14.160
1571283373.221,26.855,141.602,58.105,17.578,10.742
1571283373.225,23.926,398.438,267.090,34.668,70.801
1571283373.229,20.508,300.781,196.289,33.203,76.172
1571283373.233,21.973,69.824,-7.324,14.648,-9.277
1571283373.237,22.461,64.453,-14.160,6.348,-21.973
1571283373.241,14.160,263.672,170.410,25.391,56.641
1571283373.245,6.836,231.934,147.949,34.180,59.570
1571283373.249,3.906,268.555,161.133,11.719,42.480
1571283373.253,8.301,341.797,203.125,5.371,34.668
1571283373.257,13.184,-19.531,-76.172,21.484,6.836
1571283373.261,6.836,-228.516,-211.426,22.949,43.457
1571283373.264,3.418,155.273,84.961,8.789,70.312
1571283373.268,17.578,299.805,155.273,5.371,14.648
1571283373.272,23.926,52.734,-23.926,18.066,18.066
1571283373.276,16.602,-26.367,-41.504,27.344,71.777
1571283373.280,10.742,196.777,115.723,18.555,40.527
1571283373.284,17.578,220.703,101.074,4.395,4.883
1571283373.288,20.020,68.848,-15.625,6.348,2.930
1571283373.292,6.836,133.301,65.430,16.602,41.504
1571283373.296,4.395,382.812,268.555,21.484,80.078
1571283373.300,21.484,301.270,181.152,18.066,24.414
1571283373.303,35.156,-33.203,-74.707,23.438,-13.672
1571283373.307,24.414,-164.551,-139.160,22.949,28.320
1571283373.311,15.625,133.789,113.281,22.949,79.102
1571283373.315,28.320,287.109,214.355,25.879,50.293
1571283373.319,39.062,-282.715,-246.094,20.996,-11.719
1571283373.323,31.738,-300.293,-237.793,23.438,26.855
1571283373.327,25.391,154.785,110.840,40.527,52.734
1571283373.331,34.668,107.422,44.434,41.016,22.949
1571283373.335,41.504,11.719,-51.270,23.926,-5.859
1571283373.339,34.668,227.051,128.906,23.926,14.648
1571283373.343,27.344,391.113,286.621,41.016,55.664
1571283373.346,22.949,70.801,38.086,38.086,17.090
1571283373.350,26.367,-188.477,-173.828,20.508,-13.672
1571283373.354,30.273,-122.070,-117.188,22.461,15.625
1571283373.358,28.320,76.172,43.457,43.457,31.738
1571283373.362,23.926,146.973,97.656,38.086,51.758
1571283373.366,22.949,155.273,89.355,24.414,42.969
1571283373.370,30.273,267.090,162.598,27.832,11.719
1571283373.374,31.250,460.938,329.102,37.598,41.992
1571283373.378,34.180,145.020,98.633,45.410,52.734
1571283373.382,37.109,-234.863,-201.172,29.297,12.695
1571283373.386,40.527,3.906,-45.410,19.043,-24.414
1571283373.389,37.109,252.930,155.273,31.250,26.855
1571283373.393,37.598,370.117,273.438,43.457,97.168
1571283373.397,41.992,178.223,113.770,41.504,58.594
1571283373.401,42.969,-44.434,-75.684,29.297,9.766
1571283373.405,43.457,-37.598,-64.453,33.691,17.090
1571283373.409,47.852,-307.617,-260.742,50.293,21.484
1571283373.413,42.480,-262.695,-229.980,43.945,31.250
1571283373.417,36.133,203.613,91.309,29.785,10.742
1571283373.421,40.039,197.266,65.430,31.738,-9.766
1571283373.425,36.621,185.059,82.520,45.410,26.855
1571283373.428,27.832,381.836,250.488,44.922,58.105
1571283373.432,32.715,402.344,244.629,32.227,22.461
1571283373.436,30.762,192.871,72.754,26.367,6.348
1571283373.440,16.113,256.836,162.598,34.668,72.754
1571283373.444,19.043,224.121,153.320,45.898,74.707
1571283373.448,14.648,33.691,-4.883,25.879,44.922
1571283373.452,18.066,-155.762,-170.410,17.090,7.324
1571283373.456,31.738,-541.992,-470.215,36.621,-33.203
1571283373.460,20.996,-221.680,-194.336,40.527,41.992
1571283373.464,11.230,334.961,220.703,28.320,77.637
1571283373.468,15.625,246.094,119.141,15.625,23.926
1571283373.471,16.113,219.238,116.211,18.066,36.621
1571283373.475,17.578,462.402,329.102,30.762,67.383
1571283373.479,16.602,498.047,355.957,27.832,74.707
1571283373.483,21.973,232.910,130.859,14.160,26.367
1571283373.487,36.133,44.434,-20.996,17.578,-22.949
1571283373.491,34.668,92.773,53.223,28.809,41.992
1571283373.495,32.227,112.793,88.867,31.738,80.078
1571283373.499,47.852,-288.086,-235.352,27.832,11.719
1571283373.503,54.199,-368.164,-298.828,24.902,1.465
1571283373.507,43.457,299.805,228.516,37.598,63.965
1571283373.511,45.410,443.359,333.496,52.246,74.707
1571283373.514,47.852,146.973,89.355,40.039,40.527
1571283373.518,41.992,57.129,5.371,25.879,-7.324
1571283373.522,39.062,302.246,214.355,35.156,18.066
1571283373.526,41.016,380.859,303.711,59.082,82.520
1571283373.530,37.109,278.809,221.680,48.340,71.289
1571283373.534,39.062,260.254,187.988,29.785,19.043
1571283373.538,40.039,128.906,83.496,37.598,12.207
1571283373.542,38.574,-87.891,-59.570,50.781,57.617
1571283373.546,35.156,-350.586,-266.602,43.945,36.133
1571283373.550,24.902,-133.301,-134.277,18.066,1.953
1571283373.553,26.855,238.281,127.441,17.090,6.348
1571283373.557,25.391,239.258,143.066,27.344,23.926
1571283373.561,20.508,279.297,197.266,29.297,63.965
1571283373.565,24.414,427.734,301.270,20.996,52.246
1571283373.569,32.715,273.926,168.457,15.625,8.789
1571283373.573,22.461,59.570,20.020,21.973,9.766
1571283373.577,14.160,218.262,169.434,35.156,65.430
1571283373.581,27.832,306.641,221.191,35.645,41.992
1571283373.585,35.645,100.586,41.992,30.762,14.648
1571283373.589,32.227,-339.355,-282.715,36.133,26.855
1571283373.593,18.066,-322.266,-250.000,39.062,39.551
1571283373.596,18.555,200.195,130.371,40.527,47.852
1571283373.600,33.691,204.102,83.496,31.738,2.930
1571283373.604,45.898,26.367,-63.477,31.250,-18.066
1571283373.608,41.992,221.680,116.699,46.875,35.645
1571283373.612,23.438,420.898,280.273,42.969,60.547
1571283373.616,24.902,208.496,96.680,21.973,-1.953
1571283373.620,32.227,20.508,-51.270,16.113,-21.484
1571283373.624,31.250,288.086,185.547,35.156,45.898
1571283373.628,29.785,389.160,276.855,52.246,81.055
1571283373.632,32.227,-52.734,-81.055,41.992,29.785
1571283373.636,27.832,-390.137,-348.633,18.555,-19.043
1571283373.639,16.113,-18.555,-47.363,6.348,2.930
1571283373.643,18.555,409.668,297.852,12.695,69.824
1571283373.647,17.090,190.430,117.188,10.742,43.457
1571283373.651,15.137,-102.539,-123.047,-0.488,-28.320
1571283373.655,18.555,131.836,69.824,8.789,-18.066
1571283373.659,16.602,353.027,262.207,25.391,37.598
1571283373.663,5.371,312.988,239.746,19.531,66.406
1571283373.667,14.648,136.230,83.008,11.719,-1.953
1571283373.671,16.602,189.941,129.395,14.648,-18.066
1571283373.675,-0.977,317.383,261.719,19.043,38.086
1571283373.678,2.930,165.527,155.762,24.414,55.176
1571283373.682,11.230,-38.574,-11.230,16.113,42.480
1571283373.686,20.996,-82.031,-61.523,16.113,21.973
1571283373.690,25.391,155.762,134.277,32.715,46.387
1571283373.694,27.832,-27.344,12.207,46.387,77.637
1571283373.698,26.367,-167.480,-103.516,29.297,41.992
1571283373.702,24.414,170.410,126.953,15.625,-11.719
1571283373.706,30.762,154.297,111.328,33.203,-15.625
1571283373.710,32.715,181.641,162.109,49.316,45.898
1571283373.714,36.133,372.559,306.152,41.504,55.664
1571283373.718,47.852,361.328,263.184,34.180,-0.488
1571283373.721,50.781,207.520,146.484,40.039,-8.789
1571283373.725,46.387,158.691,151.855,51.758,61.035
1571283373.729,45.898,135.254,143.066,46.875,75.195
1571283373.733,42.969,120.117,102.051,28.320,6.836
1571283373.737,46.875,-58.594,-47.852,27.344,-36.133
1571283373.741,44.434,-292.480,-192.383,34.668,8.789
1571283373.745,34.668,143.066,156.738,35.156,68.359
1571283373.749,35.156,397.949,313.477,23.438,39.551
1571283373.753,37.109,259.277,187.500,16.602,5.859
1571283373.757,22.949,359.375,278.809,22.461,33.203
1571283373.761,21.484,605.469,479.004,34.668,79.590
1571283373.764,30.762,600.586,462.402,33.203,65.918
1571283373.768,26.367,293.457,206.543,18.555,5.371
1571283373.772,24.414,107.422,78.125,25.391,3.906
1571283373.776,26.855,115.723,112.793,40.039,50.781
1571283373.780,38.086,241.211,203.125,43.945,47.363
1571283373.784,43.457,-89.355,-75.195,30.762,-1.465
1571283373.788,28.809,-193.848,-155.762,20.020,-1.953
1571283373.792,25.879,455.078,352.539,36.621,59.082
1571283373.796,29.785,555.664,418.457,41.992,86.914
1571283373.800,36.621,311.035,211.426,32.715,50.293
1571283373.803,43.945,415.527,301.758,33.203,42.480
1571283373.807,48.340,574.707,444.336,53.223,54.688
1571283373.811,46.387,453.613,361.328,59.570,65.430
1571283373.815,47.363,311.035,246.582,37.109,41.504
1571283373.819,63.477,87.402,59.570,38.574,-0.488
1571283373.823,51.758,134.277,119.141,45.410,35.645
1571283373.827,40.527,168.457,151.855,50.293,52.734
1571283373.831,44.922,-198.242,-150.391,43.945,23.438
1571283373.835,40.039,-5.371,-35.156,25.391,3.906
1571283373.839,35.645,346.191,212.891,30.762,6.836
1571283373.843,30.273,393.066,273.438,38.574,56.152
1571283373.846,30.273,437.012,322.754,36.133,80.566
1571283373.850,32.715,469.727,325.195,21.973,26.367
1571283373.854,31.250,227.539,130.371,20.020,-13.672
1571283373.858,17.578,208.008,150.391,28.809,49.316
1571283373.862,4.883,369.629,273.438,23.926,63.477
1571283373.866,12.207,168.457,85.449,13.672,13.184
1571283373.870,18.066,54.688,-4.883,12.207,16.602
1571283373.874,19.531,-206.055,-191.895,21.973,8.789
1571283373.878,18.066,-229.492,-201.172,21.484,29.785
1571283373.882,20.996,245.117,124.023,11.230,11.230
1571283373.886,31.738,198.242,46.387,8.301,-34.668
1571283373.889,36.133,140.625,20.020,22.949,3.418
1571283373.893,29.297,400.391,237.793,42.480,65.430
1571283373.897,22.949,559.082,338.867,34.180,72.266
1571283373.901,32.715,272.461,76.660,20.996,-0.977
1571283373.905,29.297,132.324,-24.414,23.438,-10.254
1571283373.909,21.973,259.277,103.027,31.738,39.551
1571283373.913,27.344,187.500,54.688,35.645,51.758
1571283373.917,36.133,-38.086,-127.930,29.297,41.016
1571283373.921,25.879,-352.051,-373.047,11.719,1.953
1571283373.925,0.488,102.539,-0.488,7.324,55.664
1571283373.928,6.836,613.281,375.000,21.484,101.074
1571283373.932,24.414,475.098,227.539,18.555,62.988
1571283373.936,26.367,342.285,113.281,13.184,40.527
1571283373.940,18.555,479.004,231.445,22.461,36.621
1571283373.944,18.066,589.844,337.402,31.738,81.543
1571283373.948,14.648,373.047,153.809,18.066,41.504
1571283373.952,11.719,96.680,-93.262,6.348,-39.062
1571283373.956,9.766,181.641,-14.160,13.672,-19.531
1571283373.960,2.930,229.492,53.711,27.832,47.852
1571283373.964,-1.953,-209.961,-289.062,13.184,32.227
1571283373.968,-5.859,-416.992,-471.680,-12.207,-9.277
1571283373.971,-8.789,108.887,-71.289,-1.465,22.461
1571283373.975,0.488,373.047,129.395,20.996,40.039
1571283373.979,5.859,346.191,107.910,20.996,62.500
1571283373.983,7.812,410.156,142.090,5.371,43.945
1571283373.987,13.184,443.359,163.086,4.883,8.301
1571283373.991,17.578,373.535,143.555,24.414,23.438
1571283373.995,11.230,305.176,120.117,27.344,54.199
1571283373.999,15.625,362.305,160.645,16.113,39.551
1571283374.003,36.133,353.027,141.113,21.484,-2.930
1571283374.007,41.504,93.262,-39.551,41.504,12.695
1571283374.011,32.227,-268.555,-300.293,41.992,42.969
1571283374.014,30.273,-11.719,-115.234,29.297,26.855
1571283374.018,36.621,312.500,100.586,27.832,-0.977
1571283374.022,36.621,257.812,59.082,34.180,11.719
1571283374.026,28.809,300.293,118.164,39.551,49.316
1571283374.030,27.344,525.391,289.062,32.715,60.059
1571283374.034,44.922,512.695,253.906,34.180,26.367
1571283374.038,54.199,253.418,51.758,35.156,-17.090
1571283374.042,34.180,287.109,114.258,31.738,34.180
1571283374.046,27.832,552.734,336.914,30.762,89.355
1571283374.050,40.039,438.477,224.121,21.484,19.531
1571283374.053,34.668,141.602,-1.953,17.090,2.930
1571283374.057,22.461,51.758,-39.551,27.832,54.688
1571283374.061,16.602,269.043,131.836,29.785,74.707
1571283374.065,14.160,470.215,261.230,17.578,67.871
1571283374.069,18.555,-64.453,-171.387,7.324,28.320
1571283374.073,15.625,-198.730,-254.395,13.184,25.879
1571283374.077,11.230,355.469,181.152,28.320,62.988
1571283374.081,17.090,214.844,41.016,25.879,32.227
1571283374.085,20.996,11.719,-135.742,19.531,-3.906
1571283374.089,12.207,281.738,81.055,23.926,22.461
1571283374.093,7.812,558.594,314.453,37.598,84.961
1571283374.096,20.996,493.652,267.090,39.551,89.355
1571283374.100,32.715,65.918,-82.031,33.203,6.348
1571283374.104,31.738,-156.250,-253.906,35.156,-16.602
1571283374.108,22.949,232.910,75.195,44.434,60.547
1571283374.112,32.227,214.844,48.828,53.711,58.594
1571283374.116,47.852,-333.984,-404.297,41.016,-19.043
1571283374.120,40.039,-39.551,-180.664,26.367,0.977
1571283374.124,29.297,470.215,214.844,35.645,58.105
1571283374.128,34.180,482.910,240.234,46.387,89.355
1571283374.132,42.969,412.109,181.152,32.227,58.594
1571283374.136,41.504,295.410,67.383,16.602,3.418
1571283374.139,29.297,193.848,10.254,18.555,25.879
1571283374.143,25.391,318.848,137.695,28.809,77.637
1571283374.147,28.320,256.348,75.684,17.578,67.383
1571283374.151,26.855,52.734,-104.004,-2.930,26.367
1571283374.155,21.484,101.562,-64.941,-1.953,13.672
1571283374.159,18.066,-82.520,-192.871,14.648,30.273
1571283374.163,5.859,-33.203,-147.461,5.859,63.477
1571283374.167,5.371,406.250,156.250,-7.324,34.180
1571283374.171,18.555,223.633,-7.812,2.441,-9.277
1571283374.175,11.230,228.516,31.738,13.184,45.898
1571283374.178,6.836,499.023,250.977,19.531,61.035
1571283374.182,20.020,569.824,296.875,18.555,38.086
1571283374.186,33.203,399.902,167.969,25.879,21.484
1571283374.190,25.391,355.469,160.645,35.645,39.551
1571283374.194,20.508,348.633,172.363,41.992,64.453
1571283374.198,22.461,148.438,0.000,32.227,31.250
1571283374.202,33.691,-136.719,-240.723,30.273,-2.441
1571283374.206,35.156,-302.734,-356.934,39.062,14.648
1571283374.210,22.949,178.223,27.832,40.039,65.430
1571283374.214,26.367,568.848,307.129,38.574,69.336
1571283374.218,35.156,360.352,119.141,33.203,6.836
1571283374.221,38.574,296.387,91.309,36.621,10.254
1571283374.225,34.668,492.188,273.438,46.387,47.363
1571283374.229,34.180,483.398,266.602,43.457,43.457
1571283374.233,43.457,275.879,91.797,32.715,7.324
1571283374.237,45.410,145.996,-11.719,28.809,-21.484
1571283374.241,41.992,166.992,29.297,38.086,22.461
1571283374.245,37.109,207.031,79.102,34.180,83.496
1571283374.249,38.574,-202.637,-259.277,12.207,36.133
1571283374.253,34.180,-390.625,-425.781,-2.441,-20.020
1571283374.257,21.973,182.129,18.555,6.836,6.836
1571283374.261,17.578,431.641,214.844,23.926,62.012
1571283374.264,18.555,318.359,114.746,14.160,45.410
1571283374.268,17.578,234.863,23.926,0.488,-20.508
1571283374.272,17.578,392.090,165.527,15.137,9.766
1571283374.276,15.625,416.992,215.820,31.250,58.594
1571283374.280,9.766,286.133,109.863,24.414,39.551
1571283374.284,13.184,270.508,79.590,13.672,-0.488
1571283374.288,20.020,176.270,11.719,21.484,3.906
1571283374.292,19.043,-29.785,-121.094,33.203,38.574
1571283374.296,21.484,-287.109,-316.895,27.832,23.926
1571283374.300,22.949,-46.875,-151.855,15.625,2.930
1571283374.303,26.855,282.227,85.449,21.973,1.953
1571283374.307,25.879,225.098,54.199,38.086,24.414
1571283374.311,19.531,351.562,172.852,41.992,80.566
1571283374.315,25.391,471.191,240.234,29.785,37.109
1571283374.319,31.250,281.250,63.965,25.391,-34.668
1571283374.323,27.832,190.918,21.484,35.156,2.441
1571283374.327,29.297,289.551,123.535,48.828,54.688
1571283374.331,31.738,375.000,172.852,38.574,43.945
1571283374.335,37.598,134.277,-37.109,23.438,7.324
1571283374.339,41.992,-366.211,-406.738,25.879,0.977
1571283374.343,32.715,-302.246,-329.102,30.762,36.621
1571283374.346,24.414,267.090,93.262,25.391,44.922
1571283374.350,35.156,292.969,72.266,15.137,4.395
1571283374.354,43.457,135.254,-51.758,18.066,1.465
1571283374.358,27.344,472.168,254.883,29.297,87.891
1571283374.362,22.461,571.289,333.984,33.691,91.797
1571283374.366,28.320,109.375,-50.293,21.973,11.230
1571283374.370,24.902,-19.531,-146.484,14.160,-2.930
1571283374.374,21.484,266.113,91.797,23.926,31.250
1571283374.378,22.949,485.352,270.996,29.297,67.871
1571283374.382,30.762,134.766,-11.230,23.438,36.621
1571283374.386,33.203,-405.273,-440.430,15.137,-15.625
1571283374.389,28.320,-68.848,-157.227,23.926,14.648
1571283374.393,25.391,475.586,277.344,43.457,83.496
1571283374.397,30.273,346.191,154.785,36.133,62.988
1571283374.401,39.551,95.703,-62.012,25.879,7.812
1571283374.405,30.273,327.637,141.602,30.273,42.969
1571283374.409,22.949,573.242,365.234,35.645,99.609
1571283374.413,37.109,386.719,218.750,40.527,63.965
1571283374.417,36.133,112.305,-9.766,28.320,-1.953
1571283374.421,25.391,25.879,-69.336,25.879,-10.254
1571283374.425,31.250,223.633,117.676,46.387,50.781
1571283374.428,36.621,270.020,157.715,48.828,74.707
1571283374.432,42.969,-22.949,-98.145,31.738,18.555
1571283374.436,44.434,-18.555,-113.770,22.461,-19.531
1571283374.440,42.969,302.734,158.203,39.551,32.227
1571283374.444,61.035,-30.762,-89.355,60.547,41.016
1571283374.448,58.105,-213.379,-243.164,36.133,11.230
1571283374.452,47.363,187.988,42.480,15.137,2.441
1571283374.456,48.828,195.312,49.316,28.320,0.488
1571283374.460,45.898,200.684,86.426,39.062,38.086
1571283374.464,41.016,286.621,144.531,27.344,16.113
1571283374.468,34.180,239.746,78.613,12.207,-26.367
1571283374.471,30.762,73.730,-52.246,20.508,-37.598
1571283374.475,27.832,-20.508,-98.145,35.156,15.625
1571283374.479,22.949,48.828,-44.434,27.344,53.223
1571283374.483,27.832,11.230,-114.746,18.555,-6.836
1571283374.487,31.738,-221.191,-303.711,24.414,-33.203
1571283374.491,25.879,-266.602,-300.293,26.367,20.508
1571283374.495,14.160,233.398,88.379,20.020,50.293
1571283374.499,21.973,579.102,320.801,15.625,38.086
1571283374.503,26.367,419.434,188.477,13.672,14.648
1571283374.507,16.602,349.609,161.133,27.832,-0.488
1571283374.511,17.090,582.031,368.652,36.133,44.922
1571283374.514,22.461,565.430,344.727,25.879,27.832
1571283374.518,23.438,267.090,94.727,17.090,-37.109
1571283374.522,19.531,148.926,33.691,25.391,-2.930
1571283374.526,25.879,285.156,175.781,47.363,72.754
1571283374.530,34.180,335.938,195.312,47.852,56.152
1571283374.534,38.574,43.945,-65.918,30.273,14.160
1571283374.538,34.668,130.859,0.977,25.391,23.926
1571283374.542,35.156,657.227,421.387,45.898,61.523
1571283374.546,41.016,640.625,403.320,55.176,53.711
1571283374.550,48.340,297.852,124.023,39.551,19.531
1571283374.553,46.387,305.664,121.094,32.715,1.465
1571283374.557,41.504,581.055,352.051,45.898,39.551
1571283374.561,43.945,563.965,346.191,52.734,62.500
1571283374.565,50.293,340.820,149.414,34.668,10.742
1571283374.569,51.270,75.684,-72.754,27.832,-39.062
1571283374.573,40.527,17.578,-90.820,39.062,-12.207
1571283374.577,43.945,8.789,-74.707,51.758,25.391
1571283374.581,45.898,-238.281,-284.668,40.527,-2.930
1571283374.585,35.156,85.938,-60.547,17.578,-2.930
1571283374.589,38.574,421.387,195.312,33.203,27.344
1571283374.593,38.574,412.109,216.797,56.152,77.148
1571283374.596,38.086,500.488,285.156,46.387,60.547
1571283374.600,41.504,550.293,298.340,30.762,14.160
1571283374.604,40.039,531.738,293.945,33.203,18.066
1571283374.608,37.109,473.145,286.621,43.457,38.574
1571283374.612,34.668,465.820,292.969,37.598,42.969
1571283374.616,33.203,290.039,136.230,27.344,6.836
1571283374.620,31.250,78.125,-35.156,28.320,-8.301
1571283374.624,23.926,-192.871,-229.004,24.902,3.418
1571283374.628,18.555,-104.004,-148.926,20.996,41.992
1571283374.632,28.809,428.711,233.398,23.926,37.109
1571283374.636,36.621,398.438,178.711,24.414,-4.883
1571283374.639,27.344,336.426,151.367,30.762,17.578
1571283374.643,21.973,512.695,313.965,39.551,63.477
1571283374.647,28.809,475.586,270.996,39.551,49.316
1571283374.651,24.902,300.781,112.305,20.508,14.648
1571283374.655,14.160,278.320,105.957,15.137,16.113
1571283374.659,14.160,527.344,332.031,33.203,71.777
1571283374.663,19.531,557.129,356.934,31.250,97.656
1571283374.667,26.855,35.156,-91.309,16.113,1.953
1571283374.671,28.809,-413.086,-448.730,11.230,-46.875
1571283374.675,19.043,152.832,22.949,22.949,66.895
1571283374.678,19.531,661.133,395.996,27.832,89.355
1571283374.682,32.227,437.012,189.453,11.230,28.320
1571283374.686,37.598,302.246,84.961,10.742,15.137
1571283374.690,32.715,478.027,239.258,28.320,28.809
1571283374.694,34.180,659.668,405.273,40.527,87.402
1571283374.698,38.086,470.703,243.164,29.297,44.434
1571283374.702,38.574,115.234,-53.711,18.066,-15.137
1571283374.706,30.762,260.742,93.262,29.297,43.945
1571283374.710,32.227,440.918,259.766,48.828,100.098
1571283374.714,44.434,-74.707,-159.668,47.852,46.387
1571283374.718,38.574,-310.547,-372.070,26.367,-7.812
1571283374.721,23.438,202.148,9.277,24.414,9.277
1571283374.725,27.344,437.500,193.359,49.316,41.504
1571283374.729,32.715,403.809,169.434,47.852,63.477
1571283374.733,32.715,353.516,104.004,29.785,9.766
1571283374.737,31.738,433.105,173.828,31.250,14.648
1571283374.741,24.902,500.488,267.578,45.898,72.754
1571283374.745,27.344,427.246,221.680,49.316,71.289
1571283374.749,40.527,355.957,145.996,42.969,17.090
1571283374.753,32.715,312.500,105.469,31.738,-10.742
1571283374.757,24.414,61.035,-64.453,34.180,1.953
1571283374.761,24.414,-314.453,-327.148,38.574,37.598
1571283374.764,19.531,-59.570,-144.043,20.020,31.738
1571283374.768,28.320,220.215,23.926,9.766,-21.484
1571283374.772,26.855,189.453,7.812,18.066,-4.395
1571283374.776,15.137,380.859,199.707,28.320,80.078
1571283374.780,25.391,601.074,359.375,27.832,82.031
1571283374.784,36.621,452.637,205.078,17.578,6.348
1571283374.788,25.879,298.340,106.934,15.625,16.113
1571283374.792,24.902,406.250,238.281,35.645,78.125
1571283374.796,37.109,540.527,353.027,40.527,84.473
1571283374.800,48.828,468.750,283.203,33.203,51.270
1571283374.803,60.059,148.438,30.273,41.504,12.695
1571283374.807,54.688,-62.988,-112.793,51.270,15.625
1571283374.811,53.711,115.723,29.785,53.711,56.152
1571283374.815,59.082,221.680,81.055,47.852,50.781
1571283374.819,55.664,-298.828,-354.004,41.992,-9.766
1571283374.823,45.410,-324.219,-366.699,45.898,-15.625
1571283374.827,41.504,386.230,192.383,57.129,62.988
1571283374.831,49.316,454.102,216.309,49.316,56.641
1571283374.835,55.176,178.711,-23.438,33.691,2.930
1571283374.839,46.387,281.738,73.242,39.062,5.371
1571283374.843,32.715,562.500,327.148,47.852,71.289
1571283374.846,42.480,505.859,280.762,43.945,77.637
1571283374.850,51.270,82.520,-71.777,33.691,14.648
1571283374.854,34.668,-63.965,-179.199,27.832,9.766
1571283374.858,25.391,255.859,91.309,37.598,57.129
1571283374.862,26.855,291.504,110.352,36.133,56.152
1571283374.866,27.344,53.223,-106.445,22.949,-7.812
1571283374.870,28.809,122.070,-61.523,19.531,-20.996
1571283374.874,21.973,292.480,96.680,31.738,36.133
1571283374.878,25.879,42.969,-93.750,36.133,33.203
1571283374.882,25.391,-349.609,-422.363,13.672,-21.484
1571283374.886,16.113,-20.996,-188.965,1.953,-10.254
1571283374.889,16.113,351.562,99.121,21.973,26.855
1571283374.893,19.531,316.406,83.984,42.969,35.645
1571283374.897,27.344,118.164,-78.613,34.668,12.695
1571283374.901,34.668,-77.148,-256.348,23.926,-25.879
1571283374.905,37.109,100.098,-105.469,36.133,11.719
1571283374.909,40.039,58.594,-112.305,48.828,65.430
1571283374.913,36.621,24.902,-147.949,34.180,60.547
1571283374.917,38.574,416.504,125.977,18.555,27.832
1571283374.921,44.922,349.609,72.754,25.879,-1.465
1571283374.925,44.434,356.445,126.465,41.504,52.734
1571283374.928,42.969,412.598,184.570,41.992,68.359
1571283374.932,51.758,349.609,104.980,28.320,18.555
1571283374.936,56.152,263.184,27.832,28.320,3.906
1571283374.940,43.945,365.234,149.414,44.434,61.035
1571283374.944,45.898,407.227,203.125,54.199,99.121
1571283374.948,46.387,231.934,43.457,37.598,37.109
1571283374.952,50.293,-12.695,-169.434,31.738,-23.438
1571283374.956,45.898,-304.199,-376.465,43.457,-9.277
1571283374.960,28.320,101.562,-41.504,45.898,43.457
1571283374.964,31.250,484.375,229.980,40.039,48.340
1571283374.968,33.203,287.109,53.711,25.391,13.184
1571283374.971,25.391,212.402,14.160,25.879,2.441
1571283374.975,20.508,508.789,284.180,38.574,57.617
1571283374.979,32.227,585.449,344.238,42.480,62.988
1571283374.983,35.645,267.090,73.242,26.367,-3.418
1571283374.987,31.250,-29.297,-156.250,20.996,-26.367
1571283374.991,22.949,23.926,-83.984,34.180,27.832
1571283374.995,20.996,205.078,64.941,37.598,78.125
1571283374.999,34.180,-152.832,-247.559,29.297,15.625
1571283375.003,36.621,-339.355,-413.086,22.949,-46.387
1571283375.007,26.855,248.535,60.059,35.156,10.742
1571283375.011,30.273,485.352,254.395,48.828,61.523
1571283375.014,43.945,244.629,41.992,40.527,5.371
1571283375.018,51.270,212.891,4.883,32.227,-20.020
1571283375.022,54.199,412.109,181.152,46.875,18.066
1571283375.026,55.664,397.461,190.430,68.848,47.363
1571283375.030,54.199,201.172,29.297,61.035,6.836
1571283375.034,51.758,192.383,10.254,39.062,-4.883
1571283375.038,54.199,207.520,39.551,44.434,43.457
1571283375.042,54.688,3.906,-97.656,61.035,52.734
1571283375.046,50.781,-230.957,-278.320,51.270,52.246
1571283375.050,41.504,-28.809,-157.227,30.273,19.531
1571283375.053,35.156,283.203,59.082,32.227,7.324
1571283375.057,26.855,333.496,124.512,42.480,51.270
1571283375.061,23.926,346.680,149.902,41.016,71.777
1571283375.065,24.414,415.039,179.199,21.973,36.133
1571283375.069,26.367,300.293,71.777,17.578,-13.184
1571283375.073,25.391,194.336,22.461,30.762,3.906
1571283375.077,18.066,245.117,85.449,29.297,44.434
1571283375.081,23.926,306.641,116.211,18.066,26.367
1571283375.085,34.668,114.258,-44.434,21.973,-4.395
1571283375.089,35.156,-350.586,-384.277,34.180,-11.230
1571283375.093,16.113,-245.117,-273.438,30.273,38.574
1571283375.096,17.578,259.766,100.586,22.461,59.082
1571283375.100,37.598,184.570,1.465,18.066,22.949
1571283375.104,29.297,134.766,-32.715,18.555,17.578
1571283375.108,30.273,370.117,187.012,39.551,42.969
1571283375.112,36.621,557.129,349.609,42.480,63.477
1571283375.116,31.738,247.070,72.754,20.996,-15.625
1571283375.120,30.762,-2.441,-126.465,23.926,-35.156
1571283375.124,40.039,300.293,150.391,48.828,51.758
1571283375.128,43.457,568.848,368.652,54.688,91.309
1571283375.132,49.316,218.262,77.148,45.898,40.527
1571283375.136,53.711,-495.605,-482.422,36.621,-38.086
1571283375.139,38.574,-221.680,-237.793,37.598,-7.812
1571283375.143,37.109,373.047,234.375,49.316,63.477
1571283375.147,47.852,282.715,146.973,47.363,41.504
1571283375.151,53.223,115.723,-2.441,42.480,-11.230
1571283375.155,54.199,112.793,-5.371,52.734,-23.926
1571283375.159,47.852,156.250,49.316,62.988,25.879
1571283375.163,41.016,230.469,104.004,46.875,45.898
1571283375.167,45.410,147.461,10.742,37.598,-5.371
1571283375.171,37.598,235.840,85.449,38.574,2.930
1571283375.175,32.227,436.035,270.020,48.828,60.059
1571283375.178,35.645,283.691,148.438,51.758,52.246
1571283375.182,34.668,-100.586,-179.199,29.297,-15.625
1571283375.186,33.691,-47.852,-148.438,22.949,-23.926
1571283375.190,28.320,309.082,152.832,35.645,33.691
1571283375.194,27.832,2.441,-72.266,36.621,47.363
1571283375.198,29.297,-275.391,-314.941,18.066,-13.184
1571283375.202,26.367,81.055,-63.965,6.836,-27.832
1571283375.206,24.902,222.656,52.734,19.531,3.906
1571283375.210,30.762,167.969,30.762,32.227,46.875
1571283375.214,39.551,176.270,34.668,30.762,47.852
1571283375.218,36.133,288.574,99.121,24.414,18.066
1571283375.221,19.043,242.188,65.918,24.414,5.371
1571283375.225,17.090,147.949,28.320,42.480,50.293
1571283375.229,32.227,56.641,-48.828,47.852,39.551
1571283375.233,29.785,-27.832,-148.438,31.250,-4.883
1571283375.237,28.809,-65.918,-176.758,31.738,6.348
1571283375.241,25.879,-153.320,-212.891,41.504,39.062
1571283375.245,17.090,242.188,112.305,34.180,85.938
1571283375.249,30.273,514.648,288.086,20.508,49.316
1571283375.253,37.109,269.043,77.637,18.066,-5.371
1571283375.257,35.645,219.727,73.242,35.156,10.254
1571283375.261,34.180,465.820,286.133,44.434,59.082
1571283375.264,38.574,512.695,312.500,26.855,58.594
1571283375.268,43.945,229.492,85.449,13.672,16.113
1571283375.272,44.434,63.477,-12.207,31.738,28.320
1571283375.276,43.945,187.500,120.117,47.852,81.055
1571283375.280,39.551,348.633,240.234,38.574,85.449
1571283375.284,38.086,199.219,93.262,27.344,30.762
1571283375.288,39.551,148.926,53.711,35.645,2.441
1571283375.292,35.645,451.172,315.430,47.852,52.734
1571283375.296,30.273,530.273,375.488,38.086,71.289
1571283375.300,35.156,-101.562,-134.277,16.602,7.324
1571283375.303,27.832,-289.551,-265.625,5.371,-14.648
1571283375.307,14.648,280.273,200.684,19.043,36.621
1571283375.311,13.672,403.320,296.387,25.391,79.590
1571283375.315,25.879,242.188,144.043,19.531,36.621
1571283375.319,30.273,22.949,-45.898,17.578,-21.484
1571283375.323,16.602,-63.477,-92.773,22.949,-4.883
1571283375.327,15.137,0.488,-17.578,29.297,61.035
1571283375.331,22.949,-133.301,-140.625,15.137,56.641
1571283375.335,21.973,61.035,-24.902,2.441,13.184
1571283375.339,26.367,432.617,270.996,21.973,26.855
1571283375.343,24.414,506.836,358.398,35.156,82.520
1571283375.346,28.320,402.344,267.090,26.855,49.316
1571283375.350,36.621,417.969,254.395,19.043,17.578
1571283375.354,31.738,433.594,271.484,21.484,19.531
1571283375.358,31.738,348.145,231.445,33.691,31.250
1571283375.362,37.598,357.910,253.418,36.133,51.758
1571283375.366,42.480,188.965,102.539,27.344,11.230
1571283375.370,34.180,3.418,-42.969,24.414,3.418
1571283375.374,32.715,-120.117,-100.586,45.410,60.059
1571283375.378,36.621,-62.500,-50.293,50.781,66.895
1571283375.382,28.809,189.941,103.516,26.367,10.742
1571283375.386,28.809,171.875,68.848,15.137,-16.113
1571283375.389,30.762,261.719,172.852,30.273,20.508
1571283375.393,25.391,539.062,419.922,44.434,75.195
1571283375.397,20.508,648.438,493.652,31.738,67.383
1571283375.401,29.785,372.070,250.977,27.344,13.672
1571283375.405,31.250,247.559,168.457,44.434,13.672
1571283375.409,24.414,514.160,411.133,53.223,81.543
1571283375.413,26.855,475.586,375.000,36.133,89.844
1571283375.417,37.109,26.855,2.441,26.367,35.645
1571283375.421,45.898,-325.195,-262.207,36.621,4.883
1571283375.425,38.574,55.176,55.176,41.992,44.434
1571283375.428,32.227,516.602,393.066,42.480,68.848
1571283375.432,39.062,370.605,238.770,35.156,32.715
1571283375.436,46.387,53.711,-15.137,34.180,11.230
1571283375.440,37.598,180.176,113.770,42.480,44.922
1571283375.444,36.621,498.535,382.812,52.246,84.961
1571283375.448,39.062,359.863,261.230,41.504,33.203
1571283375.452,36.133,202.637,132.812,28.320,3.418
1571283375.456,39.062,403.809,317.383,39.551,48.340
1571283375.460,48.340,429.688,356.934,60.059,83.008
1571283375.464,54.688,-191.406,-152.344,51.270,9.766
1571283375.468,52.246,-499.023,-413.574,32.227,-46.875
1571283375.471,35.645,124.023,86.426,34.180,21.484
1571283375.475,31.250,416.504,325.195,52.734,56.152
1571283375.479,35.156,297.852,225.586,46.387,41.016
1571283375.483,34.180,306.152,208.984,25.879,23.438
1571283375.487,34.180,488.770,358.398,30.273,52.246
1571283375.491,34.668,499.512,398.926,47.363,88.379
1571283375.495,33.691,335.938,284.668,48.828,93.750
1571283375.499,30.762,274.902,209.961,27.832,32.227
1571283375.503,30.762,249.023,170.898,21.484,-5.371
1571283375.507,29.785,90.332,79.590,40.039,41.504
1571283375.511,31.738,5.371,29.297,47.852,77.637
1571283375.514,31.250,153.320,104.004,29.297,37.109
1571283375.518,30.273,261.719,153.320,23.438,8.789
1571283375.522,39.551,115.234,49.805,49.316,26.367
1571283375.526,40.527,-149.414,-140.137,59.082,39.062
1571283375.530,32.715,143.555,69.824,43.945,44.922
1571283375.534,38.574,293.457,143.066,37.598,15.137
1571283375.538,42.480,234.863,98.145,42.969,24.902
1571283375.542,42.969,339.355,205.566,57.617,71.289
1571283375.546,38.086,464.844,302.246,50.293,69.824
1571283375.550,44.922,276.855,131.836,33.203,22.949
1571283375.553,56.152,-76.172,-136.230,36.133,5.859
1571283375.557,50.293,-43.945,-72.754,50.781,60.059
1571283375.561,41.992,340.332,231.934,47.363,113.770
1571283375.565,46.875,465.820,285.645,30.273,68.848
1571283375.569,50.781,-207.031,-269.043,26.855,-20.020
1571283375.573,28.809,-352.051,-356.934,27.344,-0.488
1571283375.577,14.648,348.633,206.055,27.832,90.820
1571283375.581,24.902,385.254,208.984,25.391,63.965
1571283375.585,28.320,156.738,13.672,16.602,13.672
1571283375.589,16.602,288.574,139.648,16.113,32.715
1571283375.593,20.020,558.105,377.930,37.109,103.027
1571283375.596,24.414,452.637,285.156,30.273,89.355
1571283375.600,16.602,-25.879,-116.211,11.230,1.465
1571283375.604,14.160,-177.734,-226.562,19.531,-3.906
1571283375.608,10.254,112.305,23.438,29.785,65.918
1571283375.612,18.555,44.434,-55.664,31.250,36.621
1571283375.616,26.855,-373.535,-402.344,21.484,-15.625
1571283375.620,22.461,-69.824,-157.227,18.555,11.719
1571283375.624,24.902,406.250,218.750,39.062,47.852
1571283375.628,28.809,388.184,209.473,48.828,63.477
1571283375.632,38.086,281.738,113.770,37.109,35.645
1571283375.636,41.016,264.648,82.031,32.227,-10.254
1571283375.639,38.086,354.004,179.688,46.387,28.809
1571283375.643,41.504,379.883,229.004,55.664,79.590
1571283375.647,45.410,98.633,-4.883,43.945,24.902
1571283375.651,45.898,-86.426,-160.156,36.621,-2.441
1571283375.655,39.551,6.348,-74.219,47.363,26.367
1571283375.659,42.969,-155.273,-189.453,60.547,46.387
1571283375.663,41.504,-324.707,-344.727,47.363,11.719
1571283375.667,34.668,-25.879,-150.879,26.855,-10.742
1571283375.671,33.203,170.410,-10.254,28.809,-6.348
1571283375.675,28.809,296.875,116.211,42.969,49.805
1571283375.678,24.414,504.883,291.016,35.156,79.102
1571283375.682,28.809,499.023,260.254,18.066,30.273
1571283375.686,36.621,310.059,113.770,24.414,12.207
1571283375.690,24.902,343.262,185.547,34.668,62.988
1571283375.694,21.973,334.473,203.613,38.574,98.633
1571283375.698,26.855,195.801,76.660,22.949,54.199
1571283375.702,25.879,-21.484,-117.676,7.324,-6.836
1571283375.706,19.043,-281.250,-297.363,17.090,4.395
1571283375.710,5.371,158.203,71.777,20.996,82.031
1571283375.714,12.207,420.898,240.723,17.578,43.945
1571283375.718,19.531,133.301,-8.789,10.254,-14.648
1571283375.721,16.602,-94.727,-171.387,14.648,-11.719
1571283375.725,17.578,192.383,76.660,31.250,48.828
1571283375.729,22.949,446.777,262.695,30.762,62.012
1571283375.733,27.832,181.152,19.531,17.090,-11.719
1571283375.737,32.227,92.773,-42.969,19.531,-15.625
1571283375.741,36.133,152.344,33.691,46.875,32.227
1571283375.745,37.109,96.680,1.465,55.176,47.363
1571283375.749,43.945,-307.129,-339.355,33.691,-11.230
1571283375.753,45.898,-432.129,-453.125,26.855,-25.879
1571283375.757,38.086,231.934,74.219,40.527,41.504
1571283375.761,38.574,490.723,271.484,45.898,71.777
1571283375.764,42.480,287.598,90.820,29.297,23.438
1571283375.768,35.645,242.676,47.363,16.113,-4.395
1571283375.772,25.391,474.609,258.301,22.949,49.316
1571283375.776,28.320,389.160,208.008,36.621,65.918
1571283375.780,33.691,166.504,24.902,25.879,33.691
1571283375.784,33.203,164.062,0.000,11.230,-14.160
1571283375.788,26.855,15.625,-114.746,14.648,-37.109
1571283375.792,19.043,-94.238,-156.738,23.438,41.016
1571283375.796,16.113,-238.281,-265.625,13.184,57.617
1571283375.800,12.695,-82.031,-189.941,-5.859,-0.977
1571283375.803,12.207,316.406,105.957,-0.488,13.672
1571283375.807,9.766,362.305,166.504,19.043,54.199
1571283375.811,14.160,412.598,230.469,21.973,97.168
1571283375.815,20.020,497.559,282.227,7.812,67.383
1571283375.819,20.508,342.773,143.555,8.789,4.883
1571283375.823,22.949,315.430,166.992,31.738,62.500
1571283375.827,25.391,368.164,230.957,40.039,89.844
1571283375.831,28.809,308.105,155.273,26.367,21.484
1571283375.835,36.133,65.918,-41.504,23.926,-12.207
1571283375.839,38.086,-398.438,-376.953,30.273,-3.418
1571283375.843,27.344,-451.660,-411.621,34.180,3.906
1571283375.846,27.344,66.895,-38.086,30.273,3.418
1571283375.850,39.551,169.922,2.441,20.996,-21.973
1571283375.854,47.363,28.320,-101.562,26.367,-28.320
1571283375.858,43.457,250.977,117.188,42.969,62.500
1571283375.862,30.273,492.676,305.176,35.156,75.195
1571283375.866,31.738,298.340,127.930,17.090,7.812
1571283375.870,42.480,89.355,-32.715,26.367,-8.789
1571283375.874,40.527,294.922,156.738,41.992,39.062
1571283375.878,34.668,492.188,319.824,41.016,68.848
1571283375.882,47.852,139.160,25.391,32.227,20.996
1571283375.886,52.734,-498.047,-483.398,23.438,-43.457
1571283375.889,29.297,-305.176,-308.105,26.367,-9.277
1571283375.893,23.926,305.176,181.152,35.645,79.590
1571283375.897,37.598,362.793,198.730,30.762,59.082
1571283375.901,43.457,208.984,58.594,22.949,6.836
1571283375.905,34.668,389.160,218.750,22.461,28.809
1571283375.909,31.738,503.418,337.891,34.180,62.500
1571283375.913,32.715,326.660,208.984,29.297,45.898
1571283375.917,34.180,121.094,32.227,16.113,-3.906
1571283375.921,28.320,146.973,53.223,19.531,-12.695
1571283375.925,26.855,364.746,260.254,35.156,65.430
1571283375.928,34.180,296.875,210.938,40.039,92.773
1571283375.932,36.133,-94.727,-132.324,29.785,12.695
1571283375.936,31.738,-88.379,-139.160,29.785,-22.949
1571283375.940,35.156,251.465,151.367,50.293,31.738
1571283375.944,50.293,-58.594,-80.566,62.500,49.805
1571283375.948,39.062,-503.906,-455.566,38.086,-25.879
1571283375.952,27.344,-69.336,-138.184,27.344,-12.207
1571283375.956,39.062,290.039,144.531,54.688,49.805
1571283375.960,43.945,260.742,127.441,68.848,54.199
1571283375.964,41.016,376.465,214.844,46.875,51.758
1571283375.968,49.316,366.211,184.082,38.574,7.324
1571283375.971,54.688,182.617,52.734,53.223,-9.766
1571283375.975,47.852,61.523,-1.953,59.570,44.434
1571283375.979,43.945,3.418,-44.922,45.898,50.781
1571283375.983,42.480,102.051,-4.883,30.273,7.812
1571283375.987,48.828,-16.113,-116.211,39.551,-24.902
1571283375.991,43.945,-267.090,-283.691,47.852,19.043
1571283375.995,34.180,137.695,38.086,40.527,73.730
1571283375.999,32.715,406.250,205.566,29.785,29.785
1571283376.003,24.414,157.715,0.488,20.020,-9.277
1571283376.007,20.508,160.156,39.551,25.879,25.879
1571283376.011,23.438,375.977,214.844,37.109,45.410
1571283376.014,34.668,345.703,169.434,27.832,16.113
1571283376.018,31.738,97.168,-31.738,16.113,-22.461
1571283376.022,22.949,-57.617,-127.930,30.273,-4.883
1571283376.026,28.320,-1.465,-63.477,49.316,51.270
1571283376.030,36.621,145.508,36.133,41.504,51.270
1571283376.034,45.410,-181.641,-247.559,32.227,6.348
1571283376.038,37.598,-244.141,-286.133,38.086,22.461
1571283376.042,22.461,368.652,209.961,48.340,68.359
1571283376.046,31.738,479.492,288.574,55.664,64.941
1571283376.050,41.992,232.910,83.008,47.363,26.855
1571283376.053,36.621,170.410,37.109,41.504,-10.254
1571283376.057,34.668,411.133,257.812,54.199,47.363
1571283376.061,45.898,301.270,177.734,60.547,73.730
1571283376.065,51.270,81.543,-16.602,49.316,23.926
1571283376.069,47.852,25.391,-69.336,44.434,10.742
1571283376.073,43.457,63.477,-22.461,58.105,35.645
1571283376.077,52.734,178.711,77.148,68.359,74.707
1571283376.081,66.406,-169.922,-220.215,54.688,27.344
1571283376.085,55.664,-41.016,-132.812,37.109,9.766
1571283376.089,50.293,409.668,220.703,45.410,40.527
1571283376.093,47.363,430.664,255.859,53.711,76.172
1571283376.096,47.363,338.867,183.594,39.062,61.035
1571283376.100,52.246,321.777,144.531,25.391,14.160
1571283376.104,50.293,398.438,226.074,30.273,46.875
1571283376.108,49.805,331.543,208.008,43.945,64.941
1571283376.112,49.316,246.582,142.090,35.645,47.852
1571283376.116,55.664,46.875,-36.133,24.414,6.348
1571283376.120,54.199,-134.277,-175.293,29.785,-1.953
1571283376.124,51.758,-300.781,-279.785,46.387,40.039
1571283376.128,38.086,-320.312,-304.199,42.969,32.227
1571283376.132,20.996,173.340,48.340,19.531,25.391
1571283376.136,24.902,296.875,122.559,19.531,16.602
1571283376.139,28.809,154.297,23.926,41.992,-0.488
1571283376.143,21.484,268.555,138.672,47.363,34.180
1571283376.147,17.578,446.777,270.508,30.273,51.758
1571283376.151,31.250,240.723,93.262,25.391,11.230
1571283376.155,27.344,110.840,18.555,34.668,14.648
1571283376.159,14.648,311.523,202.637,39.551,61.523
1571283376.163,21.973,244.141,144.531,32.715,56.152
1571283376.167,38.574,-145.020,-178.711,29.785,0.488
1571283376.171,45.410,-507.812,-456.055,36.621,-11.230
1571283376.175,34.180,-140.625,-144.531,46.875,69.824
1571283376.178,32.715,370.117,225.098,46.875,65.918
1571283376.182,41.992,239.258,81.055,33.203,2.441
1571283376.186,41.992,157.227,25.391,28.809,2.441
1571283376.190,26.367,456.055,293.945,25.879,58.105
1571283376.194,28.320,620.605,442.383,27.832,101.562
1571283376.198,47.363,382.324,251.953,29.785,49.316
1571283376.202,47.363,133.301,54.199,20.996,-4.395
1571283376.206,38.086,230.469,145.508,25.879,16.602
1571283376.210,35.156,241.211,160.645,36.621,59.570
1571283376.214,42.480,-299.316,-290.039,29.297,14.160
1571283376.218,44.922,-554.199,-517.090,15.137,-38.086
1571283376.221,35.156,76.172,-17.578,22.461,20.020
1571283376.225,38.086,444.824,283.691,41.992,79.590
1571283376.229,41.504,204.102,90.820,34.668,49.316
1571283376.233,40.527,-20.508,-100.586,19.531,-9.277
1571283376.237,41.016,200.195,77.637,23.926,1.465
1571283376.241,38.086,341.309,205.566,43.457,46.875
1571283376.245,31.250,312.988,187.500,42.480,66.895
1571283376.249,29.785,339.844,184.082,19.531,37.109
1571283376.253,32.227,321.289,156.250,22.461,-0.488
1571283376.257,33.203,137.207,49.316,41.016,36.133
1571283376.261,32.715,-229.004,-213.867,37.598,59.570
1571283376.264,23.926,-76.660,-121.582,17.090,23.438
1571283376.268,26.367,209.473,61.035,20.508,-14.648
1571283376.272,33.203,173.340,46.875,41.504,-8.789
1571283376.276,36.621,245.605,139.160,54.688,44.922
1571283376.280,42.969,345.215,204.590,47.363,32.715
1571283376.284,51.758,236.816,98.145,39.551,-17.090
1571283376.288,42.480,74.219,-13.184,39.551,-20.996
1571283376.292,30.762,302.734,204.590,43.945,60.059
1571283376.296,42.969,468.750,319.824,44.922,40.527
1571283376.300,45.898,338.379,193.848,31.738,-11.719
1571283376.303,40.527,172.363,85.938,27.344,21.973
1571283376.307,44.434,86.914,41.992,42.480,52.734
1571283376.311,47.363,331.055,226.074,42.480,69.336
1571283376.315,45.898,413.086,254.395,26.855,15.137
1571283376.319,45.410,-100.586,-149.414,28.809,-30.762
1571283376.323,28.809,-125.000,-134.766,31.738,7.812
1571283376.327,19.043,444.824,317.383,31.738,63.477
1571283376.331,36.133,452.637,297.363,29.785,39.062
1571283376.335,41.016,251.465,131.348,25.391,10.254
1571283376.339,27.832,398.438,270.996,32.227,33.203
1571283376.343,30.762,493.164,371.582,50.781,74.707
1571283376.346,44.922,187.988,128.906,50.781,43.945
1571283376.350,46.387,-79.590,-86.914,34.668,9.277
1571283376.354,43.945,-43.457,-44.434,44.434,27.832
1571283376.358,40.527,356.445,286.621,54.199,87.891
1571283376.362,46.875,395.508,306.641,48.340,83.984
1571283376.366,56.152,-325.684,-286.133,33.203,-27.344
1571283376.370,43.945,-189.453,-167.969,24.414,-18.066
1571283376.374,41.016,455.078,354.492,46.387,62.500
1571283376.378,49.316,427.734,327.637,52.246,62.988
1571283376.382,50.781,250.977,169.434,35.156,9.766
1571283376.386,48.340,320.312,215.820,32.715,-4.395
1571283376.389,40.039,459.961,352.051,46.387,44.922
1571283376.393,41.016,401.855,329.102,55.664,84.473
1571283376.397,46.875,119.141,94.727,43.457,47.363
1571283376.401,44.434,-122.559,-123.535,33.691,-19.043
1571283376.405,41.504,-38.086,-45.410,48.340,10.742
1571283376.409,41.016,-145.020,-117.188,54.199,53.223
1571283376.413,38.574,-235.352,-220.215,34.180,11.719
1571283376.417,26.855,163.086,47.363,13.672,-12.207
1571283376.421,29.297,301.270,146.484,25.879,0.488
1571283376.425,28.320,296.875,167.480,46.387,43.945
1571283376.428,21.973,465.332,304.199,36.133,68.359
1571283376.432,28.809,415.039,230.957,22.949,2.930
1571283376.436,35.156,181.152,44.434,30.762,-16.602
1571283376.440,27.832,217.773,106.934,45.898,33.203
1571283376.444,22.949,154.297,63.965,43.457,43.945
1571283376.448,29.297,74.707,-18.066,27.344,20.996
1571283376.452,36.621,-28.809,-121.582,29.297,-18.066
1571283376.456,31.738,-316.406,-326.172,41.992,-4.883
1571283376.460,21.973,76.172,-1.465,41.504,60.059
1571283376.464,30.762,445.801,244.141,30.762,41.992
1571283376.468,45.898,197.266,17.578,32.227,-18.555
1571283376.471,44.922,126.465,-17.090,42.969,-7.812
1571283376.475,29.297,462.891,282.227,43.457,73.730
1571283376.479,31.738,549.805,349.121,40.527,70.801
1571283376.483,43.945,273.926,115.234,30.762,12.207
1571283376.487,34.668,181.641,47.363,23.926,4.395
1571283376.491,28.320,165.527,54.199,37.598,43.945
1571283376.495,28.809,108.398,18.066,33.203,64.453
1571283376.499,40.527,-350.586,-373.535,20.020,-30.762
1571283376.503,44.434,-538.086,-539.062,19.531,-69.824
1571283376.507,35.156,184.570,40.527,35.156,20.996
1571283376.511,35.156,462.402,245.117,41.504,52.734
1571283376.514,38.086,191.895,9.766,24.902,-2.930
1571283376.518,29.297,211.914,32.715,12.695,2.930
1571283376.522,21.484,450.684,244.141,20.508,30.762
1571283376.526,29.297,490.234,307.129,36.621,80.078
1571283376.530,30.762,388.672,230.469,25.391,75.195
1571283376.534,31.738,286.621,132.324,18.555,7.812
1571283376.538,36.621,138.184,29.297,38.574,-4.883
1571283376.542,35.156,3.906,-47.363,47.852,43.457
1571283376.546,34.668,-250.488,-252.930,28.320,36.133
1571283376.550,27.832,-124.512,-187.988,5.859,-4.883
1571283376.553,27.344,273.926,106.445,19.531,-3.906
1571283376.557,31.738,318.359,161.621,43.457,33.691
1571283376.561,24.902,359.375,211.426,40.527,66.895
1571283376.565,18.555,406.250,221.191,19.531,19.531
1571283376.569,27.344,204.590,53.711,22.461,-17.090
1571283376.573,36.133,150.879,49.805,50.781,25.879
1571283376.577,29.785,318.848,197.754,53.711,61.523
1571283376.581,28.320,395.996,234.375,35.645,32.227
1571283376.585,38.574,135.742,16.113,37.598,8.301
1571283376.589,32.227,-143.066,-178.223,42.480,27.832
1571283376.593,22.949,49.316,-15.625,40.039,55.176
1571283376.596,26.855,310.059,160.645,31.250,31.250
1571283376.600,37.598,254.883,93.750,29.785,-5.371
1571283376.604,41.504,-64.453,-140.625,39.551,-15.625
1571283376.608,31.738,-9.277,-71.777,45.410,17.578
1571283376.612,28.320,309.082,156.738,40.039,23.438
1571283376.616,39.062,184.082,26.855,28.809,-7.324
1571283376.620,40.527,118.164,-17.090,27.344,7.324
1571283376.624,41.992,230.469,93.262,39.551,37.109
1571283376.628,42.480,279.297,143.555,37.109,59.082
1571283376.632,44.434,11.230,-83.008,20.020,8.301
1571283376.636,46.875,-496.582,-488.281,15.625,-30.273
1571283376.639,31.738,-119.141,-176.758,19.043,33.203
1571283376.643,27.344,481.445,283.691,22.949,88.867
1571283376.647,30.762,348.145,144.043,13.184,41.016
1571283376.651,38.086,114.258,-48.340,10.254,-10.742
1571283376.655,30.762,304.688,130.371,19.043,21.973
1571283376.659,22.461,479.980,289.062,29.785,71.289
1571283376.663,22.461,315.430,152.344,20.020,46.875
1571283376.667,22.949,162.598,10.254,3.906,17.090
1571283376.671,22.949,300.293,124.023,18.066,39.551
1571283376.675,20.996,470.703,289.062,38.574,92.285
1571283376.678,30.762,256.348,125.000,34.668,80.566
1571283376.682,42.480,-175.781,-239.746,24.902,3.418
1571283376.686,29.297,-166.016,-236.328,22.949,-5.371
1571283376.690,22.461,171.387,48.828,37.598,52.246
1571283376.694,28.809,211.426,84.473,45.898,77.637
1571283376.698,33.691,154.297,4.883,31.250,33.691
1571283376.702,34.180,74.219,-90.332,28.809,-22.461
1571283376.706,37.109,91.309,-46.387,45.898,11.719
1571283376.710,33.691,66.895,-31.250,45.898,78.125
1571283376.714,20.508,156.250,25.391,24.902,75.195
1571283376.718,33.203,270.020,83.008,22.461,21.484
1571283376.721,37.598,197.266,41.504,32.715,19.531
1571283376.725,36.621,160.645,50.293,46.387,82.031
1571283376.729,42.480,109.863,9.766,41.504,82.520
1571283376.733,38.574,150.879,13.184,21.973,21.484
1571283376.737,35.156,21.484,-89.844,28.320,-10.254
1571283376.741,29.297,-259.277,-281.250,37.598,35.645
1571283376.745,17.578,39.062,-58.594,23.438,58.594
1571283376.749,19.531,312.012,110.352,10.254,20.996
1571283376.753,22.949,181.641,4.395,14.160,12.207
1571283376.757,16.113,217.773,66.406,28.320,42.480
1571283376.761,12.207,440.918,254.395,29.297,70.801
1571283376.764,20.020,394.531,190.430,18.555,31.250
1571283376.768,24.902,120.117,-38.086,16.113,-17.090
1571283376.772,19.531,-14.160,-112.793,29.785,12.207
1571283376.776,20.508,-66.895,-142.090,44.434,28.320
1571283376.780,26.367,-41.504,-143.066,30.762,-5.859
1571283376.784,31.250,-385.254,-441.406,16.113,-45.410
1571283376.788,29.297,-458.496,-498.047,25.391,-32.227
1571283376.792,25.391,289.551,104.980,33.203,59.570
1571283376.796,30.273,326.172,116.211,26.367,56.152
1571283376.800,29.297,84.473,-83.008,12.695,22.461
1571283376.803,26.367,276.855,83.496,16.113,30.762
1571283376.807,24.414,556.152,334.473,39.551,73.242
1571283376.811,31.738,453.125,265.137,49.316,76.172
1571283376.815,42.969,97.656,-31.738,39.062,-6.348
1571283376.819,43.945,-112.305,-193.359,35.645,-34.668
1571283376.823,37.598,18.555,-62.500,49.316,19.531
1571283376.827,39.062,144.531,40.527,59.570,46.875
1571283376.831,47.852,-240.723,-281.738,42.480,10.742
1571283376.835,43.457,-136.719,-217.285,31.738,-8.789
1571283376.839,42.969,316.895,140.625,53.223,22.949
1571283376.843,43.945,364.258,188.477,60.059,66.895
1571283376.846,48.828,338.379,165.039,47.852,57.129
1571283376.850,57.617,268.555,94.238,46.387,14.160
1571283376.854,47.363,182.129,45.410,51.270,36.621
1571283376.858,35.645,320.801,185.059,57.617,88.867
1571283376.862,40.527,329.590,171.875,56.152,54.688
1571283376.866,50.293,5.371,-114.746,50.781,-15.137
1571283376.870,43.457,-106.934,-194.824,41.504,-15.625
1571283376.874,34.180,-167.480,-207.520,47.363,37.109
1571283376.878,28.320,-282.715,-305.664,42.969,22.461
1571283376.882,23.926,114.258,-32.715,18.555,0.488
1571283376.886,26.367,263.184,71.289,12.207,13.672
1571283376.889,26.855,245.117,78.125,21.484,39.062
1571283376.893,22.949,412.109,228.516,24.902,76.660
1571283376.897,28.809,425.293,218.750,14.160,29.297
1571283376.901,40.527,171.875,11.719,17.090,-11.230
1571283376.905,38.086,68.848,-43.945,30.273,10.254
1571283376.909,24.902,146.484,40.039,23.438,50.781
1571283376.913,19.531,139.648,31.738,7.812,59.082
1571283376.917,25.391,-170.898,-236.816,6.348,-5.859
1571283376.921,22.949,-524.902,-506.836,7.812,-36.621
1571283376.925,12.207,-90.332,-139.160,13.672,42.480
1571283376.928,17.578,426.270,249.023,21.973,68.359
1571283376.932,34.668,240.723,67.383,24.414,2.441
1571283376.936,35.156,134.766,-11.230,29.785,-2.441
1571283376.940,33.203,443.359,251.953,41.504,61.523
1571283376.944,35.645,529.297,314.941,43.945,70.312
1571283376.948,36.133,225.586,57.617,29.297,-2.930
1571283376.952,38.086,58.105,-67.871,25.879,-21.484
1571283376.956,38.574,293.457,147.949,35.645,45.410
1571283376.960,43.457,270.996,139.160,56.641,61.035
1571283376.964,51.270,-296.875,-322.266,53.711,15.137
1571283376.968,52.246,-478.516,-482.422,33.691,-5.859
1571283376.971,41.504,82.031,-51.758,37.598,6.348
1571283376.975,45.410,362.793,175.293,56.152,47.363
1571283376.979,51.270,217.285,55.664,47.852,31.250
1571283376.983,55.664,132.324,-26.855,34.180,-9.766
1571283376.987,63.965,279.785,104.004,55.176,2.930
1571283376.991,57.129,373.047,209.473,70.801,63.965
1571283376.995,51.270,294.434,146.973,54.688,67.871
1571283376.999,53.223,196.777,40.039,34.180,10.254
1571283377.003,63.965,204.590,44.434,47.852,5.371
1571283377.007,66.895,75.195,-30.762,62.500,45.410
1571283377.011,52.246,-263.184,-273.926,39.062,78.125
1571283377.014,47.852,-171.875,-227.051,25.879,19.531
1571283377.018,41.992,165.039,19.531,34.180,11.230
1571283377.022,30.762,206.543,81.543,42.480,66.406
1571283377.026,20.020,218.750,96.680,40.527,69.336
1571283377.030,19.043,401.855,217.773,32.715,57.617
1571283377.034,26.367,385.742,190.430,27.832,38.574
1571283377.038,17.578,200.195,63.965,25.879,23.438
1571283377.042,9.766,184.570,84.473,35.156,53.223
1571283377.046,20.020,282.715,162.598,33.203,49.805
1571283377.050,25.391,135.742,20.508,19.043,-11.230
1571283377.053,20.508,-110.352,-166.504,22.461,-9.766
1571283377.057,15.625,-137.695,-159.180,33.203,54.688
1571283377.061,9.277,123.535,30.762,17.578,68.848
1571283377.065,15.625,178.711,28.320,2.930,-5.859
1571283377.069,27.344,-331.543,-373.047,13.184,-55.664
1571283377.073,21.484,-221.680,-238.281,27.832,32.715
1571283377.077,20.996,319.824,185.059,25.391,100.098
1571283377.081,34.180,13.672,-104.004,18.555,-2.930
1571283377.085,39.062,-178.223,-263.184,28.809,-32.715
1571283377.089,42.480,156.738,23.438,47.363,28.809
1571283377.093,43.457,456.543,273.438,58.105,73.242
1571283377.096,48.828,375.977,204.590,51.758,55.176
1571283377.100,62.500,-46.875,-138.184,54.199,-16.602
1571283377.104,60.547,-112.305,-162.598,62.500,8.789
1571283377.108,51.270,332.520,209.473,65.918,93.750
1571283377.112,61.523,243.652,110.840,62.500,46.875
1571283377.116,66.406,-398.438,-419.434,44.434,-48.828
1571283377.120,46.875,-142.090,-201.660,34.668,-2.441
1571283377.124,41.504,302.734,161.621,49.316,58.594
1571283377.128,40.527,275.391,139.160,48.340,63.965
1571283377.132,40.039,178.223,42.480,25.879,16.602
1571283377.136,45.898,94.238,-29.785,25.391,-12.207
1571283377.139,41.016,207.031,83.008,42.969,24.414
1571283377.143,21.484,314.941,182.617,32.227,62.012
1571283377.147,15.137,124.512,12.695,10.742,33.691
1571283377.151,21.484,-172.363,-253.906,6.348,-33.691
1571283377.155,9.277,45.410,-71.777,11.719,3.418
1571283377.159,10.254,-3.418,-97.656,20.020,44.922
1571283377.163,9.766,-159.180,-233.887,2.930,29.785
1571283377.167,8.789,285.156,87.891,-4.883,13.672
1571283377.171,7.324,361.328,150.879,8.789,0.000
1571283377.175,-3.906,343.750,179.688,18.555,51.270
1571283377.178,-6.836,508.301,325.195,13.672,79.102
1571283377.182,4.395,446.777,258.301,7.324,4.883
1571283377.186,4.395,258.301,121.582,6.348,-18.555
1571283377.190,3.906,256.836,168.457,21.484,55.664
1571283377.194,8.301,245.605,177.246,26.855,80.078
1571283377.198,5.371,128.418,61.523,5.859,25.879
1571283377.202,14.160,-186.523,-208.008,5.371,-43.945
1571283377.206,18.066,-374.023,-337.402,19.531,-6.836
1571283377.210,17.578,107.422,40.039,22.949,64.941
1571283377.214,35.156,475.098,286.133,20.508,25.879
1571283377.218,47.363,302.246,138.184,13.672,-11.230
1571283377.221,43.457,300.293,175.781,24.902,20.996
1571283377.225,46.875,578.613,433.105,42.969,83.984
1571283377.229,55.176,604.492,448.730,39.551,73.242
1571283377.233,58.594,375.977,262.207,32.227,27.344
1571283377.237,57.617,247.559,174.316,39.551,7.812
1571283377.241,53.223,250.488,207.031,55.176,60.547
1571283377.245,60.059,176.758,159.668,56.641,78.613
1571283377.249,62.988,-340.332,-278.320,34.180,-18.555
1571283377.253,46.875,-500.000,-417.480,19.043,-47.852
1571283377.257,36.133,197.754,147.949,34.668,43.457
1571283377.261,45.410,488.770,374.512,46.875,82.520
1571283377.264,46.387,234.863,149.902,33.691,10.254
1571283377.268,36.621,214.355,133.301,28.320,-1.953
1571283377.272,31.738,448.242,337.402,42.480,46.875
1571283377.276,32.227,416.016,328.125,47.852,74.707
1571283377.280,26.367,234.375,184.082,30.273,47.852
1571283377.284,24.414,200.684,144.043,21.484,4.395
1571283377.288,34.180,125.977,102.539,46.387,21.973
1571283377.292,29.297,-17.090,17.090,48.828,70.312
1571283377.296,24.902,-355.469,-266.602,20.020,24.414
1571283377.300,21.484,-184.082,-161.133,4.883,-3.418
1571283377.303,20.020,193.848,125.000,18.555,25.391
1571283377.307,21.973,138.184,93.262,37.598,60.059
1571283377.311,18.066,223.145,146.973,30.762,53.223
1571283377.315,27.832,334.961,195.801,27.832,5.859
1571283377.319,30.273,418.945,262.207,28.320,29.297
1571283377.323,19.531,407.227,278.809,29.297,69.824
1571283377.327,21.484,354.980,252.441,34.180,74.707
1571283377.331,29.785,337.402,227.051,26.855,33.203
1571283377.335,31.738,86.914,14.160,26.367,-7.324
1571283377.339,28.320,-313.965,-284.668,35.645,20.996
1571283377.343,27.832,-332.031,-299.805,36.621,52.734
1571283377.346,33.203,185.059,64.941,28.320,48.340
1571283377.350,36.621,314.453,135.254,22.461,15.625
1571283377.354,20.996,222.656,78.613,20.020,18.555
1571283377.358,8.789,352.539,199.219,22.461,62.012
1571283377.362,23.438,290.039,139.160,30.273,34.668
1571283377.366,40.527,40.039,-71.289,27.832,-24.902
1571283377.370,26.367,-2.930,-95.703,11.230,-19.043
1571283377.374,8.301,279.297,159.180,9.277,64.941
1571283377.378,11.719,443.848,292.480,7.812,75.195
1571283377.382,26.855,54.199,-30.762,8.301,2.930
1571283377.386,24.414,-511.230,-475.586,6.836,-30.762
1571283377.389,2.930,-195.801,-218.262,3.906,23.926
1571283377.393,7.812,368.652,214.355,14.648,76.660
1571283377.397,29.785,270.508,109.863,15.137,41.504
1571283377.401,32.227,148.926,9.766,11.230,21.484
1571283377.405,27.832,347.656,186.035,26.367,42.480
1571283377.409,29.785,502.441,331.543,39.062,89.844
1571283377.413,40.527,357.910,210.449,33.691,60.059
1571283377.417,48.340,-16.602,-110.352,33.691,-22.949
1571283377.421,38.574,-26.855,-96.680,41.016,3.906
1571283377.425,33.691,320.801,207.520,47.363,84.473
1571283377.428,39.062,212.891,116.211,44.434,64.941
1571283377.432,48.828,-187.012,-213.867,41.504,-13.184
1571283377.436,47.852,-5.371,-58.594,43.945,6.348
1571283377.440,38.574,415.039,289.062,52.246,73.730
1571283377.444,35.645,82.520,20.508,46.387,58.594
1571283377.448,38.086,-151.855,-183.594,31.738,7.812
1571283377.452,38.086,166.016,47.852,35.156,-2.441
1571283377.456,32.227,275.391,146.484,47.852,33.203
1571283377.460,27.344,258.301,143.066,51.270,52.246
1571283377.464,28.809,274.902,137.695,31.250,22.949
1571283377.468,30.273,286.133,138.672,20.508,7.324
1571283377.471,25.879,309.570,187.988,26.855,53.711
1571283377.475,29.297,145.508,83.008,37.109,74.707
1571283377.479,30.273,-82.031,-104.004,24.414,35.645
1571283377.483,26.855,-59.082,-112.793,6.836,-4.883
1571283377.487,25.879,-42.969,-103.516,14.648,-1.465
1571283377.491,21.973,-256.836,-249.512,26.855,35.156
1571283377.495,12.207,-20.020,-75.684,11.230,35.156
1571283377.499,11.230,258.301,98.145,-7.324,0.977
1571283377.503,18.555,129.883,-9.277,4.395,-9.766
1571283377.507,15.137,250.977,126.953,20.996,61.523
1571283377.511,18.066,479.492,312.988,22.949,89.355
1571283377.514,33.691,330.078,162.109,16.113,10.254
1571283377.518,35.645,101.562,-15.625,12.207,-12.695
1571283377.522,38.574,36.133,-31.250,32.227,38.574
1571283377.526,41.992,10.742,-47.363,41.504,49.805
1571283377.530,40.039,-94.727,-162.109,24.902,-9.766
1571283377.534,41.992,-525.879,-526.855,21.484,-65.918
1571283377.538,42.480,-476.074,-475.098,29.297,-35.156
1571283377.542,39.551,281.250,129.395,41.992,55.176
1571283377.546,39.062,391.113,191.895,36.133,52.246
1571283377.550,41.992,135.254,-35.645,20.996,-13.672
1571283377.553,39.062,231.934,45.410,28.320,-15.137
1571283377.557,40.527,492.188,280.273,50.781,48.828
1571283377.561,45.898,433.105,242.188,50.293,53.711
1571283377.565,47.852,177.734,26.367,31.250,-10.254
1571283377.569,45.410,63.477,-48.340,31.250,-0.977
1571283377.573,34.180,151.367,52.734,42.480,70.801
1571283377.577,35.156,185.547,80.078,43.457,76.172
1571283377.581,40.039,-212.891,-259.277,26.367,5.371
1571283377.585,42.969,-188.965,-250.977,26.855,-16.113
1571283377.589,43.457,180.664,49.805,45.410,24.902
1571283377.593,28.320,264.648,122.559,39.551,54.199
1571283377.596,24.414,241.699,88.379,19.531,29.297
1571283377.600,35.156,308.105,129.883,20.508,6.348
1571283377.604,34.180,412.598,240.723,39.062,38.574
1571283377.608,29.297,414.551,275.879,49.316,86.914
1571283377.612,39.062,315.430,191.895,50.293,58.105
1571283377.616,48.828,52.246,-39.062,47.363,-9.277
1571283377.620,37.109,-122.559,-168.457,38.086,-15.137
1571283377.624,32.227,-303.223,-282.715,43.457,25.391
1571283377.628,40.039,-359.863,-334.473,46.387,19.531
1571283377.632,42.969,48.828,-57.617,32.227,-16.113
1571283377.636,41.992,224.121,64.941,30.762,-3.906
1571283377.639,35.156,314.453,166.992,44.922,61.035
1571283377.643,37.598,402.344,250.488,50.781,98.633
1571283377.647,45.898,262.207,113.281,41.504,34.668
1571283377.651,44.922,149.414,17.090,30.273,5.371
1571283377.655,32.715,208.008,94.727,32.715,50.293
1571283377.659,31.738,410.645,278.320,40.527,89.844
1571283377.663,39.062,203.613,96.680,32.227,26.855
1571283377.667,41.992,-240.723,-267.090,21.484,-27.344
1571283377.671,41.992,-454.590,-417.480,29.785,1.465
1571283377.675,25.879,-33.203,-84.961,32.715,65.918
1571283377.678,22.461,410.156,226.562,20.996,66.406
1571283377.682,30.273,162.109,1.465,15.137,-0.488
1571283377.686,23.926,86.914,-34.180,20.996,3.418
1571283377.690,22.949,402.832,253.418,38.086,69.336
1571283377.694,27.832,506.836,335.449,41.992,81.543
1571283377.698,35.156,282.715,136.719,28.320,31.738
1571283377.702,38.574,-87.402,-162.598,27.832,-22.461
1571283377.706,36.133,29.785,-45.898,43.457,9.766
1571283377.710,35.645,230.957,127.930,50.781,70.801
1571283377.714,42.480,-250.488,-272.461,40.039,19.531
1571283377.718,40.039,-471.191,-459.961,28.320,-22.461
1571283377.721,39.551,66.895,-36.621,46.875,2.930
1571283377.725,46.387,368.652,204.102,71.289,45.410
1571283377.729,43.945,219.727,70.312,58.594,15.625
1571283377.733,47.363,83.008,-63.965,42.480,-41.016
1571283377.737,44.434,235.840,70.801,49.316,-9.277
1571283377.741,36.621,356.445,201.660,64.941,62.500
1571283377.745,36.133,253.418,127.441,55.664,55.176
1571283377.749,35.645,152.344,29.297,35.645,-9.766
1571283377.753,32.227,148.926,31.250,36.133,-26.367
1571283377.757,35.645,49.805,-9.277,53.223,31.250
1571283377.761,40.527,-382.812,-347.656,54.199,28.320
1571283377.764,28.809,-318.359,-329.590,27.832,6.348
1571283377.768,19.531,241.211,87.891,18.066,46.387
1571283377.772,20.996,360.352,189.453,31.738,68.359
1571283377.776,18.555,279.785,142.578,33.691,60.059
1571283377.780,15.625,302.734,147.461,18.066,20.508
1571283377.784,18.066,282.227,123.535,11.719,2.441
1571283377.788,12.695,239.746,116.699,19.531,27.344
1571283377.792,5.859,266.602,162.598,22.461,73.242
1571283377.796,8.789,297.363,171.875,13.672,49.805
1571283377.800,16.602,176.270,53.711,6.836,-2.441
1571283377.803,23.926,33.691,-34.180,16.602,35.645
1571283377.807,24.414,15.625,-24.414,27.344,94.727
1571283377.811,16.602,97.168,13.184,9.277,49.805
1571283377.815,20.020,-41.504,-126.465,-5.859,-12.207
1571283377.819,37.598,-422.363,-415.527,16.113,-20.508
1571283377.823,28.320,-210.938,-219.238,29.297,41.016
1571283377.827,16.113,420.898,270.996,23.926,100.098
1571283377.831,34.668,368.164,184.570,25.879,29.297
1571283377.835,40.039,70.312,-68.359,27.344,-29.297
1571283377.839,24.414,233.398,92.285,29.785,28.809
1571283377.843,22.461,421.387,266.602,40.039,67.871
1571283377.846,38.574,250.977,131.836,41.016,33.203
1571283377.850,47.363,-79.590,-132.324,39.551,4.395
1571283377.854,37.598,-134.277,-157.227,43.457,18.555
1571283377.858,29.297,206.055,121.094,48.340,61.523
1571283377.862,37.109,186.035,82.031,41.016,46.875
1571283377.866,37.109,-181.152,-229.980,20.508,1.953
1571283377.870,20.996,-79.590,-151.855,12.207,3.418
1571283377.874,23.926,249.023,116.699,33.691,50.781
1571283377.878,29.785,188.965,60.547,31.250,49.805
1571283377.882,21.973,-38.574,-143.066,5.859,-1.465
1571283377.886,20.996,185.547,41.992,7.324,8.789
1571283377.889,19.531,407.715,247.070,27.832,62.988
1571283377.893,15.137,339.844,204.590,28.809,68.359
1571283377.897,19.043,33.691,-57.129,10.742,12.207
1571283377.901,26.367,-143.555,-202.637,13.672,-6.348
1571283377.905,15.625,68.848,-15.625,23.438,39.551
1571283377.909,13.184,-31.738,-91.797,23.926,67.871
1571283377.913,15.137,-263.184,-299.316,6.836,12.207
1571283377.917,9.766,83.496,-55.176,-8.789,-11.719
1571283377.921,20.996,270.020,98.145,12.207,7.324
1571283377.925,36.621,199.707,77.148,38.086,42.969
1571283377.928,36.621,133.301,27.344,28.320,35.156
1571283377.932,35.156,166.992,25.391,15.137,-15.625
1571283377.936,36.621,193.359,58.105,26.367,3.906
1571283377.940,38.086,266.113,148.438,49.316,61.035
1571283377.944,46.387,209.473,105.469,55.664,56.641
1571283377.948,54.688,42.480,-43.945,47.852,26.855
1571283377.952,53.711,-99.121,-160.645,45.410,9.277
1571283377.956,41.504,-328.125,-323.242,45.898,5.859
1571283377.960,30.762,-22.461,-76.172,39.551,38.574
1571283377.964,38.574,286.621,130.371,25.391,7.324
1571283377.968,49.316,48.340,-71.777,24.414,-32.227
1571283377.971,38.086,133.301,25.391,31.250,17.090
1571283377.975,25.879,506.348,341.309,31.250,84.473
1571283377.979,29.785,444.336,271.973,16.113,29.785
1571283377.983,37.109,112.793,3.906,5.371,-19.043
1571283377.987,33.203,148.438,59.570,17.090,27.344
1571283377.991,28.809,285.645,184.570,32.227,83.496
1571283377.995,30.273,207.031,110.352,25.391,79.590
1571283377.999,35.156,-291.016,-318.359,11.719,-2.441
1571283378.003,25.391,-451.660,-445.801,10.254,-11.230
1571283378.007,10.742,219.727,96.680,26.367,60.547
1571283378.011,9.766,479.004,297.363,26.367,84.961
1571283378.014,10.742,204.102,68.848,7.812,25.879
1571283378.018,12.695,130.371,18.555,5.859,-1.953
1571283378.022,17.090,366.699,235.840,27.832,39.551
1571283378.026,18.066,336.914,224.609,35.645,58.105
1571283378.030,21.973,81.055,0.488,16.113,0.000
1571283378.034,28.809,54.688,-27.344,8.301,-23.438
1571283378.038,30.273,110.840,47.852,28.320,33.691
1571283378.042,40.039,23.438,2.930,49.805,89.355
1571283378.046,46.875,-376.465,-332.031,41.016,26.367
1571283378.050,41.992,-301.758,-312.012,23.438,-24.902
1571283378.053,42.480,217.773,92.773,35.156,18.066
1571283378.057,46.875,287.109,164.062,50.781,55.664
1571283378.061,48.828,282.715,168.457,41.016,66.406
1571283378.065,51.758,319.824,177.246,31.250,15.625
1571283378.069,52.246,297.852,162.109,41.992,-2.930
1571283378.073,43.945,333.008,229.004,51.270,63.965
1571283378.077,35.645,349.121,250.488,39.551,84.961
1571283378.081,40.527,285.156,172.363,26.367,19.531
1571283378.085,47.852,53.223,-11.230,32.227,-13.184
1571283378.089,40.527,-327.637,-276.367,46.387,9.766
1571283378.093,31.250,-287.109,-226.562,42.480,54.688
1571283378.096,31.250,94.238,26.367,24.902,31.250
1571283378.100,33.203,38.574,-61.035,14.160,-26.855
1571283378.104,21.484,82.031,1.953,14.160,-1.953
1571283378.108,12.695,401.855,293.945,22.461,66.895
1571283378.112,20.020,563.965,418.457,17.578,60.547
1571283378.116,34.668,301.270,195.312,11.230,-7.812
1571283378.120,31.738,151.855,97.168,18.066,-5.859
1571283378.124,23.926,425.293,348.145,31.250,78.125
1571283378.128,31.738,571.777,463.867,32.715,89.355
1571283378.132,42.480,210.449,159.180,24.414,30.273
1571283378.136,41.016,-418.457,-336.426,21.973,-30.273
1571283378.139,29.785,-167.969,-117.188,29.785,13.672
1571283378.143,31.738,387.207,308.594,36.133,61.523
1571283378.147,35.156,313.965,219.238,24.902,31.250
1571283378.151,33.203,52.734,11.230,22.461,-3.418
1571283378.155,25.879,88.867,68.359,35.645,8.789
1571283378.159,22.949,413.086,343.262,43.457,77.637
1571283378.163,41.504,347.168,270.020,41.016,43.457
1571283378.167,36.621,109.863,62.012,20.508,-17.090
1571283378.171,21.484,248.047,192.383,14.160,8.301
1571283378.175,22.949,350.586,298.828,28.809,32.715
1571283378.178,30.273,155.273,155.762,23.438,37.109
1571283378.182,40.039,-124.023,-72.266,14.648,11.719
1571283378.186,38.086,-45.410,-16.602,17.578,1.465
1571283378.190,29.297,308.105,274.902,26.367,62.500
1571283378.194,30.273,270.996,232.910,23.926,58.105
1571283378.198,33.691,93.262,55.664,5.859,-14.160
1571283378.202,33.203,212.891,143.066,6.836,-13.672
1571283378.206,28.320,400.879,325.195,20.996,63.965
1571283378.210,27.832,97.656,101.562,20.020,82.031
1571283378.214,27.832,-53.711,-43.945,3.906,23.926
1571283378.218,29.297,286.133,205.078,5.859,27.832
1571283378.221,40.039,375.977,289.062,35.156,65.430
1571283378.225,42.969,231.934,193.359,43.945,87.891
1571283378.229,39.062,76.172,56.641,24.902,44.922
1571283378.233,41.016,144.043,86.426,20.508,-1.953
1571283378.237,45.410,144.043,100.586,43.457,12.695
1571283378.241,47.363,-149.414,-103.027,60.059,51.270
1571283378.245,38.574,6.348,-0.977,42.480,44.922
1571283378.249,36.133,285.156,171.387,28.809,11.719
1571283378.253,40.039,193.848,91.797,36.133,5.371
1571283378.257,41.016,270.996,182.129,53.223,61.523
1571283378.261,34.180,522.949,383.789,43.945,90.332
1571283378.264,39.551,304.688,177.246,30.762,22.949
1571283378.268,44.922,-27.344,-84.961,35.156,-14.648
1571283378.272,28.809,-12.695,-42.969,42.480,22.949
1571283378.276,30.273,80.566,37.598,47.852,70.801
1571283378.280,34.180,136.230,45.898,28.809,29.785
1571283378.284,41.016,-250.977,-284.668,18.066,-31.250
1571283378.288,42.480,-323.242,-316.895,31.250,5.859
1571283378.292,24.414,278.809,158.203,32.227,49.805
1571283378.296,15.137,390.625,219.727,11.719,25.391
1571283378.300,13.184,133.789,0.488,-3.906,-21.973
