timestamps,TP9,AF7,AF8,TP10,Right AUX
1571285610.581,141.113,-970.215,-988.770,21.484,-629.883
1571285610.585,200.684,-970.215,-951.660,98.633,-620.117
1571285610.589,238.281,-970.703,-759.277,202.148,-516.602
1571285610.593,190.430,-967.285,-815.918,115.723,-538.086
1571285610.596,123.535,-972.656,-988.281,-4.395,-649.414
1571285610.600,131.348,-971.191,-975.586,24.902,-662.109
1571285610.604,193.359,-891.113,-915.039,121.582,-573.730
1571285610.608,166.992,-916.504,-912.109,90.820,-559.570
1571285610.612,92.285,-979.004,-973.633,-38.086,-630.859
1571285610.616,106.445,-770.508,-981.934,-55.176,-654.785
1571285610.620,163.574,-443.359,-850.586,78.613,-591.309
1571285610.624,126.953,-378.418,-679.688,63.477,-524.414
1571285610.628,26.855,-453.613,-777.832,-100.098,-589.844
1571285610.632,8.789,-449.707,-930.176,-145.508,-663.086
1571285610.636,68.848,-444.336,-892.578,-36.621,-619.629
1571285610.639,118.652,-303.711,-712.402,50.781,-556.152
1571285610.643,72.266,-177.734,-661.621,-35.645,-589.844
1571285610.647,27.832,-261.230,-897.461,-110.840,-666.992
1571285610.651,72.754,-373.535,-996.582,-44.434,-664.062
1571285610.655,130.371,-518.555,-928.711,57.617,-603.516
1571285610.659,93.750,-613.770,-763.672,-20.020,-580.566
1571285610.663,35.645,-735.840,-814.941,-117.188,-652.832
1571285610.667,62.500,-896.484,-983.398,-89.355,-694.824
1571285610.671,149.902,-975.098,-862.305,19.531,-636.719
1571285610.675,134.766,-965.332,-677.734,28.320,-601.562
1571285610.678,61.523,-968.750,-804.688,-109.863,-659.180
1571285610.682,79.590,-975.098,-992.188,-124.512,-720.703
1571285610.686,161.133,-920.898,-830.566,33.203,-648.926
1571285610.690,163.086,-922.363,-637.207,61.523,-581.543
1571285610.694,75.684,-976.074,-853.027,-68.359,-666.992
1571285610.698,44.434,-968.750,-1000.000,-128.418,-742.676
1571285610.702,76.660,-969.238,-898.438,-62.988,-684.082
1571285610.706,99.121,-970.215,-648.438,-0.488,-577.637
1571285610.710,55.176,-970.215,-755.859,-90.332,-622.559
1571285610.714,7.812,-970.215,-998.047,-169.434,-705.078
1571285610.718,48.828,-970.215,-928.711,-90.820,-675.293
1571285610.721,115.723,-970.215,-697.266,20.508,-579.102
1571285610.725,55.176,-970.215,-757.812,-68.848,-596.680
1571285610.729,-29.297,-970.215,-975.586,-183.594,-688.477
1571285610.733,-29.785,-970.703,-985.352,-160.645,-701.172
1571285610.737,40.039,-967.285,-892.578,-36.621,-623.535
1571285610.741,51.270,-971.191,-875.977,-38.086,-584.961
1571285610.745,-28.809,-962.402,-969.727,-181.641,-665.039
1571285610.749,-32.715,-859.375,-993.652,-189.453,-696.289
1571285610.753,58.594,-759.766,-841.797,-28.809,-616.211
1571285610.757,85.449,-750.977,-755.371,23.438,-559.570
1571285610.761,20.508,-615.723,-900.879,-96.191,-610.840
1571285610.764,0.488,-359.375,-952.148,-163.574,-680.664
1571285610.768,68.848,-285.156,-912.109,-61.035,-662.109
1571285610.772,132.812,-313.477,-773.438,73.730,-585.449
1571285610.776,93.262,-246.582,-763.184,-21.973,-618.652
1571285610.780,46.875,-93.262,-795.898,-119.629,-662.598
1571285610.784,96.191,133.301,-736.328,-46.387,-644.531
1571285610.788,151.367,333.984,-659.180,57.617,-595.215
1571285610.792,105.469,369.141,-724.609,-1.953,-609.375
1571285610.796,29.785,403.809,-749.512,-121.582,-660.156
1571285610.800,33.203,437.500,-678.711,-122.559,-656.250
1571285610.803,74.707,386.719,-775.391,-13.184,-605.957
1571285610.807,44.922,355.469,-666.992,-12.207,-573.242
1571285610.811,-30.762,209.473,-634.277,-144.043,-645.508
1571285610.815,-40.039,231.934,-903.320,-193.848,-709.961
1571285610.819,31.738,482.910,-772.461,-98.633,-645.996
1571285610.823,55.664,510.254,-590.820,-57.617,-593.750
1571285610.827,-3.418,534.180,-723.633,-141.113,-644.043
1571285610.831,-1.465,563.965,-859.375,-168.945,-705.078
1571285610.835,79.102,520.508,-916.504,-56.641,-687.012
1571285610.839,112.793,517.090,-721.680,23.926,-600.586
1571285610.843,56.152,555.664,-597.168,-52.246,-599.609
1571285610.846,19.531,487.305,-818.359,-118.164,-695.312
1571285610.850,68.359,396.973,-962.402,-79.102,-712.891
1571285610.854,133.789,422.363,-587.402,50.293,-580.566
1571285610.858,104.004,347.168,-470.703,-1.465,-573.242
1571285610.862,24.414,263.672,-840.332,-138.672,-677.246
1571285610.866,17.578,154.785,-950.195,-132.812,-679.688
1571285610.870,63.477,3.906,-739.258,-27.832,-613.770
1571285610.874,51.270,-203.613,-664.062,-11.230,-577.148
1571285610.878,-5.371,-315.430,-862.305,-132.812,-637.207
1571285610.882,-0.977,-172.363,-998.535,-180.664,-714.355
1571285610.886,70.312,3.418,-924.805,-77.637,-662.109
1571285610.889,74.707,172.363,-827.148,-10.742,-590.332
1571285610.893,-15.625,324.707,-915.527,-132.812,-666.992
1571285610.897,-65.430,369.141,-982.422,-248.047,-723.633
1571285610.901,-27.832,383.301,-783.691,-172.363,-658.203
1571285610.905,44.922,387.695,-573.730,-45.898,-579.102
1571285610.909,13.184,320.801,-805.176,-106.445,-621.094
1571285610.913,-46.387,258.301,-1000.000,-224.609,-719.727
1571285610.917,7.812,236.328,-929.199,-170.898,-722.656
1571285610.921,63.477,102.051,-804.199,-22.949,-627.441
1571285610.925,9.766,-93.750,-801.758,-69.336,-596.680
1571285610.928,-63.477,-216.309,-926.270,-203.125,-664.062
1571285610.932,-41.992,-414.062,-978.516,-198.730,-712.891
1571285610.936,60.059,-676.758,-964.844,-55.176,-639.160
1571285610.940,96.191,-773.926,-971.680,-16.113,-596.191
1571285610.944,33.203,-775.879,-966.797,-143.066,-665.527
1571285610.948,5.859,-766.602,-968.262,-182.129,-720.703
1571285610.952,78.125,-663.574,-982.422,-81.543,-668.457
1571285610.956,120.605,-493.652,-811.035,-1.953,-564.453
1571285610.960,74.707,-399.902,-775.391,-57.129,-599.609
1571285610.964,88.867,-372.559,-982.422,-107.910,-719.727
1571285610.968,158.203,-385.254,-935.547,-32.227,-703.125
1571285610.971,183.594,-481.934,-689.453,78.125,-565.918
1571285610.975,138.672,-765.137,-817.383,9.766,-612.793
1571285610.979,83.008,-954.102,-993.164,-105.957,-713.867
1571285610.983,108.398,-965.332,-975.586,-70.312,-744.629
1571285610.987,143.555,-967.285,-906.250,37.109,-680.664
1571285610.991,85.938,-970.703,-839.844,-20.508,-611.816
1571285610.995,30.273,-970.215,-943.848,-128.906,-692.871
1571285610.999,62.500,-970.215,-993.652,-113.281,-756.348
1571285611.003,153.320,-970.215,-895.996,19.043,-664.062
1571285611.007,187.500,-970.215,-720.703,85.938,-564.941
1571285611.011,124.023,-970.215,-832.031,-21.973,-625.488
1571285611.014,74.707,-970.215,-994.141,-92.773,-731.934
1571285611.018,141.113,-970.215,-928.223,-2.441,-698.242
1571285611.022,218.262,-970.215,-862.793,99.609,-589.844
1571285611.026,173.828,-970.215,-922.852,12.695,-636.719
1571285611.030,137.207,-970.215,-978.027,-58.594,-762.695
1571285611.034,192.383,-970.215,-965.332,35.156,-740.234
1571285611.038,245.605,-970.215,-695.801,145.996,-599.609
1571285611.042,196.289,-970.215,-696.777,75.684,-586.914
1571285611.046,143.555,-970.215,-973.633,-39.551,-704.102
1571285611.050,182.617,-970.215,-994.629,-15.137,-738.770
1571285611.053,255.859,-969.238,-778.320,135.254,-632.812
1571285611.057,244.141,-968.262,-750.488,157.227,-612.305
1571285611.061,151.855,-963.379,-963.867,19.531,-699.707
1571285611.065,145.020,-888.184,-958.496,-43.945,-714.355
1571285611.069,247.559,-742.188,-880.371,75.684,-636.719
1571285611.073,277.344,-670.898,-777.832,163.086,-574.219
1571285611.077,213.867,-632.812,-765.137,64.453,-623.535
1571285611.081,204.590,-395.996,-841.309,21.484,-696.289
1571285611.085,256.348,-145.508,-706.055,91.797,-651.855
1571285611.089,280.762,-95.215,-638.672,164.551,-553.711
1571285611.093,213.379,425.293,-628.418,81.055,-596.191
1571285611.096,165.527,-994.629,-520.996,-39.062,-687.500
1571285611.100,198.730,994.141,-536.621,-3.418,-688.965
1571285611.104,254.395,986.816,-371.094,121.582,-598.145
1571285611.108,212.891,-997.559,-317.383,89.844,-594.238
1571285611.112,139.160,999.512,-497.070,-31.738,-687.500
1571285611.116,162.598,999.512,-800.293,-17.578,-743.652
1571285611.120,210.938,999.512,-904.297,74.219,-676.270
1571285611.124,174.316,999.512,-555.664,48.828,-601.074
1571285611.128,88.867,999.512,-540.527,-63.965,-666.504
1571285611.132,72.266,999.512,-860.352,-99.609,-738.281
1571285611.136,138.184,999.512,-816.406,-2.441,-689.453
1571285611.139,153.320,999.512,-440.918,48.828,-577.637
1571285611.143,50.781,999.512,-508.301,-87.402,-615.723
1571285611.147,-1.465,999.512,-902.832,-166.016,-735.352
1571285611.151,81.055,999.512,-834.961,-67.383,-681.152
1571285611.155,160.645,999.512,-500.000,54.199,-575.195
1571285611.159,109.375,999.512,-576.172,-36.133,-615.723
1571285611.163,64.941,999.512,-899.902,-153.320,-727.539
1571285611.167,111.816,999.512,-992.676,-84.961,-722.656
1571285611.171,145.996,999.512,-833.984,14.648,-620.117
1571285611.175,97.656,999.512,-741.211,-20.508,-599.121
1571285611.178,35.156,999.512,-886.719,-150.391,-683.105
1571285611.182,63.965,999.512,-1000.000,-162.598,-752.441
1571285611.186,155.273,999.512,-786.133,17.578,-652.344
1571285611.190,152.832,999.512,-559.082,64.941,-556.152
1571285611.194,85.938,999.512,-805.664,-68.359,-643.555
1571285611.198,86.426,999.512,-989.746,-125.000,-719.727
1571285611.202,164.551,999.512,-853.516,12.207,-671.875
1571285611.206,232.422,999.023,-673.828,149.414,-582.031
1571285611.210,188.477,999.023,-860.352,51.270,-622.559
1571285611.214,147.461,997.070,-1000.000,-41.016,-714.844
1571285611.218,214.844,990.234,-881.836,43.945,-671.387
1571285611.221,266.113,935.547,-823.730,151.367,-569.824
1571285611.225,215.332,901.855,-959.473,78.613,-618.652
1571285611.229,158.203,952.148,-980.957,-19.531,-694.336
1571285611.233,182.129,993.164,-820.801,15.137,-651.367
1571285611.237,230.957,999.512,-707.031,108.398,-595.703
1571285611.241,186.035,998.047,-703.125,72.754,-605.957
1571285611.245,110.840,999.512,-767.578,-44.434,-663.574
1571285611.249,112.305,999.512,-916.016,-60.547,-715.332
1571285611.253,179.199,-1000.000,-841.309,67.383,-657.227
1571285611.257,203.613,997.559,-801.758,109.863,-607.910
1571285611.261,127.441,997.070,-934.570,-26.367,-685.547
1571285611.264,83.008,999.023,-991.211,-95.703,-742.188
1571285611.268,137.207,897.949,-911.133,-18.066,-677.246
1571285611.272,161.133,729.492,-705.566,45.898,-602.051
1571285611.276,73.242,604.492,-779.785,-76.660,-610.352
1571285611.280,11.230,504.395,-955.078,-187.012,-665.527
1571285611.284,61.035,479.004,-989.746,-115.723,-705.078
1571285611.288,135.254,531.250,-853.516,12.207,-624.512
1571285611.292,95.703,569.824,-708.008,-50.293,-576.660
1571285611.296,8.789,639.648,-890.137,-188.477,-668.945
1571285611.300,20.020,771.973,-963.379,-172.363,-697.266
1571285611.303,84.473,843.262,-896.484,-61.523,-630.859
1571285611.307,58.594,876.465,-909.668,-65.918,-626.465
1571285611.311,-4.395,905.273,-935.059,-177.246,-682.129
1571285611.315,2.441,944.824,-986.328,-209.961,-737.793
1571285611.319,70.312,900.391,-883.301,-75.195,-679.688
1571285611.323,101.074,715.820,-677.734,-1.953,-594.727
1571285611.327,32.715,634.766,-796.875,-104.492,-632.324
1571285611.331,5.371,631.348,-991.211,-167.969,-727.051
1571285611.335,25.391,644.531,-955.078,-113.281,-702.148
1571285611.339,66.895,694.824,-726.562,-36.133,-599.121
1571285611.343,60.059,822.754,-750.000,-98.633,-617.188
1571285611.346,-5.859,950.684,-960.449,-183.594,-719.238
1571285611.350,15.625,-998.047,-986.328,-156.738,-737.793
1571285611.354,77.637,996.094,-833.984,-53.223,-617.188
1571285611.358,51.270,999.023,-825.195,-83.984,-632.324
1571285611.362,3.906,999.512,-973.633,-186.523,-733.398
1571285611.366,47.852,999.512,-875.000,-139.160,-702.637
1571285611.370,128.418,999.512,-683.594,8.789,-614.746
1571285611.374,143.066,999.512,-638.672,47.363,-577.148
1571285611.378,101.074,999.512,-719.238,-42.480,-630.371
1571285611.382,97.168,999.512,-810.547,-62.988,-674.805
1571285611.386,172.363,999.512,-775.879,30.762,-628.418
1571285611.389,193.359,999.512,-707.520,88.379,-569.824
1571285611.393,121.582,999.512,-770.020,-9.766,-621.582
1571285611.397,70.312,999.512,-907.715,-98.145,-686.035
1571285611.401,124.512,999.512,-990.234,-20.020,-690.430
1571285611.405,212.402,999.512,-928.223,79.590,-631.348
1571285611.409,157.715,999.512,-806.152,20.020,-625.488
1571285611.413,101.562,999.512,-861.816,-52.734,-687.988
1571285611.417,131.836,999.512,-989.258,-33.691,-706.055
1571285611.421,173.340,999.512,-839.844,64.453,-629.395
1571285611.425,158.691,999.512,-681.152,51.270,-588.379
1571285611.428,82.031,999.512,-866.699,-50.781,-682.617
1571285611.432,86.426,999.512,-1000.000,-48.340,-727.051
1571285611.436,173.828,999.512,-864.746,64.453,-635.742
1571285611.440,197.266,999.512,-656.738,92.285,-558.105
1571285611.444,156.738,999.512,-840.820,-2.930,-625.977
1571285611.448,156.250,999.512,-1000.000,-7.324,-735.840
1571285611.452,217.773,999.512,-899.902,109.863,-703.125
1571285611.456,258.789,999.512,-679.199,183.594,-597.168
1571285611.460,228.516,999.512,-729.004,104.492,-633.301
1571285611.464,212.891,999.512,-968.262,38.086,-721.191
1571285611.468,260.254,999.512,-925.781,99.609,-692.871
1571285611.471,312.988,999.512,-595.215,200.195,-567.383
1571285611.475,277.344,999.512,-626.465,147.949,-582.031
1571285611.479,230.957,999.512,-957.520,31.738,-694.336
1571285611.483,269.043,999.512,-1000.000,67.383,-723.145
1571285611.487,307.617,999.512,-789.062,207.031,-632.324
1571285611.491,232.422,999.512,-762.207,131.836,-585.449
1571285611.495,131.836,999.512,-978.027,-28.320,-675.781
1571285611.499,106.445,999.512,-980.469,-66.406,-709.961
1571285611.503,177.246,999.512,-939.941,48.828,-654.785
1571285611.507,200.195,999.512,-909.668,112.305,-615.723
1571285611.511,121.094,999.512,-962.402,-6.836,-669.922
1571285611.514,103.516,999.512,-980.469,-49.805,-721.191
1571285611.518,172.852,999.512,-945.801,23.926,-697.754
1571285611.522,220.215,999.512,-844.727,113.281,-614.746
1571285611.526,158.203,999.512,-850.586,59.082,-632.324
1571285611.530,109.863,999.512,-962.891,-40.039,-703.613
1571285611.534,154.297,999.512,-932.617,28.320,-682.617
1571285611.538,208.496,999.512,-902.344,139.648,-606.934
1571285611.542,199.219,999.512,-958.496,99.121,-618.164
1571285611.546,167.969,999.512,-958.984,20.508,-690.918
1571285611.550,186.523,999.512,-967.285,36.621,-701.660
1571285611.553,256.348,999.512,-965.332,159.180,-651.367
1571285611.557,262.207,999.512,-939.453,155.762,-628.418
1571285611.561,177.246,999.512,-950.195,35.645,-664.551
1571285611.565,168.457,999.512,-988.770,18.555,-722.656
1571285611.569,247.559,999.512,-909.180,139.160,-679.688
1571285611.573,226.562,999.512,-722.168,145.996,-593.262
1571285611.577,132.812,999.512,-784.180,0.488,-618.164
1571285611.581,97.656,999.512,-949.707,-62.500,-701.660
1571285611.585,131.836,999.512,-975.098,-1.465,-706.055
1571285611.589,173.340,999.512,-847.656,95.215,-593.750
1571285611.593,126.953,999.512,-800.293,28.320,-588.379
1571285611.596,80.566,999.512,-932.129,-71.289,-708.008
1571285611.600,125.488,999.512,-990.723,-28.809,-739.258
1571285611.604,204.102,999.512,-773.438,102.539,-611.816
1571285611.608,184.570,999.512,-645.508,81.055,-574.707
1571285611.612,98.633,995.117,-875.488,-50.781,-674.805
1571285611.616,120.605,-994.141,-1000.000,-44.922,-715.332
1571285611.620,209.473,951.172,-849.121,100.098,-629.883
1571285611.624,218.262,829.102,-666.992,119.141,-557.617
1571285611.628,161.133,724.121,-848.633,8.301,-635.254
1571285611.632,143.066,685.059,-998.047,-43.945,-711.426
1571285611.636,187.988,694.336,-953.125,52.246,-638.672
1571285611.639,196.289,675.293,-803.223,120.605,-559.570
1571285611.643,137.695,539.551,-866.211,-3.418,-640.625
1571285611.647,102.051,416.992,-1000.000,-78.613,-726.074
1571285611.651,176.758,410.156,-934.082,20.020,-674.316
1571285611.655,214.844,289.062,-831.543,116.699,-595.703
1571285611.659,136.230,105.957,-921.875,7.812,-648.926
1571285611.663,81.055,106.445,-986.328,-96.680,-736.816
1571285611.667,112.305,163.086,-962.402,-55.664,-730.469
1571285611.671,191.406,88.379,-966.309,49.316,-649.902
1571285611.675,114.258,-44.922,-968.262,8.789,-628.418
1571285611.678,3.418,-88.867,-970.703,-130.859,-708.496
1571285611.682,33.691,-7.324,-969.727,-127.441,-751.465
1571285611.686,105.469,60.059,-970.215,-17.578,-690.430
1571285611.690,113.281,165.039,-970.215,-11.719,-635.742
1571285611.694,60.547,218.262,-969.238,-120.117,-685.547
1571285611.698,62.500,136.719,-961.426,-172.363,-732.910
1571285611.702,120.605,187.500,-995.117,-70.312,-678.223
1571285611.706,153.809,337.891,-845.215,18.066,-594.238
1571285611.710,88.379,356.445,-741.699,-80.566,-607.910
1571285611.714,32.715,356.934,-912.109,-163.574,-677.246
1571285611.718,35.156,382.812,-971.191,-147.461,-684.570
1571285611.721,38.574,403.809,-801.270,-80.566,-615.234
1571285611.725,-32.715,349.609,-821.289,-160.156,-601.562
1571285611.729,-89.844,245.605,-978.027,-282.715,-694.336
1571285611.733,-27.832,77.148,-985.840,-227.539,-756.348
1571285611.737,61.523,-38.574,-884.277,-83.496,-677.734
1571285611.741,50.781,-20.020,-698.242,-67.383,-579.590
1571285611.745,-9.277,4.395,-829.102,-149.414,-646.484
1571285611.749,16.113,31.738,-1000.000,-147.461,-728.516
1571285611.753,116.211,60.547,-857.910,-16.602,-659.180
1571285611.757,140.137,88.867,-634.277,37.109,-563.477
1571285611.761,50.293,65.430,-795.898,-61.035,-624.512
1571285611.764,20.508,50.293,-995.117,-125.488,-712.891
1571285611.768,99.121,202.637,-934.570,-75.684,-671.387
1571285611.772,143.555,306.152,-904.297,0.000,-589.355
1571285611.776,82.031,482.422,-957.520,-90.820,-635.742
1571285611.780,49.316,798.340,-966.309,-184.570,-724.609
1571285611.784,94.238,942.871,-988.770,-124.512,-721.191
1571285611.788,162.598,960.938,-887.207,0.000,-631.348
1571285611.792,125.977,-999.512,-838.379,-36.621,-626.465
1571285611.796,42.969,999.023,-974.121,-142.090,-720.703
1571285611.800,69.336,999.023,-963.867,-111.816,-729.492
1571285611.803,131.836,999.512,-679.199,8.301,-633.789
1571285611.807,128.418,999.512,-497.559,15.137,-590.332
1571285611.811,52.246,999.512,-667.480,-99.121,-689.453
1571285611.815,8.301,999.512,-727.539,-151.367,-744.141
1571285611.819,74.219,999.512,-582.031,-66.406,-666.016
1571285611.823,99.609,999.512,-572.754,-1.953,-592.773
1571285611.827,19.531,-1000.000,-708.008,-94.727,-664.062
1571285611.831,-1.953,996.582,-644.043,-166.992,-735.840
1571285611.835,72.266,991.211,-593.262,-75.195,-709.473
1571285611.839,111.328,-989.746,-497.070,24.414,-633.301
1571285611.843,74.219,788.086,-535.156,-36.133,-633.301
1571285611.846,58.105,460.449,-754.395,-106.445,-714.844
1571285611.850,88.379,326.660,-831.543,-84.473,-713.867
1571285611.854,143.066,193.359,-706.055,-1.953,-630.859
1571285611.858,118.164,12.207,-579.590,-37.598,-605.957
1571285611.862,65.430,-192.383,-797.852,-138.184,-670.410
1571285611.866,85.938,-471.191,-986.816,-135.742,-759.766
1571285611.870,144.043,-648.926,-938.965,-28.809,-715.332
1571285611.874,145.996,-674.316,-895.996,-21.973,-636.719
1571285611.878,84.473,-687.012,-958.008,-133.789,-697.266
1571285611.882,72.266,-770.020,-976.074,-160.156,-792.480
1571285611.886,138.672,-884.277,-966.797,-43.457,-756.836
1571285611.889,151.855,-932.129,-970.703,28.320,-666.504
1571285611.893,82.031,-986.816,-969.238,-59.082,-735.840
1571285611.897,48.340,-889.648,-964.844,-102.051,-797.852
1571285611.901,86.426,-680.176,-987.305,-52.246,-750.977
1571285611.905,125.977,-462.891,-870.117,10.254,-657.715
1571285611.909,65.918,-169.434,-809.082,-55.176,-670.898
1571285611.913,-8.301,-164.551,-955.566,-155.762,-762.207
1571285611.917,8.789,-278.320,-977.051,-148.926,-790.039
1571285611.921,61.035,-439.453,-964.844,-65.918,-738.281
1571285611.925,20.020,-814.453,-971.191,-108.398,-718.750
1571285611.928,-34.180,-994.141,-970.215,-196.289,-796.875
1571285611.932,-12.695,-903.320,-970.215,-188.477,-856.934
1571285611.936,19.043,-1000.000,-970.215,-74.707,-770.508
1571285611.940,-21.484,-598.633,-970.215,-39.062,-703.613
1571285611.944,-132.812,732.910,-970.215,-187.500,-786.621
1571285611.948,-156.250,-993.652,-970.215,-252.441,-833.496
1571285611.952,-53.223,-958.984,-969.727,-145.508,-775.879
1571285611.956,20.020,531.250,-969.727,-43.945,-720.215
1571285611.960,-15.137,-663.086,-970.215,-100.098,-771.484
1571285611.964,-25.879,-604.980,-970.215,-164.551,-842.285
1571285611.968,37.109,-720.215,-970.215,-106.445,-809.570
1571285611.971,99.121,-1000.000,-970.215,0.000,-717.773
1571285611.975,53.711,-955.078,-970.215,-28.809,-716.309
1571285611.979,-26.855,-964.355,-970.215,-119.141,-784.180
1571285611.983,-10.742,-945.801,-970.215,-102.539,-792.969
1571285611.987,57.129,-1000.000,-970.215,0.488,-684.570
1571285611.991,54.199,-426.758,-970.215,-41.016,-627.930
1571285611.995,-23.438,284.668,-970.215,-155.762,-664.551
1571285611.999,-22.461,-37.598,-970.215,-145.020,-656.250
1571285612.003,80.078,-729.492,-970.215,-14.160,-597.656
1571285612.007,108.887,-996.582,-970.215,59.082,-551.270
1571285612.011,21.973,-948.242,-970.215,-60.059,-596.191
1571285612.014,-1.953,-970.215,-970.215,-161.133,-662.598
1571285612.018,94.238,-970.703,-970.215,-104.004,-647.949
1571285612.022,123.535,-970.215,-970.215,6.348,-566.895
1571285612.026,15.137,-970.215,-970.703,-66.895,-596.680
1571285612.030,-45.410,-970.215,-963.867,-184.082,-678.711
1571285612.034,17.090,-970.215,-986.328,-99.121,-646.973
1571285612.038,102.051,-970.215,-910.156,44.922,-541.504
1571285612.042,26.855,-970.215,-851.562,-12.207,-528.320
1571285612.046,-77.637,-970.215,-952.148,-139.648,-607.422
1571285612.050,-100.586,-970.215,-995.117,-160.645,-625.977
1571285612.053,-105.469,-970.215,-860.352,-67.383,-536.133
1571285612.057,-113.770,-970.215,-771.973,-68.359,-489.746
1571285612.061,-174.316,-970.215,-916.016,-156.250,-583.496
1571285612.065,-147.949,-970.215,-983.398,-129.883,-625.977
1571285612.069,-25.391,-970.215,-954.102,-16.113,-562.988
1571285612.073,-10.254,-971.680,-742.676,77.637,-475.098
1571285612.077,-80.566,-968.750,-791.992,5.371,-508.789
1571285612.081,-112.793,-915.039,-994.141,-36.621,-589.844
1571285612.085,-56.641,-1000.000,-927.246,49.316,-540.039
1571285612.089,-26.367,-195.801,-562.012,115.723,-417.969
1571285612.093,-76.660,-977.539,-305.664,18.555,-437.500
1571285612.096,-83.496,964.844,-342.285,-75.684,-521.484
1571285612.100,14.160,998.047,-327.148,4.395,-516.602
1571285612.104,92.773,16.602,-281.738,75.684,-443.359
1571285612.108,37.598,-1000.000,-635.254,-13.672,-465.820
1571285612.112,-62.500,-946.777,-964.844,-115.723,-581.055
1571285612.116,-41.992,-958.496,-785.645,-107.422,-591.797
1571285612.120,35.645,-941.406,-510.254,16.602,-490.234
1571285612.124,-8.301,-987.793,-544.922,9.277,-467.285
1571285612.128,-109.863,-883.301,-812.500,-125.000,-566.406
1571285612.132,-127.441,305.664,-658.203,-98.145,-605.469
1571285612.136,4.883,-935.547,-337.891,76.660,-574.219
1571285612.139,7.324,929.199,-112.793,87.891,-511.719
1571285612.143,-125.977,990.723,-53.223,-61.523,-526.855
1571285612.147,-191.406,-997.559,-339.355,-133.789,-618.652
1571285612.151,-185.059,-187.012,-638.184,-94.238,-597.168
1571285612.155,-194.824,-1000.000,-686.523,-36.133,-518.066
1571285612.159,-280.273,-923.340,-535.156,-96.680,-519.043
1571285612.163,-302.246,-964.844,-606.934,-130.859,-584.473
1571285612.167,-221.680,-971.191,-771.484,-7.812,-620.605
1571285612.171,-47.852,-966.309,-495.605,161.621,-521.484
1571285612.175,-62.500,-912.598,-55.664,153.809,-433.594
1571285612.178,-153.320,-1000.000,-56.152,72.754,-476.074
1571285612.182,-52.734,83.984,-123.047,145.996,-506.348
1571285612.186,-114.746,512.695,288.086,142.578,-420.410
1571285612.190,-121.582,-966.797,572.266,189.453,-342.773
1571285612.194,-116.699,-1000.000,203.125,227.051,-421.387
1571285612.198,-245.117,-932.617,-243.164,89.844,-483.887
1571285612.202,-255.859,-914.551,-226.562,118.164,-442.383
1571285612.206,-261.719,-1000.000,342.285,196.777,-311.035
1571285612.210,-329.590,-558.594,532.715,147.461,-274.414
1571285612.214,-486.328,860.840,754.883,48.828,-250.000
1571285612.218,-553.223,969.727,997.559,64.453,-158.203
1571285612.221,-506.836,-861.328,-984.863,143.066,-43.945
1571285612.225,-544.922,370.605,948.242,47.363,6.348
1571285612.229,-648.926,-495.117,594.238,-99.609,-13.672
1571285612.233,-692.383,825.684,711.914,-103.516,-3.418
1571285612.237,-645.996,954.102,-988.770,-19.043,45.410
1571285612.241,-599.121,-988.281,-997.559,-4.883,27.832
1571285612.245,-699.707,350.098,668.457,-137.207,-110.352
1571285612.249,-812.988,-1000.000,355.957,-237.305,-181.152
1571285612.253,-856.445,-436.035,542.480,-309.570,-144.531
1571285612.257,-925.781,930.176,790.039,-456.543,-133.789
1571285612.261,-967.285,-977.051,749.512,-693.848,-235.352
1571285612.264,-973.633,954.590,634.277,-892.090,-304.688
1571285612.268,-943.359,-990.234,655.762,-758.301,-294.922
1571285612.272,-776.855,999.512,797.852,-486.328,-232.910
1571285612.276,-654.785,999.512,739.258,-478.027,-275.391
1571285612.280,-548.340,999.512,482.910,-479.004,-405.762
1571285612.284,-372.070,999.512,428.223,-339.844,-410.645
1571285612.288,-233.398,999.512,424.805,-141.113,-352.051
1571285612.292,-179.199,999.512,217.773,-137.695,-394.531
1571285612.296,-145.020,999.512,42.480,-170.898,-471.680
1571285612.300,-42.480,999.512,16.113,-84.473,-512.207
1571285612.303,24.902,999.512,-175.293,-10.742,-505.371
1571285612.307,-8.301,999.512,-236.816,-52.246,-496.582
1571285612.311,-64.941,999.512,-300.781,-148.438,-576.172
1571285612.315,-39.551,999.512,-635.742,-134.766,-655.273
1571285612.319,59.082,999.512,-628.418,-15.625,-597.656
1571285612.323,148.926,999.512,-428.711,75.195,-525.391
1571285612.327,153.809,999.512,-562.012,43.945,-561.035
1571285612.331,140.625,999.512,-830.078,20.020,-624.512
1571285612.335,217.285,999.512,-977.539,133.301,-655.762
1571285612.339,294.922,999.512,-964.355,233.398,-604.492
1571285612.343,274.414,999.512,-967.773,177.246,-621.094
1571285612.346,285.156,999.512,-970.703,134.766,-702.637
1571285612.350,373.047,999.512,-970.215,180.176,-728.516
1571285612.354,438.965,999.512,-970.215,271.973,-637.695
1571285612.358,373.047,999.512,-970.215,227.539,-604.004
1571285612.362,270.020,999.512,-970.215,88.867,-702.148
1571285612.366,290.039,999.512,-970.215,74.219,-774.414
1571285612.370,395.508,-999.512,-970.215,199.219,-717.285
1571285612.374,404.785,996.582,-970.215,250.000,-676.758
1571285612.378,331.055,982.910,-970.215,151.855,-752.441
1571285612.382,277.832,-982.910,-970.215,61.035,-808.105
1571285612.386,309.570,676.270,-970.215,119.629,-761.230
1571285612.389,354.004,143.555,-970.215,218.750,-675.293
1571285612.393,328.125,571.777,-969.727,169.434,-726.074
1571285612.397,280.273,-958.008,-970.703,97.656,-802.246
1571285612.401,283.203,992.676,-970.215,114.746,-745.605
1571285612.405,349.121,198.242,-961.914,202.637,-633.301
1571285612.409,363.770,-195.312,-963.867,205.078,-656.738
1571285612.413,382.324,771.973,-969.727,145.996,-746.094
1571285612.417,482.910,-940.430,-975.098,238.770,-745.605
1571285612.421,590.332,959.473,-847.656,413.086,-663.574
1571285612.425,591.797,-995.605,-736.816,390.625,-629.395
1571285612.428,546.875,999.512,-889.160,280.273,-716.797
1571285612.432,523.438,999.512,-979.980,260.742,-784.180
1571285612.436,563.477,999.512,-946.289,323.730,-729.004
1571285612.440,562.012,999.512,-934.082,322.754,-668.457
1571285612.444,459.473,999.512,-802.734,240.723,-683.105
1571285612.448,437.500,999.512,-716.309,210.938,-699.707
1571285612.452,504.883,999.512,-767.578,255.371,-686.523
1571285612.456,521.973,999.512,-599.121,332.031,-613.770
1571285612.460,469.238,999.512,-515.137,276.367,-640.137
1571285612.464,419.922,999.512,-783.203,160.645,-725.098
1571285612.468,448.730,999.512,-840.332,197.266,-702.148
1571285612.471,510.742,999.512,-546.387,304.199,-632.324
1571285612.475,462.891,999.512,-576.660,265.137,-645.508
1571285612.479,373.047,999.512,-760.742,168.457,-710.449
1571285612.483,415.039,999.512,-903.809,205.566,-755.371
1571285612.487,449.707,999.512,-793.457,270.508,-689.453
1571285612.491,339.844,999.512,-439.941,157.715,-632.324
1571285612.495,249.512,999.512,-632.812,35.645,-721.191
1571285612.499,263.672,999.512,-856.445,37.598,-758.301
1571285612.503,367.676,999.512,-621.094,143.555,-684.570
1571285612.507,398.438,999.512,-302.246,212.891,-617.676
1571285612.511,316.895,999.512,-437.500,112.793,-682.129
1571285612.514,264.648,999.512,-736.816,25.879,-787.598
1571285612.518,306.641,999.512,-622.070,41.992,-752.930
1571285612.522,303.223,999.512,-448.730,59.570,-673.828
1571285612.526,220.215,-996.094,-617.188,-10.742,-724.121
1571285612.530,185.059,971.680,-941.406,-68.359,-830.566
1571285612.534,236.328,-990.723,-756.836,-29.297,-813.965
1571285612.538,296.875,909.180,-333.984,64.453,-708.496
1571285612.542,229.004,-272.461,-528.809,-11.230,-689.941
1571285612.546,143.555,-651.855,-982.422,-124.023,-775.391
1571285612.550,175.781,284.180,-925.293,-96.191,-814.453
1571285612.553,253.418,249.023,-578.613,3.418,-730.469
1571285612.557,273.438,-155.273,-494.141,21.484,-685.547
1571285612.561,233.887,-183.105,-761.230,-63.477,-792.480
1571285612.565,268.555,515.137,-739.258,-62.500,-853.516
1571285612.569,390.625,-996.094,-452.148,74.707,-794.922
1571285612.573,408.691,924.805,-438.477,132.812,-749.023
1571285612.577,315.918,994.629,-640.137,8.301,-822.754
1571285612.581,270.508,-996.582,-611.816,-73.242,-889.160
1571285612.585,328.125,997.559,-458.496,-30.273,-852.051
1571285612.589,355.469,999.512,-339.355,24.902,-782.715
1571285612.593,280.762,999.512,-332.520,-51.270,-791.016
1571285612.596,207.031,999.512,-419.922,-144.043,-832.520
1571285612.600,222.656,999.512,-489.258,-120.117,-822.754
1571285612.604,236.328,999.512,-360.352,-72.266,-740.723
1571285612.608,165.527,999.512,-246.582,-144.043,-715.820
1571285612.612,125.977,999.512,-435.059,-222.168,-791.016
1571285612.616,160.645,999.512,-740.234,-206.055,-836.426
1571285612.620,222.168,999.512,-862.305,-112.305,-786.133
1571285612.624,218.750,999.512,-472.168,-76.660,-695.312
1571285612.628,179.199,999.512,-274.902,-143.555,-708.496
1571285612.632,180.176,999.512,-591.797,-184.570,-794.922
1571285612.636,250.488,999.512,-634.277,-86.426,-772.949
1571285612.639,282.227,999.512,-264.648,0.488,-675.293
1571285612.643,216.309,999.512,-237.793,-111.328,-706.543
1571285612.647,193.359,999.512,-562.500,-187.500,-801.758
1571285612.651,252.930,999.512,-559.570,-126.465,-777.344
1571285612.655,304.688,999.512,-209.473,-29.297,-670.898
1571285612.659,260.742,999.512,-198.730,-77.637,-683.105
1571285612.663,217.285,999.512,-582.031,-181.152,-772.949
1571285612.667,261.230,999.512,-727.539,-148.438,-775.879
1571285612.671,316.895,999.512,-389.160,-46.875,-694.336
1571285612.675,334.473,-1000.000,-191.406,-38.574,-680.664
1571285612.678,327.637,996.094,-606.934,-108.887,-770.020
1571285612.682,348.145,-998.047,-819.824,-122.070,-830.566
1571285612.686,403.320,973.633,-375.488,-18.066,-737.305
1571285612.690,423.340,856.445,-250.000,10.254,-660.156
1571285612.694,373.047,680.176,-558.105,-102.539,-737.793
1571285612.698,329.102,485.840,-695.801,-188.477,-789.551
1571285612.702,346.191,492.676,-633.789,-156.250,-752.441
1571285612.706,337.891,517.090,-483.398,-127.441,-659.180
1571285612.710,270.996,575.684,-678.711,-212.891,-679.199
1571285612.714,242.676,704.590,-872.559,-252.441,-749.512
1571285612.718,317.871,752.930,-659.180,-171.387,-715.332
1571285612.721,384.766,778.320,-511.230,-65.918,-633.789
1571285612.725,333.496,692.871,-770.508,-169.922,-646.484
1571285612.729,266.602,666.992,-890.137,-298.828,-727.051
1571285612.733,285.156,767.090,-745.605,-246.094,-719.238
1571285612.737,336.914,709.473,-645.508,-165.527,-632.812
1571285612.741,310.547,515.137,-628.418,-173.340,-610.352
1571285612.745,270.508,495.117,-792.480,-242.188,-682.129
1571285612.749,305.664,459.961,-988.770,-227.539,-730.469
1571285612.753,391.113,415.039,-872.070,-111.328,-664.551
1571285612.757,413.574,316.895,-771.484,-56.641,-601.562
1571285612.761,334.961,220.215,-913.086,-151.855,-664.062
1571285612.764,304.688,188.477,-975.586,-226.074,-711.426
1571285612.768,375.977,6.836,-978.516,-151.855,-686.523
1571285612.772,417.480,-309.082,-893.066,-79.102,-616.211
1571285612.776,362.305,-583.496,-872.559,-146.484,-607.422
1571285612.780,327.148,-750.977,-974.609,-235.840,-679.688
1571285612.784,383.301,-900.879,-980.957,-211.914,-684.082
1571285612.788,427.734,-961.426,-918.945,-132.812,-599.121
1571285612.792,358.887,-966.797,-895.020,-215.820,-570.801
1571285612.796,277.832,-967.285,-970.703,-375.488,-648.926
1571285612.800,293.945,-975.586,-972.168,-421.875,-702.148
1571285612.803,342.285,-942.383,-967.773,-358.398,-642.090
1571285612.807,320.801,-864.258,-970.703,-432.617,-587.891
1571285612.811,227.539,-891.113,-969.238,-687.500,-669.922
1571285612.815,199.707,-941.895,-970.215,-879.395,-730.957
1571285612.819,266.113,-933.594,-972.656,-962.402,-653.809
1571285612.823,308.105,-935.547,-938.965,-968.262,-579.102
1571285612.827,252.930,-873.535,-946.777,-968.750,-646.484
1571285612.831,216.797,-781.250,-974.609,-970.703,-736.816
1571285612.835,287.109,-863.281,-970.703,-970.215,-686.035
1571285612.839,346.191,-974.609,-959.473,-970.215,-583.008
1571285612.843,294.434,-968.262,-958.984,-969.727,-617.188
1571285612.846,240.723,-967.773,-972.168,-969.727,-720.215
1571285612.850,264.160,-970.703,-970.215,-970.215,-716.309
1571285612.854,311.523,-970.215,-967.285,-970.215,-617.188
1571285612.858,273.926,-970.215,-966.797,-970.215,-617.676
1571285612.862,204.102,-970.215,-968.750,-970.215,-707.031
1571285612.866,226.074,-970.215,-977.051,-970.215,-694.824
1571285612.870,331.055,-970.215,-932.617,-970.215,-605.957
1571285612.874,363.770,-970.215,-916.992,-970.703,-555.176
1571285612.878,289.551,-970.215,-961.914,-965.820,-606.934
1571285612.882,269.531,-970.215,-962.891,-976.562,-666.016
1571285612.886,318.359,-970.215,-984.863,-942.383,-631.348
1571285612.889,322.266,-969.727,-884.277,-831.543,-529.297
1571285612.893,263.184,-970.215,-803.223,-803.223,-506.836
1571285612.897,231.445,-970.215,-932.129,-772.461,-584.473
1571285612.901,294.434,-970.215,-990.723,-591.797,-601.562
1571285612.905,354.492,-970.215,-931.152,-418.945,-527.832
1571285612.909,289.062,-967.285,-747.070,-406.250,-507.324
1571285612.913,220.215,-977.539,-766.602,-413.086,-584.961
1571285612.917,262.207,-943.848,-948.730,-311.035,-615.723
1571285612.921,312.500,-917.969,-738.281,-125.977,-524.414
1571285612.925,282.227,-967.773,-529.785,-90.332,-508.789
1571285612.928,214.355,-972.656,-715.820,-190.430,-595.703
1571285612.932,170.898,-968.262,-916.504,-179.688,-628.906
1571285612.936,215.820,-970.703,-744.141,4.883,-558.105
1571285612.940,250.000,-969.727,-488.770,102.051,-514.648
1571285612.944,187.500,-968.262,-706.543,42.480,-564.941
1571285612.948,155.273,-977.051,-968.750,34.668,-650.879
1571285612.952,192.871,-924.805,-839.844,105.469,-644.043
1571285612.956,211.914,-917.969,-414.551,169.922,-525.391
1571285612.960,153.320,-974.609,-345.703,90.332,-538.086
1571285612.964,63.477,-969.727,-661.621,-21.484,-634.277
1571285612.968,100.586,-968.750,-643.066,52.246,-641.113
1571285612.971,189.453,-970.215,-390.625,214.844,-559.082
1571285612.975,158.203,-970.215,-457.520,188.965,-549.316
1571285612.979,103.516,-970.215,-686.035,113.281,-610.840
1571285612.983,124.512,-970.215,-772.461,152.832,-660.645
1571285612.987,184.082,-970.215,-558.105,275.879,-591.797
1571285612.991,146.973,-970.215,-579.590,266.113,-543.457
1571285612.995,36.133,-970.215,-930.664,125.000,-629.883
1571285612.999,-5.371,-970.215,-895.020,82.520,-658.691
1571285613.003,52.246,-970.703,-532.715,163.574,-559.570
1571285613.007,62.500,-964.355,-437.012,153.320,-511.719
1571285613.011,23.438,-979.004,-658.691,57.129,-598.633
1571285613.014,51.270,-928.711,-685.547,67.871,-641.113
1571285613.018,149.902,-785.645,-515.625,183.594,-589.355
1571285613.022,196.777,-780.273,-369.141,284.668,-529.297
1571285613.026,118.652,-858.887,-416.992,176.758,-540.527
1571285613.030,83.008,-932.129,-698.730,76.172,-623.047
1571285613.034,122.070,-970.215,-757.324,130.371,-635.254
1571285613.038,165.039,-969.727,-570.312,211.914,-553.223
1571285613.042,155.762,-961.914,-626.953,192.383,-552.246
1571285613.046,109.863,-898.926,-733.887,117.676,-608.398
1571285613.050,107.422,-850.586,-747.559,96.680,-635.742
1571285613.053,151.367,-827.637,-827.637,195.312,-600.098
1571285613.057,122.070,-793.457,-713.379,188.965,-546.875
1571285613.061,56.152,-735.840,-636.719,83.984,-589.844
1571285613.065,65.430,-713.867,-793.945,42.480,-639.160
1571285613.069,125.000,-796.875,-718.262,164.551,-590.820
1571285613.073,159.668,-836.426,-437.500,251.465,-510.742
1571285613.077,111.816,-827.637,-491.699,125.977,-560.547
1571285613.081,56.641,-810.547,-762.695,19.531,-634.277
1571285613.085,69.824,-803.711,-842.285,25.391,-613.281
1571285613.089,87.402,-821.289,-607.422,84.473,-522.461
1571285613.093,62.988,-821.777,-523.438,20.996,-517.578
1571285613.096,26.855,-864.258,-777.832,-85.449,-626.465
1571285613.100,44.922,-848.633,-958.008,-61.523,-675.293
1571285613.104,103.027,-803.711,-592.285,30.273,-572.266
1571285613.108,56.641,-906.738,-415.039,-20.508,-561.035
1571285613.112,-38.574,-972.656,-792.480,-168.457,-684.082
1571285613.116,-42.480,-972.656,-950.195,-231.934,-707.031
1571285613.120,14.160,-924.316,-662.598,-133.301,-597.168
1571285613.124,11.230,-768.066,-489.258,-113.770,-551.270
1571285613.128,-59.082,-683.105,-729.004,-242.676,-622.070
1571285613.132,-44.922,-540.527,-937.500,-272.461,-657.715
1571285613.136,24.414,-435.547,-793.945,-162.109,-599.121
1571285613.139,27.344,-485.352,-472.168,-117.188,-518.066
1571285613.143,-18.066,-445.801,-654.297,-238.281,-564.453
1571285613.147,-60.059,-440.430,-929.688,-305.664,-656.250
1571285613.151,-3.418,-521.484,-597.656,-225.586,-612.793
1571285613.155,65.430,-548.828,-326.172,-117.676,-519.531
1571285613.159,20.020,-469.238,-406.738,-190.918,-531.250
1571285613.163,-9.766,-379.395,-542.480,-307.617,-606.934
1571285613.167,-16.602,-399.902,-519.043,-288.086,-617.188
1571285613.171,-12.695,-435.059,-404.785,-219.727,-544.922
1571285613.175,-44.922,-430.664,-367.676,-296.387,-515.137
1571285613.178,-118.164,-463.379,-611.816,-449.219,-583.984
1571285613.182,-129.395,-475.098,-785.645,-500.977,-629.883
1571285613.186,-45.898,-442.871,-636.230,-392.090,-577.148
1571285613.190,-32.227,-404.297,-706.543,-376.953,-548.828
1571285613.194,-115.723,-334.961,-698.730,-518.555,-599.121
1571285613.198,-133.789,-215.820,-703.613,-559.570,-650.391
1571285613.202,-76.660,-103.516,-782.227,-480.469,-628.906
1571285613.206,-25.879,14.648,-467.773,-462.891,-542.969
1571285613.210,-50.293,66.895,-304.199,-580.566,-549.805
1571285613.214,-69.336,84.473,-552.246,-650.391,-640.625
1571285613.218,-27.344,226.562,-670.410,-589.355,-646.484
1571285613.221,18.066,261.230,-435.059,-484.375,-576.172
1571285613.225,-13.184,126.465,-472.656,-536.133,-588.379
1571285613.229,-62.012,-7.812,-713.867,-665.039,-645.508
1571285613.233,-33.203,-111.328,-890.137,-666.016,-684.082
1571285613.237,37.109,-154.785,-775.879,-561.035,-622.070
1571285613.241,43.945,-215.820,-445.312,-584.473,-547.852
1571285613.245,-32.227,-329.590,-647.949,-751.953,-616.699
1571285613.249,-62.012,-344.727,-965.332,-821.289,-690.430
1571285613.253,-11.230,-328.613,-798.828,-711.914,-628.418
1571285613.257,0.488,-400.879,-562.500,-649.902,-554.199
1571285613.261,-63.477,-425.293,-743.652,-723.633,-626.953
1571285613.264,-97.656,-410.645,-917.969,-758.789,-687.988
1571285613.268,-38.574,-411.621,-782.715,-645.996,-659.180
1571285613.272,-6.348,-402.344,-594.727,-535.645,-581.543
1571285613.276,-67.383,-380.371,-651.367,-609.375,-574.219
1571285613.280,-91.309,-322.754,-924.805,-664.062,-675.781
1571285613.284,-47.852,-281.250,-759.277,-583.008,-678.711
1571285613.288,19.043,-288.574,-297.852,-458.984,-574.707
1571285613.292,-22.949,-277.832,-353.516,-529.297,-585.938
1571285613.296,-84.473,-289.062,-608.398,-657.227,-675.293
1571285613.300,-59.082,-339.355,-543.945,-634.766,-686.035
1571285613.303,-9.277,-334.961,-316.895,-490.723,-622.070
1571285613.307,-24.414,-333.984,-261.230,-469.727,-612.305
1571285613.311,-117.676,-415.039,-530.762,-652.344,-694.824
1571285613.315,-145.020,-474.121,-659.180,-727.539,-718.262
1571285613.319,-102.051,-461.426,-508.789,-636.230,-663.086
1571285613.323,-96.191,-447.754,-568.848,-624.023,-634.766
1571285613.327,-168.457,-468.262,-722.656,-770.508,-692.383
1571285613.331,-200.195,-476.074,-604.980,-874.023,-738.281
1571285613.335,-145.020,-475.098,-507.812,-781.250,-720.215
1571285613.339,-104.492,-468.750,-364.258,-646.973,-649.414
1571285613.343,-145.996,-444.336,-280.273,-697.266,-646.973
1571285613.346,-184.082,-484.375,-476.074,-780.762,-741.699
1571285613.350,-147.949,-545.898,-627.930,-689.941,-754.395
1571285613.354,-79.590,-551.270,-458.008,-478.516,-659.668
1571285613.358,-116.211,-534.180,-287.109,-489.746,-624.023
1571285613.362,-187.988,-482.422,-489.258,-609.375,-714.355
1571285613.366,-186.035,-488.770,-833.984,-624.023,-763.672
1571285613.370,-134.277,-516.113,-849.609,-527.344,-699.219
1571285613.374,-156.250,-513.672,-672.852,-518.066,-660.156
1571285613.378,-249.023,-553.711,-710.938,-655.273,-708.496
1571285613.382,-291.016,-600.586,-894.043,-720.703,-781.250
1571285613.386,-244.141,-609.863,-918.945,-607.422,-750.488
1571285613.389,-212.402,-570.312,-583.984,-505.859,-630.371
1571285613.393,-273.438,-526.855,-494.141,-616.699,-641.113
1571285613.397,-335.449,-577.637,-824.219,-704.590,-739.746
1571285613.401,-295.410,-557.617,-900.391,-618.652,-737.305
1571285613.405,-246.582,-526.367,-548.828,-475.098,-627.930
1571285613.409,-293.945,-606.445,-515.137,-502.930,-620.117
1571285613.413,-319.336,-687.012,-861.328,-599.121,-711.914
1571285613.417,-291.016,-722.168,-961.426,-538.574,-720.215
1571285613.421,-231.445,-694.824,-633.789,-370.117,-604.004
1571285613.425,-232.422,-669.922,-648.926,-373.047,-591.797
1571285613.428,-306.152,-738.770,-948.730,-471.191,-704.102
1571285613.432,-290.527,-772.949,-986.328,-470.703,-724.121
1571285613.436,-196.777,-693.848,-763.184,-339.844,-595.703
1571285613.440,-197.754,-698.242,-651.367,-305.176,-551.270
1571285613.444,-288.574,-770.508,-887.695,-441.406,-624.023
1571285613.448,-313.965,-812.988,-1000.000,-497.559,-682.617
1571285613.452,-245.605,-791.504,-890.137,-375.488,-633.789
1571285613.456,-230.957,-809.082,-712.402,-254.395,-537.598
1571285613.460,-299.316,-832.520,-881.348,-422.363,-564.453
1571285613.464,-351.562,-820.801,-1000.000,-599.121,-644.043
1571285613.468,-342.773,-858.398,-932.617,-528.809,-638.184
1571285613.471,-287.598,-885.254,-878.418,-392.090,-534.668
1571285613.475,-329.590,-916.016,-956.543,-449.707,-562.012
1571285613.479,-389.648,-937.988,-974.609,-589.355,-639.160
1571285613.483,-363.281,-896.484,-969.727,-558.105,-628.906
1571285613.487,-304.688,-829.590,-926.758,-400.879,-558.105
1571285613.491,-298.828,-809.082,-774.414,-416.992,-510.254
1571285613.495,-330.078,-828.125,-851.074,-548.828,-575.195
1571285613.499,-300.293,-765.625,-942.383,-552.734,-604.492
1571285613.503,-260.254,-719.727,-850.098,-441.895,-538.086
1571285613.507,-273.438,-743.652,-839.355,-406.738,-489.746
1571285613.511,-337.891,-794.434,-923.340,-530.762,-550.781
1571285613.514,-378.418,-811.035,-969.727,-594.238,-633.789
1571285613.518,-321.777,-777.344,-986.816,-477.051,-619.629
1571285613.522,-252.441,-758.301,-891.113,-367.676,-535.156
1571285613.526,-275.391,-771.484,-836.426,-410.645,-525.391
1571285613.530,-326.660,-827.637,-971.680,-497.070,-606.445
1571285613.534,-259.277,-818.359,-976.074,-428.223,-610.352
1571285613.538,-178.223,-793.457,-913.574,-276.855,-530.273
1571285613.542,-211.914,-785.645,-925.293,-317.871,-521.484
1571285613.546,-251.465,-756.836,-969.238,-417.480,-604.980
1571285613.550,-208.984,-740.723,-973.633,-381.836,-634.277
1571285613.553,-133.789,-713.867,-960.938,-239.258,-554.199
1571285613.557,-135.742,-646.484,-899.902,-216.797,-495.605
1571285613.561,-193.359,-596.191,-916.992,-318.359,-589.355
1571285613.565,-209.961,-597.656,-995.117,-369.141,-682.129
1571285613.569,-139.160,-637.695,-897.949,-238.281,-586.426
1571285613.573,-134.277,-694.336,-691.406,-166.016,-464.355
1571285613.577,-228.516,-747.070,-829.102,-290.039,-541.016
1571285613.581,-255.859,-841.797,-998.047,-340.820,-636.719
1571285613.585,-205.566,-877.930,-946.777,-264.648,-601.562
1571285613.589,-123.047,-831.543,-755.859,-138.672,-499.512
1571285613.593,-126.953,-831.543,-805.176,-198.730,-525.879
1571285613.596,-152.344,-838.379,-988.770,-318.848,-666.016
1571285613.600,-123.047,-843.262,-966.309,-268.066,-657.227
1571285613.604,-90.332,-857.910,-953.613,-106.934,-537.109
1571285613.608,-119.141,-860.352,-958.008,-156.250,-570.312
1571285613.612,-187.012,-881.836,-965.820,-322.266,-657.227
1571285613.616,-192.871,-881.836,-986.328,-317.383,-657.227
1571285613.620,-141.113,-873.047,-879.883,-202.637,-577.148
1571285613.624,-118.164,-829.590,-770.508,-188.965,-502.930
1571285613.628,-197.754,-805.176,-894.043,-336.426,-576.660
1571285613.632,-263.184,-833.008,-974.609,-437.012,-667.969
1571285613.636,-189.453,-811.035,-971.680,-323.730,-634.766
1571285613.639,-151.367,-772.461,-878.906,-233.887,-550.781
1571285613.643,-224.121,-775.879,-854.492,-341.797,-580.566
1571285613.647,-263.184,-782.715,-967.285,-407.227,-678.711
1571285613.651,-209.961,-748.047,-981.934,-333.008,-685.547
1571285613.655,-170.898,-697.266,-942.871,-241.699,-586.914
1571285613.659,-214.355,-686.035,-903.320,-308.594,-577.148
1571285613.663,-263.184,-750.000,-954.590,-409.668,-666.016
1571285613.667,-237.793,-782.715,-994.629,-388.184,-666.992
1571285613.671,-186.035,-775.879,-854.492,-271.484,-570.801
1571285613.675,-224.609,-834.473,-733.887,-298.340,-531.738
1571285613.678,-295.898,-895.996,-887.695,-427.734,-616.211
1571285613.682,-293.945,-905.762,-1000.000,-423.828,-686.035
1571285613.686,-213.379,-917.480,-860.352,-330.078,-575.195
1571285613.690,-193.359,-926.270,-744.629,-325.684,-501.465
1571285613.694,-246.094,-904.785,-923.828,-409.668,-600.098
1571285613.698,-238.281,-860.352,-999.512,-421.387,-683.594
1571285613.702,-150.879,-783.691,-909.668,-280.273,-638.672
1571285613.706,-103.027,-722.656,-722.168,-195.312,-532.227
1571285613.710,-149.902,-708.008,-846.680,-303.711,-593.750
1571285613.714,-184.082,-701.172,-993.652,-386.230,-680.664
1571285613.718,-141.602,-701.172,-963.867,-309.082,-660.156
1571285613.721,-114.258,-714.355,-773.926,-206.543,-569.824
1571285613.725,-184.570,-769.531,-738.281,-297.363,-549.805
1571285613.729,-243.164,-788.574,-965.332,-421.875,-655.762
1571285613.733,-226.074,-731.445,-990.234,-397.461,-681.641
1571285613.737,-156.738,-704.102,-808.594,-236.328,-567.383
1571285613.741,-170.410,-719.727,-829.590,-252.441,-541.016
1571285613.745,-251.953,-691.406,-979.492,-385.254,-645.996
1571285613.749,-247.559,-616.211,-993.652,-372.070,-700.195
1571285613.753,-192.871,-611.328,-851.074,-249.023,-602.051
1571285613.757,-200.684,-676.270,-774.902,-236.816,-520.020
1571285613.761,-243.164,-673.828,-961.426,-354.004,-603.516
1571285613.764,-233.398,-627.441,-991.211,-371.582,-665.039
1571285613.768,-161.621,-628.906,-905.273,-222.656,-602.051
1571285613.772,-117.188,-601.074,-748.535,-122.070,-529.785
1571285613.776,-158.203,-569.824,-774.902,-242.676,-565.430
1571285613.780,-173.828,-570.801,-919.922,-326.172,-638.184
1571285613.784,-83.984,-489.258,-899.414,-208.008,-641.113
1571285613.788,17.090,-447.754,-770.508,-26.367,-558.105
1571285613.792,24.902,-476.074,-817.383,-45.898,-555.176
1571285613.796,-22.461,-422.363,-903.809,-138.184,-625.977
1571285613.800,26.367,-293.457,-854.980,-88.867,-637.695
1571285613.803,139.648,-201.172,-896.973,11.230,-593.750
1571285613.807,111.328,-187.988,-816.895,18.066,-548.828
1571285613.811,46.387,-213.379,-747.559,-76.172,-590.820
1571285613.815,58.594,-256.836,-924.805,-123.047,-644.531
1571285613.819,97.168,-273.926,-853.027,-35.645,-582.031
1571285613.823,83.984,-239.746,-739.746,20.508,-535.156
1571285613.827,32.715,-177.246,-776.367,-55.664,-581.543
1571285613.831,40.527,-213.867,-893.066,-131.348,-651.367
1571285613.835,73.730,-242.676,-956.543,-89.844,-636.719
1571285613.839,92.285,-248.047,-817.383,1.953,-547.852
1571285613.843,17.578,-278.809,-790.527,-98.633,-573.242
1571285613.846,-66.895,-248.535,-915.527,-234.863,-657.227
1571285613.850,-43.457,-205.078,-976.074,-211.914,-672.363
1571285613.854,23.926,-162.109,-756.348,-105.469,-572.754
1571285613.858,20.020,-168.457,-569.824,-102.051,-525.391
1571285613.862,-33.691,-170.410,-807.129,-222.168,-608.398
1571285613.866,-14.648,-58.594,-993.652,-204.590,-663.574
1571285613.870,37.598,74.219,-708.984,-71.289,-567.871
1571285613.874,44.434,56.152,-499.023,-82.520,-511.719
1571285613.878,-11.230,-22.949,-774.414,-212.402,-590.820
1571285613.882,-25.879,-50.293,-1000.000,-254.395,-666.016
1571285613.886,8.301,-62.988,-891.602,-181.641,-617.188
1571285613.889,-62.012,-146.484,-641.113,-159.668,-500.488
1571285613.893,-144.531,-199.707,-800.781,-282.227,-575.684
1571285613.897,-153.809,-163.086,-1000.000,-380.371,-694.336
1571285613.901,-101.562,-113.770,-933.594,-285.156,-637.207
1571285613.905,-43.457,-94.238,-777.832,-170.410,-522.461
1571285613.909,-69.336,-112.793,-772.949,-219.238,-510.742
1571285613.913,-124.023,-157.715,-934.082,-330.078,-614.258
1571285613.917,-107.910,-205.078,-983.887,-323.730,-657.227
1571285613.921,-33.203,-219.238,-819.336,-175.293,-540.039
1571285613.925,-36.133,-233.398,-743.652,-159.180,-486.816
1571285613.928,-61.035,-213.379,-916.504,-274.902,-595.703
1571285613.932,-30.273,-176.758,-980.957,-293.945,-682.129
1571285613.936,-14.648,-193.359,-950.195,-165.527,-599.609
1571285613.940,-34.668,-229.004,-963.867,-150.391,-541.992
1571285613.944,-72.754,-248.047,-967.285,-273.926,-624.512
1571285613.948,-75.684,-245.605,-968.750,-300.293,-660.645
1571285613.952,-18.066,-206.543,-962.402,-207.031,-598.633
1571285613.956,-3.906,-202.637,-715.820,-126.465,-504.395
1571285613.960,-59.570,-279.785,-662.109,-227.051,-532.715
1571285613.964,-78.613,-337.402,-917.969,-345.215,-634.277
1571285613.968,-65.430,-347.168,-986.816,-288.086,-635.254
1571285613.971,-53.711,-369.629,-773.438,-184.082,-547.363
1571285613.975,-73.242,-394.531,-768.066,-228.516,-533.691
1571285613.979,-107.422,-385.254,-960.449,-297.852,-622.070
1571285613.983,-59.082,-320.312,-1000.000,-270.508,-672.363
1571285613.987,22.461,-240.723,-843.262,-183.594,-583.984
1571285613.991,23.926,-209.473,-681.152,-209.961,-514.160
1571285613.995,-29.297,-202.148,-864.746,-286.133,-606.934
1571285613.999,-19.531,-133.789,-1000.000,-288.086,-685.059
1571285614.003,54.199,-72.266,-808.105,-164.551,-589.355
1571285614.007,74.219,-52.246,-502.930,-83.008,-479.980
1571285614.011,31.250,-9.277,-689.453,-162.109,-556.641
1571285614.014,9.766,15.137,-998.047,-205.078,-662.598
1571285614.018,69.336,47.363,-882.812,-132.324,-624.023
1571285614.022,120.117,86.914,-701.172,-41.992,-512.207
1571285614.026,62.012,59.570,-837.891,-125.977,-559.082
1571285614.030,19.043,14.648,-982.910,-223.145,-681.152
1571285614.034,66.406,6.348,-976.074,-145.020,-660.156
1571285614.038,116.211,4.395,-715.820,0.000,-538.574
1571285614.042,72.754,-9.766,-696.777,-42.969,-512.207
1571285614.046,21.973,-11.230,-979.980,-189.941,-608.398
1571285614.050,43.457,20.996,-959.473,-168.945,-634.277
1571285614.053,77.148,-14.648,-667.969,-58.594,-525.391
1571285614.057,53.223,-92.285,-609.375,-94.727,-488.770
1571285614.061,-15.137,-118.652,-866.211,-224.121,-580.078
1571285614.065,-24.414,-126.465,-963.867,-239.746,-662.598
1571285614.069,40.527,-144.531,-962.402,-106.934,-621.094
1571285614.073,67.383,-170.410,-951.172,-39.551,-549.805
1571285614.077,22.949,-203.613,-964.355,-154.297,-598.145
1571285614.081,9.277,-198.730,-978.027,-205.078,-665.039
1571285614.085,52.246,-173.340,-914.062,-129.395,-636.719
1571285614.089,82.520,-145.508,-707.520,-46.387,-528.320
1571285614.093,40.039,-95.703,-630.371,-125.488,-533.691
1571285614.096,1.953,-89.355,-786.133,-239.258,-626.953
1571285614.100,26.855,-78.613,-851.562,-194.336,-633.789
1571285614.104,75.684,-52.734,-810.547,-81.543,-567.871
1571285614.108,57.129,-12.695,-659.668,-99.121,-533.691
1571285614.112,-0.977,-11.230,-720.215,-226.562,-592.285
1571285614.116,1.465,-43.457,-952.637,-217.773,-650.879
1571285614.120,51.758,-48.340,-950.195,-116.211,-584.473
1571285614.124,22.949,-55.664,-722.656,-125.977,-506.836
1571285614.128,-30.762,-92.285,-767.090,-213.867,-588.867
1571285614.132,1.953,-147.461,-982.422,-251.465,-657.227
1571285614.136,49.316,-118.652,-871.582,-150.391,-600.586
1571285614.139,66.406,-59.570,-571.777,-79.590,-511.230
1571285614.143,7.812,-93.262,-645.020,-194.336,-566.406
1571285614.147,-32.227,-129.395,-931.641,-259.766,-662.598
1571285614.151,23.438,-151.855,-908.691,-164.551,-634.766
1571285614.155,91.309,-146.484,-617.676,-58.105,-541.016
1571285614.159,64.941,-127.441,-599.121,-121.094,-547.363
1571285614.163,31.250,-94.727,-883.301,-228.027,-648.926
1571285614.167,78.613,-94.238,-998.047,-215.332,-669.922
1571285614.171,122.559,-164.551,-783.203,-62.012,-548.340
1571285614.175,90.332,-229.980,-537.109,-69.336,-485.840
1571285614.178,34.180,-258.789,-803.711,-220.215,-629.395
1571285614.182,33.691,-261.230,-993.652,-220.215,-694.336
1571285614.186,95.703,-291.016,-725.586,-95.703,-577.148
1571285614.190,96.191,-313.965,-619.141,-96.191,-530.273
1571285614.194,30.273,-341.797,-863.281,-219.238,-592.773
1571285614.198,10.742,-381.836,-1000.000,-250.000,-660.645
1571285614.202,46.875,-378.906,-830.566,-153.809,-599.121
1571285614.206,57.617,-372.070,-593.750,-100.586,-505.371
1571285614.210,-9.766,-372.559,-753.418,-187.988,-535.156
1571285614.214,-51.758,-380.859,-958.984,-277.344,-607.910
1571285614.218,13.672,-388.672,-963.867,-226.562,-639.160
1571285614.221,61.523,-366.699,-808.105,-102.051,-560.547
1571285614.225,21.484,-229.980,-875.000,-179.688,-553.223
1571285614.229,-22.461,-101.562,-898.438,-291.016,-622.559
1571285614.233,4.883,-126.465,-758.789,-264.160,-623.047
1571285614.237,62.012,-176.270,-721.191,-128.418,-568.359
1571285614.241,17.090,-167.969,-607.910,-132.324,-513.184
1571285614.245,-64.941,-178.711,-671.875,-266.602,-553.223
1571285614.249,-62.988,-189.453,-938.477,-306.152,-645.996
1571285614.253,-8.301,-162.109,-920.898,-235.352,-594.238
1571285614.257,-9.766,-145.996,-800.781,-143.066,-498.047
1571285614.261,-36.621,-157.227,-907.715,-251.465,-556.152
1571285614.264,-60.059,-194.824,-979.492,-375.488,-652.344
1571285614.268,-33.691,-212.402,-974.609,-247.559,-642.090
1571285614.272,20.996,-173.340,-913.086,-148.926,-549.805
1571285614.276,-35.645,-166.504,-894.531,-237.793,-560.059
1571285614.280,-83.984,-203.125,-981.445,-301.758,-636.230
1571285614.284,-28.320,-232.910,-932.617,-247.559,-627.441
1571285614.288,20.508,-269.531,-647.949,-149.902,-523.438
1571285614.292,-30.273,-295.898,-608.398,-229.492,-539.551
1571285614.296,-96.191,-279.785,-835.938,-360.840,-621.582
1571285614.300,-78.613,-285.156,-963.379,-314.453,-647.461
1571285614.303,-19.531,-310.547,-845.703,-160.645,-578.613
1571285614.307,-57.129,-305.664,-667.480,-164.551,-509.277
1571285614.311,-104.980,-258.301,-744.629,-283.691,-552.734
1571285614.315,-83.496,-217.773,-984.375,-312.012,-648.438
1571285614.319,-44.922,-183.105,-703.125,-201.172,-575.684
1571285614.323,-22.949,-180.664,-326.172,-118.164,-478.516
1571285614.327,-73.730,-204.102,-617.188,-249.023,-564.941
1571285614.331,-99.121,-214.355,-930.176,-347.656,-644.043
1571285614.335,-57.617,-229.004,-795.410,-271.484,-623.047
1571285614.339,-42.480,-254.883,-454.102,-186.523,-529.785
1571285614.343,-65.430,-238.281,-533.203,-237.305,-548.828
1571285614.346,-86.914,-194.824,-812.012,-331.543,-648.926
1571285614.350,-48.828,-186.523,-853.027,-301.270,-641.113
1571285614.354,20.020,-142.578,-656.250,-146.973,-543.457
1571285614.358,-22.949,-59.570,-718.262,-172.363,-553.223
1571285614.362,-88.379,0.488,-966.797,-286.621,-649.902
1571285614.366,-36.133,0.977,-807.129,-272.949,-651.367
1571285614.370,62.012,-46.875,-580.078,-131.348,-575.195
1571285614.374,51.270,-67.871,-519.043,-81.543,-533.691
1571285614.378,-3.418,-60.059,-673.828,-166.992,-607.422
1571285614.382,11.230,-42.480,-765.625,-194.824,-652.832
1571285614.386,87.891,-12.207,-723.633,-90.332,-591.797
1571285614.389,120.117,11.719,-667.969,-12.695,-548.340
1571285614.393,55.664,-2.930,-627.930,-116.699,-567.871
1571285614.397,20.508,-21.484,-827.637,-189.941,-613.281
1571285614.401,70.801,8.789,-910.156,-106.445,-603.027
1571285614.405,111.816,19.531,-791.504,-26.855,-522.949
1571285614.409,64.941,-28.809,-598.145,-91.797,-506.836
1571285614.413,16.602,-82.031,-585.449,-169.434,-577.637
1571285614.417,30.762,-123.535,-809.082,-162.109,-619.141
1571285614.421,74.219,-153.320,-647.949,-50.293,-533.203
1571285614.425,50.781,-208.984,-462.402,-101.562,-502.441
1571285614.428,-31.250,-246.582,-697.754,-239.258,-589.355
1571285614.432,-51.758,-264.160,-903.320,-240.234,-615.234
1571285614.436,7.812,-326.172,-767.578,-142.578,-540.527
1571285614.440,18.555,-373.535,-546.387,-103.027,-483.398
1571285614.444,-40.039,-409.668,-799.805,-214.844,-555.176
1571285614.448,-40.527,-436.523,-1000.000,-264.648,-661.133
1571285614.452,0.000,-437.988,-899.414,-167.969,-635.254
1571285614.456,13.184,-460.938,-599.609,-102.051,-496.582
1571285614.460,-44.434,-496.094,-592.285,-215.820,-492.188
1571285614.464,-100.586,-487.305,-917.480,-306.152,-595.215
1571285614.468,-77.148,-461.914,-915.527,-238.281,-590.820
1571285614.471,-20.020,-417.969,-613.770,-95.215,-497.070
1571285614.475,-18.066,-381.836,-666.504,-120.117,-542.969
1571285614.479,-52.246,-397.949,-938.477,-257.324,-622.559
1571285614.483,-23.926,-399.414,-912.109,-208.496,-621.094
1571285614.487,36.133,-390.625,-619.629,-81.055,-540.039
1571285614.491,16.602,-395.996,-625.000,-105.957,-495.117
1571285614.495,-33.691,-409.180,-931.152,-213.379,-608.398
1571285614.499,-8.301,-400.391,-1000.000,-214.844,-666.016
1571285614.503,75.195,-357.910,-797.852,-58.594,-569.336
1571285614.507,89.355,-358.398,-585.449,2.441,-496.582
1571285614.511,28.320,-354.980,-719.238,-126.953,-545.410
1571285614.514,29.297,-329.102,-785.645,-188.477,-600.098
1571285614.518,81.543,-316.895,-669.922,-90.332,-562.012
1571285614.522,71.777,-300.781,-542.969,-36.621,-491.211
1571285614.526,-0.977,-299.805,-639.160,-162.109,-521.484
1571285614.530,-41.992,-291.992,-846.191,-235.840,-612.793
1571285614.534,-20.508,-228.516,-868.164,-179.688,-610.352
1571285614.538,36.621,-209.473,-776.855,-119.141,-518.555
1571285614.542,9.277,-295.898,-862.793,-173.828,-513.184
1571285614.546,-52.734,-344.727,-976.074,-255.859,-617.188
1571285614.550,-32.227,-318.359,-958.496,-221.680,-648.926
1571285614.553,61.523,-318.359,-974.609,-91.797,-572.754
1571285614.557,48.340,-315.918,-893.066,-79.102,-507.812
1571285614.561,-43.945,-350.098,-800.781,-180.176,-545.898
1571285614.565,-43.457,-407.227,-935.059,-218.262,-608.398
1571285614.569,1.465,-390.137,-867.676,-134.277,-551.270
1571285614.573,14.648,-390.137,-559.570,-64.453,-450.684
1571285614.577,-14.648,-384.277,-624.023,-149.902,-499.023
1571285614.581,-60.547,-374.023,-910.156,-222.168,-616.211
1571285614.585,-12.695,-366.211,-968.750,-124.023,-610.840
1571285614.589,44.434,-364.258,-786.133,-32.715,-505.859
1571285614.593,-27.832,-418.945,-725.586,-144.043,-517.578
1571285614.596,-87.402,-470.215,-914.551,-230.469,-624.023
1571285614.600,-54.688,-449.219,-1000.000,-203.613,-652.832
1571285614.604,-17.578,-417.480,-820.312,-138.184,-565.430
1571285614.608,-83.496,-476.562,-648.438,-199.707,-510.254
1571285614.612,-144.043,-507.324,-830.078,-304.199,-589.355
1571285614.616,-104.004,-453.125,-1000.000,-288.574,-654.785
1571285614.620,-52.734,-353.027,-813.965,-132.812,-573.242
1571285614.624,-59.082,-294.922,-547.852,-93.750,-493.652
1571285614.628,-99.609,-255.859,-763.184,-247.559,-563.477
1571285614.632,-104.492,-245.117,-1000.000,-292.480,-627.930
1571285614.636,-39.551,-273.438,-937.500,-190.918,-574.707
1571285614.639,-6.836,-300.293,-718.750,-145.508,-492.188
1571285614.643,-96.191,-375.488,-787.109,-254.395,-570.801
1571285614.647,-164.062,-437.988,-1000.000,-325.684,-682.617
1571285614.651,-99.121,-415.527,-882.324,-245.117,-615.234
1571285614.655,-50.781,-383.789,-613.770,-134.277,-499.512
1571285614.659,-104.980,-375.488,-679.199,-189.453,-514.160
1571285614.663,-132.324,-342.285,-889.648,-274.414,-607.422
1571285614.667,-77.148,-331.055,-863.770,-246.582,-617.188
1571285614.671,0.000,-335.449,-739.258,-125.977,-528.320
1571285614.675,-24.414,-349.121,-709.961,-125.488,-512.207
1571285614.678,-101.074,-398.438,-859.863,-261.719,-600.098
1571285614.682,-102.051,-425.781,-990.723,-282.227,-656.250
1571285614.686,-53.711,-419.434,-824.707,-188.477,-551.758
1571285614.690,-46.875,-366.211,-857.910,-165.039,-505.371
1571285614.694,-109.375,-330.566,-923.340,-242.676,-584.961
1571285614.698,-110.840,-304.688,-828.613,-282.227,-609.375
1571285614.702,-50.781,-287.109,-765.625,-183.105,-541.992
1571285614.706,-33.691,-334.961,-619.629,-106.445,-480.957
1571285614.710,-61.523,-360.840,-597.168,-199.707,-519.531
1571285614.714,-84.961,-383.789,-766.113,-266.602,-581.055
1571285614.718,-75.195,-432.617,-880.371,-210.938,-594.238
1571285614.721,-41.504,-478.516,-703.125,-128.906,-523.926
1571285614.725,-67.383,-480.957,-709.961,-184.082,-517.578
1571285614.729,-108.398,-452.148,-939.941,-281.738,-590.820
1571285614.733,-96.191,-441.406,-996.094,-263.184,-658.691
1571285614.737,-53.711,-441.895,-859.375,-155.762,-604.492
1571285614.741,-74.707,-450.684,-630.371,-173.828,-523.926
1571285614.745,-140.625,-442.383,-744.629,-277.832,-582.520
1571285614.749,-136.719,-417.969,-977.539,-272.461,-652.344
1571285614.753,-39.551,-376.953,-766.113,-157.227,-572.266
1571285614.757,-18.555,-358.398,-431.152,-119.629,-473.633
1571285614.761,-103.516,-389.160,-655.273,-250.000,-551.270
1571285614.764,-120.117,-406.250,-942.383,-325.684,-620.117
1571285614.768,-18.066,-353.516,-809.570,-215.820,-581.055
1571285614.772,25.391,-316.895,-663.086,-119.141,-503.418
1571285614.776,-48.340,-306.641,-786.621,-198.242,-520.996
1571285614.780,-68.848,-211.914,-973.633,-273.926,-636.719
1571285614.784,-46.875,-152.344,-959.473,-233.887,-639.648
1571285614.788,-40.527,-201.660,-594.238,-139.648,-509.277
1571285614.792,-49.805,-255.859,-549.805,-203.613,-491.699
1571285614.796,-125.000,-283.691,-863.281,-320.312,-588.379
1571285614.800,-157.227,-296.875,-875.000,-332.520,-600.098
1571285614.803,-103.027,-332.031,-640.625,-237.793,-504.883
1571285614.807,-117.188,-404.297,-607.422,-256.836,-479.492
1571285614.811,-202.148,-479.980,-881.836,-405.762,-574.707
1571285614.815,-224.121,-501.953,-961.426,-418.457,-616.211
1571285614.819,-155.273,-522.949,-908.203,-309.570,-557.129
1571285614.823,-137.207,-556.641,-902.832,-249.023,-509.766
1571285614.827,-188.965,-540.527,-969.238,-344.727,-573.242
1571285614.831,-240.234,-523.438,-973.145,-439.453,-627.930
1571285614.835,-218.750,-540.527,-836.914,-362.793,-575.684
1571285614.839,-200.684,-598.633,-795.898,-290.039,-520.508
1571285614.843,-271.973,-629.883,-904.297,-419.434,-555.664
1571285614.846,-291.992,-605.957,-953.125,-515.625,-619.141
1571285614.850,-236.328,-587.891,-986.328,-450.684,-637.695
1571285614.854,-175.781,-553.711,-903.809,-350.098,-536.621
1571285614.858,-219.727,-544.434,-870.605,-381.348,-494.629
1571285614.862,-304.199,-544.434,-970.215,-475.098,-567.871
1571285614.866,-308.594,-536.133,-974.121,-489.258,-642.090
1571285614.870,-255.371,-561.035,-964.844,-389.648,-588.379
1571285614.874,-275.391,-624.023,-957.031,-424.316,-485.840
1571285614.878,-373.047,-675.781,-967.285,-587.891,-551.758
1571285614.882,-401.367,-684.082,-971.680,-614.746,-634.766
1571285614.886,-347.656,-663.086,-969.238,-532.715,-602.051
1571285614.889,-356.445,-679.199,-970.215,-498.535,-523.438
1571285614.893,-430.176,-676.270,-970.215,-597.656,-568.848
1571285614.897,-487.305,-628.418,-970.215,-679.688,-656.738
1571285614.901,-451.172,-597.656,-970.215,-626.465,-637.207
1571285614.905,-419.434,-572.754,-970.215,-564.941,-540.527
1571285614.909,-520.996,-559.082,-970.215,-658.691,-550.293
1571285614.913,-571.777,-522.461,-970.215,-755.859,-634.766
1571285614.917,-496.094,-354.004,-970.215,-692.871,-644.531
1571285614.921,-433.594,-135.254,-970.215,-555.176,-539.551
1571285614.925,-449.707,-46.387,-971.191,-565.430,-476.074
1571285614.928,-481.934,7.324,-959.961,-641.602,-589.355
1571285614.932,-455.566,83.496,-991.211,-654.785,-650.879
1571285614.936,-354.980,134.277,-901.367,-520.020,-541.016
1571285614.940,-323.730,121.582,-732.422,-423.340,-474.609
1571285614.944,-377.930,164.062,-874.512,-509.277,-531.250
1571285614.948,-383.301,209.961,-946.289,-550.293,-586.426
1571285614.952,-304.688,259.277,-846.680,-431.152,-569.824
1571285614.956,-254.395,301.758,-668.945,-329.590,-480.469
1571285614.960,-317.871,229.980,-722.656,-431.641,-510.254
1571285614.964,-311.523,168.945,-964.355,-500.488,-608.887
1571285614.968,-228.516,70.801,-804.688,-392.090,-569.336
1571285614.971,-177.246,-61.523,-507.324,-290.039,-462.891
1571285614.975,-208.984,-122.559,-748.535,-330.078,-498.535
1571285614.979,-259.766,-116.211,-812.012,-390.625,-565.430
1571285614.983,-222.656,-109.863,-633.789,-345.703,-567.383
1571285614.987,-150.391,-101.074,-545.898,-251.465,-510.742
1571285614.991,-138.672,-122.559,-436.035,-234.375,-477.539
1571285614.995,-182.617,-171.875,-483.887,-293.945,-539.551
1571285614.999,-159.668,-215.332,-628.906,-322.754,-595.215
1571285615.003,-99.121,-166.992,-524.414,-234.375,-530.762
1571285615.007,-112.305,-131.836,-404.785,-197.266,-461.914
1571285615.011,-162.598,-180.664,-540.527,-309.082,-513.184
1571285615.014,-179.199,-224.121,-735.840,-360.352,-591.309
1571285615.018,-117.188,-298.828,-884.766,-268.555,-592.773
1571285615.022,-71.289,-320.312,-628.906,-186.035,-483.887
1571285615.026,-121.582,-303.223,-286.621,-247.559,-465.332
1571285615.030,-160.156,-357.910,-488.770,-315.430,-561.523
1571285615.034,-111.328,-346.191,-639.160,-250.977,-576.172
1571285615.038,-35.156,-291.504,-393.066,-137.695,-493.652
1571285615.042,-55.176,-343.750,-295.410,-176.270,-485.352
1571285615.046,-115.723,-424.805,-579.590,-270.508,-558.105
1571285615.050,-93.262,-401.367,-736.328,-276.367,-573.730
1571285615.053,-58.594,-378.418,-597.168,-186.035,-502.930
1571285615.057,-88.379,-433.594,-578.613,-199.707,-490.234
1571285615.061,-128.906,-472.168,-758.789,-303.223,-566.406
1571285615.065,-144.531,-489.258,-980.957,-302.246,-634.277
1571285615.069,-100.098,-464.355,-764.648,-199.219,-567.871
1571285615.073,-78.125,-480.469,-368.652,-155.273,-457.520
1571285615.077,-105.469,-477.051,-589.355,-237.305,-518.555
1571285615.081,-94.238,-391.113,-885.254,-286.621,-610.352
1571285615.085,-55.176,-323.730,-742.188,-223.633,-589.844
1571285615.089,-11.230,-268.066,-445.312,-116.211,-486.816
1571285615.093,-10.254,-137.695,-489.746,-171.875,-485.840
1571285615.096,-58.105,-31.738,-770.508,-237.305,-588.867
1571285615.100,-115.234,-92.285,-928.223,-233.887,-611.816
1571285615.104,-91.309,-170.410,-706.543,-193.359,-497.559
1571285615.108,-98.633,-241.211,-690.918,-203.125,-495.605
1571285615.112,-161.621,-279.785,-988.281,-317.383,-604.980
1571285615.116,-146.973,-239.746,-922.363,-321.777,-622.559
1571285615.120,-59.082,-141.602,-639.160,-175.293,-536.133
1571285615.124,-55.176,-95.215,-509.277,-149.414,-479.492
1571285615.128,-110.352,-127.930,-642.090,-232.910,-559.570
1571285615.132,-87.402,-89.844,-679.199,-239.746,-609.375
1571285615.136,-18.066,21.484,-574.707,-165.039,-554.688
1571285615.139,-13.672,85.938,-425.781,-132.812,-485.352
1571285615.143,-78.613,133.789,-459.961,-230.957,-533.203
1571285615.147,-136.230,202.637,-726.074,-325.684,-603.516
1571285615.151,-102.051,190.430,-853.516,-256.348,-593.750
1571285615.155,-78.125,158.203,-858.398,-166.992,-543.457
1571285615.159,-182.129,176.758,-700.195,-282.715,-528.320
1571285615.163,-220.215,239.258,-652.344,-380.371,-595.703
1571285615.167,-167.969,270.508,-831.055,-313.965,-627.441
1571285615.171,-84.961,293.457,-619.629,-175.781,-524.902
1571285615.175,-68.848,302.734,-298.828,-178.711,-473.145
1571285615.178,-138.672,316.406,-468.262,-267.578,-531.250
1571285615.182,-128.906,312.988,-785.645,-278.809,-605.469
1571285615.186,-47.363,312.012,-570.312,-156.250,-545.410
1571285615.190,-26.855,321.777,-264.160,-112.305,-475.586
1571285615.194,-75.684,216.797,-625.977,-226.074,-577.148
1571285615.198,-76.172,149.414,-979.980,-268.555,-656.250
1571285615.202,-10.742,163.574,-713.867,-168.457,-584.473
1571285615.206,12.695,186.035,-362.305,-79.590,-494.629
1571285615.210,-24.902,259.766,-416.992,-135.742,-543.945
1571285615.214,-35.156,400.391,-796.387,-210.449,-631.348
1571285615.218,-1.953,421.387,-890.625,-183.105,-639.648
1571285615.221,44.434,282.227,-408.691,-99.121,-513.672
1571285615.225,0.488,145.020,-332.520,-147.461,-486.328
1571285615.229,-65.918,43.945,-711.914,-229.492,-592.285
1571285615.233,-28.809,21.484,-774.902,-212.891,-607.422
1571285615.237,31.250,25.391,-598.633,-102.539,-510.742
1571285615.241,0.977,-45.410,-688.965,-94.727,-467.773
1571285615.245,-78.125,-125.977,-944.336,-194.824,-561.035
1571285615.249,-80.566,-171.387,-998.047,-212.402,-619.141
1571285615.253,-27.832,-189.453,-872.070,-111.328,-537.598
1571285615.257,-22.461,-181.641,-736.816,-46.875,-449.219
1571285615.261,-56.641,-181.152,-842.773,-151.367,-500.977
1571285615.264,-103.516,-156.738,-889.648,-223.633,-563.965
1571285615.268,-102.051,-172.363,-754.883,-180.176,-520.996
1571285615.272,-54.199,-232.422,-647.949,-146.973,-459.473
1571285615.276,-90.820,-245.117,-742.676,-207.031,-498.535
1571285615.280,-156.250,-260.742,-897.461,-302.734,-574.219
1571285615.284,-149.902,-239.746,-889.648,-266.602,-559.570
1571285615.288,-80.078,-190.430,-778.320,-125.000,-471.680
1571285615.292,-71.777,-160.645,-836.426,-170.410,-478.516
1571285615.296,-128.418,-138.672,-971.680,-310.059,-565.430
1571285615.300,-118.164,-96.680,-919.434,-295.410,-591.797
1571285615.303,-54.199,-44.434,-840.820,-129.883,-518.066
1571285615.307,-44.922,-101.074,-693.848,-124.512,-461.426
1571285615.311,-88.867,-155.273,-602.051,-238.281,-531.738
1571285615.315,-105.957,-96.680,-786.133,-268.066,-612.793
1571285615.319,-83.008,-62.500,-726.562,-219.238,-562.012
1571285615.323,-83.496,-56.641,-438.965,-173.340,-463.379
1571285615.327,-125.488,-36.133,-500.488,-258.301,-510.742
1571285615.331,-163.086,33.691,-799.316,-320.312,-604.980
1571285615.335,-116.699,92.773,-876.465,-239.746,-582.520
1571285615.339,-68.848,106.934,-613.281,-161.621,-470.215
1571285615.343,-132.812,185.547,-409.180,-230.957,-462.891
1571285615.346,-179.199,216.309,-638.184,-329.102,-549.316
1571285615.350,-117.188,241.211,-949.707,-279.785,-590.820
1571285615.354,-84.961,314.453,-611.816,-175.781,-504.395
1571285615.358,-135.742,270.996,-312.500,-239.746,-455.078
1571285615.362,-205.566,191.895,-674.805,-350.098,-552.734
1571285615.366,-193.848,157.227,-882.812,-344.238,-601.074
1571285615.370,-138.184,134.766,-582.520,-273.438,-508.301
1571285615.374,-148.438,121.094,-370.117,-230.469,-443.359
1571285615.378,-192.871,46.875,-594.727,-321.289,-511.230
1571285615.382,-212.402,-30.762,-938.965,-419.434,-583.496
1571285615.386,-187.500,-60.547,-886.230,-332.031,-537.598
1571285615.389,-176.758,-120.605,-688.477,-275.879,-449.707
1571285615.393,-230.957,-194.336,-838.867,-366.211,-533.691
1571285615.397,-259.277,-174.316,-979.980,-436.523,-609.375
1571285615.401,-210.449,-155.273,-743.164,-383.789,-520.020
1571285615.405,-203.125,-300.781,-592.285,-343.750,-436.523
1571285615.409,-276.367,-441.406,-728.516,-416.016,-450.195
1571285615.413,-294.922,-416.504,-865.234,-477.539,-532.715
1571285615.417,-223.145,-347.168,-849.609,-406.738,-544.434
1571285615.421,-113.281,-279.297,-639.160,-246.582,-446.289
1571285615.425,-86.426,-226.562,-537.598,-220.215,-405.762
1571285615.428,-134.766,-202.148,-779.297,-304.199,-483.398
1571285615.432,-114.258,-175.781,-923.340,-289.551,-542.969
1571285615.436,-22.461,-157.715,-681.152,-150.879,-468.750
1571285615.440,-15.137,-159.180,-712.402,-141.113,-412.109
1571285615.444,-85.449,-163.086,-770.996,-252.441,-475.098
1571285615.448,-81.055,-189.453,-752.930,-268.066,-548.828
1571285615.452,-14.648,-201.660,-760.742,-146.973,-510.254
1571285615.456,20.996,-187.988,-515.625,-85.449,-411.133
1571285615.460,-53.711,-227.051,-481.445,-187.500,-431.641
1571285615.464,-116.699,-297.363,-720.703,-260.254,-489.258
1571285615.468,-60.059,-298.828,-773.438,-230.957,-490.723
1571285615.471,-29.785,-319.824,-594.727,-148.438,-432.617
1571285615.475,-83.984,-365.723,-637.695,-218.262,-436.523
1571285615.479,-115.234,-336.914,-838.379,-328.125,-508.301
1571285615.483,-87.891,-294.434,-935.059,-282.715,-552.734
1571285615.487,-37.109,-249.023,-807.617,-165.527,-474.121
1571285615.491,-21.973,-196.777,-476.074,-149.414,-409.668
1571285615.495,-47.852,-183.105,-601.562,-230.957,-485.352
1571285615.499,-54.688,-187.988,-833.008,-256.836,-517.578
1571285615.503,-13.672,-156.738,-698.730,-188.477,-458.496
1571285615.507,-31.250,-115.234,-460.449,-148.438,-398.926
1571285615.511,-80.566,-125.000,-585.938,-230.469,-431.641
1571285615.514,-90.332,-123.047,-827.148,-270.508,-487.793
1571285615.518,-32.227,-103.027,-810.059,-166.504,-475.098
1571285615.522,25.391,-115.723,-655.273,-72.754,-398.438
1571285615.526,-30.762,-153.809,-781.738,-150.391,-437.988
1571285615.530,-63.477,-178.711,-1000.000,-198.730,-543.457
1571285615.534,-19.043,-190.918,-874.023,-167.969,-512.207
1571285615.538,44.434,-132.324,-522.461,-91.309,-396.484
1571285615.542,6.836,-59.082,-520.508,-121.582,-386.230
1571285615.546,-62.500,-34.180,-759.277,-227.539,-462.402
1571285615.550,-33.691,-23.926,-750.977,-206.543,-490.234
1571285615.553,51.758,-2.930,-500.488,-81.543,-394.531
1571285615.557,50.293,-25.879,-416.016,-79.102,-352.539
1571285615.561,-22.949,-54.688,-574.219,-162.598,-420.898
1571285615.565,-21.484,-78.613,-657.715,-165.527,-471.191
1571285615.569,74.707,-135.254,-656.738,-76.660,-433.105
1571285615.573,104.980,-160.156,-702.148,-19.531,-367.188
1571285615.577,56.152,-170.898,-883.301,-102.539,-430.664
1571285615.581,48.340,-148.926,-796.875,-145.508,-479.980
1571285615.585,80.566,-106.445,-562.500,-48.340,-411.621
1571285615.589,109.863,-77.637,-445.312,37.109,-338.867
1571285615.593,67.383,-23.926,-499.023,-41.016,-361.328
1571285615.596,16.602,20.020,-618.164,-113.770,-447.754
1571285615.600,54.199,9.766,-693.359,-76.660,-465.820
1571285615.604,117.676,16.602,-541.992,21.973,-372.070
1571285615.608,89.355,55.176,-396.484,7.812,-347.656
1571285615.612,51.270,86.426,-555.664,-77.148,-437.500
1571285615.616,80.078,99.609,-833.008,-67.871,-494.141
1571285615.620,136.719,117.676,-880.371,72.266,-421.875
1571285615.624,143.555,109.863,-497.559,113.281,-337.402
1571285615.628,93.262,32.227,-320.312,-9.277,-373.535
1571285615.632,86.914,-39.062,-648.438,-40.527,-456.543
1571285615.636,145.020,-62.988,-617.188,79.102,-404.297
1571285615.639,163.086,-86.426,-241.699,119.141,-307.129
1571285615.643,112.793,-106.934,-299.805,13.672,-351.562
1571285615.647,98.145,-54.199,-611.328,-74.219,-428.711
1571285615.651,137.695,4.883,-627.441,-8.301,-412.109
1571285615.655,185.059,43.457,-256.836,154.297,-298.340
1571285615.659,152.832,82.031,-263.184,82.031,-331.543
1571285615.663,81.543,103.516,-719.238,-50.293,-435.547
1571285615.667,92.285,194.336,-822.266,-13.184,-407.227
1571285615.671,172.852,299.316,-401.367,118.164,-315.918
1571285615.675,165.039,342.773,-162.109,124.023,-297.852
1571285615.678,100.586,348.633,-473.145,1.465,-358.887
1571285615.682,117.676,349.121,-604.004,-24.414,-384.766
1571285615.686,188.477,313.477,-326.660,99.121,-313.965
1571285615.690,187.988,250.488,-269.531,130.859,-267.578
1571285615.694,123.047,182.617,-450.684,62.012,-339.355
1571285615.698,115.723,133.789,-646.484,37.598,-420.898
1571285615.702,187.988,114.746,-559.570,92.285,-383.789
1571285615.706,223.145,49.316,-381.836,179.688,-294.434
1571285615.710,147.949,-32.227,-598.633,103.516,-332.520
1571285615.714,115.234,-42.969,-889.648,33.691,-417.480
1571285615.718,180.664,-17.090,-717.773,129.395,-389.648
1571285615.721,221.191,-71.777,-477.539,214.355,-291.504
1571285615.725,137.207,-107.422,-805.664,64.453,-339.355
1571285615.729,65.918,-69.336,-974.609,-84.473,-434.082
1571285615.733,83.008,-94.238,-776.367,-31.738,-412.109
1571285615.737,104.980,-140.137,-645.996,57.129,-322.266
1571285615.741,66.406,-195.801,-558.594,34.180,-291.992
1571285615.745,18.555,-234.863,-689.453,-67.383,-359.863
1571285615.749,51.270,-236.328,-879.395,-96.680,-415.527
1571285615.753,102.539,-240.723,-723.633,-10.742,-355.957
1571285615.757,51.758,-276.367,-636.230,17.578,-308.105
1571285615.761,-0.488,-321.777,-798.340,-99.121,-369.141
1571285615.764,16.602,-289.062,-923.828,-146.484,-451.172
1571285615.768,77.148,-195.801,-962.402,-26.367,-435.059
1571285615.772,113.281,-97.656,-813.965,55.664,-355.469
1571285615.776,91.309,-15.137,-516.113,-2.930,-353.027
1571285615.780,62.988,48.340,-631.836,-65.918,-427.246
1571285615.784,109.863,186.523,-723.145,5.859,-434.570
1571285615.788,192.871,317.383,-417.969,122.559,-350.586
1571285615.792,185.059,342.773,-302.246,92.773,-360.840
1571285615.796,117.188,347.168,-558.105,0.488,-453.125
1571285615.800,159.180,367.676,-749.512,3.906,-482.910
1571285615.803,225.098,355.957,-632.812,124.023,-415.527
1571285615.807,187.988,342.773,-440.918,151.855,-354.980
1571285615.811,136.719,331.543,-584.473,43.457,-410.156
1571285615.815,143.066,315.918,-911.133,18.066,-491.211
1571285615.819,206.543,344.238,-664.062,122.559,-439.941
1571285615.823,250.000,386.230,-183.105,164.551,-339.844
1571285615.827,218.262,415.039,-385.254,58.105,-405.762
1571285615.831,180.176,464.844,-696.289,5.371,-510.742
1571285615.835,214.844,479.004,-546.387,56.641,-483.398
1571285615.839,249.023,464.355,-267.578,139.160,-378.418
1571285615.843,190.918,469.727,-368.164,64.453,-396.973
1571285615.846,145.020,468.262,-675.293,-25.391,-506.836
1571285615.850,193.848,470.215,-811.523,41.992,-523.926
1571285615.854,260.742,494.629,-600.586,158.691,-440.918
1571285615.858,237.305,460.449,-581.543,125.488,-418.945
1571285615.862,176.758,412.109,-901.855,20.508,-520.996
1571285615.866,176.758,387.695,-688.965,27.344,-532.227
1571285615.870,229.492,340.332,-388.672,112.793,-439.453
1571285615.874,236.816,275.879,-341.797,109.375,-403.320
1571285615.878,157.227,220.215,-517.090,-15.625,-492.188
1571285615.882,111.328,186.523,-672.852,-45.898,-580.078
1571285615.886,170.898,127.441,-633.301,60.547,-539.062
1571285615.889,178.223,93.750,-449.707,108.398,-442.383
1571285615.893,102.539,110.352,-409.180,-19.531,-459.961
1571285615.897,65.918,136.719,-644.531,-105.469,-538.574
1571285615.901,122.070,228.516,-716.797,-22.949,-531.250
1571285615.905,185.547,305.664,-617.676,73.242,-457.031
1571285615.909,150.879,326.172,-415.527,35.645,-448.730
1571285615.913,102.539,331.543,-385.254,-93.750,-524.414
1571285615.917,108.398,311.035,-622.559,-62.012,-552.246
1571285615.921,171.875,288.086,-406.250,74.707,-455.566
1571285615.925,145.508,235.352,-136.719,34.668,-411.133
1571285615.928,58.594,177.246,-331.543,-107.910,-484.863
1571285615.932,60.547,141.113,-648.438,-125.977,-561.523
1571285615.936,109.863,104.980,-545.410,-8.789,-500.000
1571285615.940,118.164,95.703,-250.977,6.348,-415.039
1571285615.944,50.781,114.258,-464.355,-98.633,-469.727
1571285615.948,37.598,114.746,-886.230,-160.156,-573.242
1571285615.952,89.355,139.160,-862.305,-79.590,-559.082
1571285615.956,93.262,143.555,-389.648,5.371,-432.617
1571285615.960,53.223,89.355,-302.734,-102.051,-438.477
1571285615.964,14.160,48.828,-608.887,-181.152,-520.508
1571285615.968,48.828,13.672,-611.328,-122.070,-505.859
1571285615.971,121.582,-30.762,-380.371,-28.320,-411.133
1571285615.975,65.918,-63.965,-419.434,-38.574,-426.270
1571285615.979,-14.648,-82.520,-673.340,-121.582,-517.090
1571285615.983,4.883,-93.262,-757.812,-107.422,-542.969
1571285615.987,73.730,-122.559,-533.691,-19.043,-459.473
1571285615.991,68.848,-183.105,-510.742,-55.664,-393.555
1571285615.995,5.371,-168.457,-893.555,-146.973,-496.582
1571285615.999,27.832,-79.102,-948.730,-135.254,-556.152
1571285616.003,94.727,-19.531,-673.340,-48.340,-487.793
1571285616.007,76.172,24.414,-573.242,-23.926,-432.617
1571285616.011,-17.578,25.391,-731.445,-134.766,-478.516
1571285616.014,-55.176,-3.906,-878.418,-196.289,-556.152
1571285616.018,-3.418,-21.484,-719.727,-114.258,-517.090
1571285616.022,47.363,-43.457,-493.652,-57.617,-446.777
1571285616.026,-27.344,-103.516,-671.387,-158.691,-522.461
1571285616.030,-129.883,-173.340,-842.285,-275.879,-594.727
1571285616.034,-98.633,-198.242,-696.289,-231.445,-563.477
1571285616.038,-37.598,-227.539,-734.375,-142.090,-499.023
1571285616.042,-89.844,-225.586,-812.012,-247.070,-485.352
1571285616.046,-189.941,-201.660,-743.652,-380.371,-536.621
1571285616.050,-175.781,-260.742,-799.316,-340.820,-561.523
1571285616.053,-74.707,-273.926,-751.953,-228.027,-496.582
1571285616.057,-58.105,-216.797,-617.676,-214.844,-452.148
1571285616.061,-110.840,-209.961,-701.172,-298.828,-518.555
1571285616.065,-117.188,-262.207,-871.094,-312.500,-564.453
1571285616.069,-65.918,-288.086,-883.301,-217.285,-517.578
1571285616.073,-59.082,-284.668,-675.293,-161.133,-450.195
1571285616.077,-92.285,-295.410,-606.934,-238.281,-473.633
1571285616.081,-114.258,-296.875,-860.352,-282.715,-560.059
1571285616.085,-60.059,-295.898,-881.348,-168.945,-510.742
1571285616.089,-24.414,-334.473,-662.109,-115.723,-406.738
1571285616.093,-84.473,-382.812,-781.738,-241.699,-459.961
1571285616.096,-95.215,-394.531,-958.496,-299.316,-562.988
1571285616.100,-37.109,-400.391,-984.863,-244.141,-590.820
1571285616.104,15.625,-408.691,-727.051,-134.766,-472.168
1571285616.108,-0.488,-409.180,-466.797,-129.883,-414.551
1571285616.112,-41.992,-406.250,-747.070,-203.125,-521.484
1571285616.116,-32.715,-382.812,-979.980,-191.895,-594.727
1571285616.120,64.941,-313.477,-695.312,-116.699,-491.699
1571285616.124,116.211,-273.438,-423.828,-50.781,-413.574
1571285616.128,49.316,-279.785,-675.781,-99.609,-502.441
1571285616.132,39.551,-309.082,-957.520,-127.930,-559.082
1571285616.136,115.234,-343.262,-841.797,-33.203,-493.652
1571285616.139,135.254,-312.988,-699.219,9.766,-433.105
1571285616.143,68.359,-280.273,-844.727,-62.988,-492.676
1571285616.147,17.578,-222.168,-971.191,-131.348,-573.242
1571285616.151,72.266,-160.645,-732.910,-88.867,-508.789
1571285616.155,139.648,-177.734,-384.277,4.395,-384.277
1571285616.159,99.121,-233.398,-497.070,-44.922,-418.457
1571285616.163,28.809,-257.324,-759.766,-108.887,-526.367
1571285616.167,48.828,-235.352,-700.684,-99.609,-514.648
1571285616.171,127.930,-266.113,-543.945,-12.207,-426.758
1571285616.175,98.633,-312.988,-538.086,-30.273,-399.414
1571285616.178,11.719,-347.168,-808.594,-142.578,-485.840
1571285616.182,15.137,-360.352,-965.332,-148.926,-542.969
1571285616.186,63.477,-364.746,-787.109,-55.176,-475.586
1571285616.190,72.266,-359.863,-780.273,4.883,-414.551
1571285616.194,46.387,-358.398,-739.258,-81.055,-441.895
1571285616.198,41.504,-384.277,-783.203,-110.840,-511.719
1571285616.202,69.336,-405.273,-832.031,-59.082,-489.258
1571285616.206,68.848,-447.266,-662.598,-60.059,-424.805
1571285616.210,9.277,-454.102,-649.414,-127.441,-461.426
1571285616.214,-42.480,-469.238,-781.738,-212.402,-502.930
1571285616.218,-19.531,-524.414,-803.711,-176.270,-461.914
1571285616.221,28.809,-544.922,-569.824,-77.148,-375.000
1571285616.225,-7.812,-549.805,-612.305,-126.953,-398.926
1571285616.229,-51.270,-562.012,-921.875,-199.707,-507.324
1571285616.233,-10.742,-542.969,-1000.000,-178.711,-547.363
1571285616.237,77.637,-485.352,-810.547,-62.012,-459.473
1571285616.241,97.168,-460.938,-488.770,-29.785,-382.812
1571285616.245,42.969,-472.656,-631.348,-114.746,-472.168
1571285616.249,38.086,-416.504,-812.012,-127.930,-514.648
1571285616.253,105.957,-326.172,-688.477,-33.691,-451.660
1571285616.257,125.488,-298.340,-465.332,12.695,-392.090
1571285616.261,64.941,-281.738,-522.949,-75.195,-453.613
1571285616.264,45.898,-291.016,-762.207,-118.652,-536.133
1571285616.268,91.309,-300.781,-628.418,-65.430,-485.352
1571285616.272,113.770,-241.699,-429.688,-3.418,-385.254
1571285616.276,64.453,-201.172,-599.609,-41.992,-419.922
1571285616.280,37.598,-195.312,-948.242,-119.629,-558.594
1571285616.284,69.336,-140.625,-824.707,-83.008,-542.969
1571285616.288,132.812,-75.684,-363.770,25.391,-401.367
1571285616.292,111.816,-28.320,-399.414,-19.043,-405.273
1571285616.296,56.641,19.531,-730.957,-101.074,-521.484
1571285616.300,62.500,47.363,-680.664,-94.727,-523.926
1571285616.303,79.590,36.621,-439.453,-38.574,-433.105
1571285616.307,60.547,13.184,-456.055,-54.688,-401.367
1571285616.311,20.020,19.043,-758.301,-152.344,-488.770
1571285616.315,20.996,29.297,-797.852,-175.293,-541.504
1571285616.319,90.820,56.152,-616.211,-58.105,-455.566
1571285616.323,104.980,83.008,-648.438,6.348,-397.461
1571285616.327,30.762,92.285,-825.684,-95.703,-466.309
1571285616.331,-1.953,90.332,-760.254,-152.344,-527.344
1571285616.335,40.039,58.594,-632.812,-99.121,-495.117
1571285616.339,102.051,27.832,-511.230,-17.090,-412.109
1571285616.343,48.340,6.348,-555.664,-80.566,-443.848
1571285616.346,-13.672,15.137,-679.199,-173.340,-520.996
1571285616.350,43.945,30.273,-678.223,-125.488,-507.324
1571285616.354,107.910,62.500,-478.027,0.000,-400.391
1571285616.358,89.355,96.191,-338.867,-15.625,-376.465
1571285616.362,20.020,63.965,-565.430,-122.559,-482.422
1571285616.366,7.324,11.719,-879.395,-148.438,-536.621
1571285616.370,57.617,-7.324,-978.516,-37.109,-486.816
1571285616.374,58.594,2.930,-705.566,-17.090,-409.668
1571285616.378,2.441,-0.977,-538.086,-104.980,-432.617
1571285616.382,-24.414,-49.316,-818.359,-155.273,-514.648
1571285616.386,22.949,-70.801,-851.562,-111.816,-486.816
1571285616.389,76.660,-32.227,-492.188,-19.043,-383.789
1571285616.393,35.645,-32.227,-541.504,-98.633,-427.246
1571285616.397,2.441,-36.133,-884.277,-185.059,-542.969
1571285616.401,62.012,-24.414,-906.738,-111.816,-517.090
1571285616.405,125.000,-25.879,-623.047,7.812,-412.109
1571285616.409,74.219,-30.762,-570.801,-35.156,-410.156
1571285616.413,20.996,-53.223,-868.652,-121.094,-508.301
1571285616.417,51.758,-60.059,-952.148,-112.305,-528.320
1571285616.421,91.797,-20.996,-593.262,-25.391,-396.484
1571285616.425,78.613,-14.648,-540.039,-20.508,-385.742
1571285616.428,8.789,-47.363,-851.562,-115.234,-506.836
1571285616.432,-0.488,-56.152,-1000.000,-129.395,-574.219
1571285616.436,54.688,-48.828,-794.434,-37.109,-491.211
1571285616.440,39.062,-59.082,-531.738,-41.992,-398.438
1571285616.444,-37.598,-30.273,-763.184,-142.090,-492.188
1571285616.448,-37.598,37.109,-915.039,-142.090,-554.688
1571285616.452,30.273,82.031,-679.199,-62.012,-472.656
1571285616.456,47.852,91.309,-530.762,-23.926,-405.762
1571285616.460,-6.836,87.891,-794.434,-122.559,-472.168
1571285616.464,-55.176,67.383,-1000.000,-190.918,-570.312
1571285616.468,-16.602,27.832,-878.418,-112.793,-544.922
1571285616.471,44.434,-24.414,-721.191,-6.348,-448.730
1571285616.475,17.578,-58.105,-890.137,-66.406,-461.914
1571285616.479,-23.438,-73.242,-998.047,-156.250,-538.086
1571285616.483,-3.906,-108.887,-937.988,-97.656,-540.527
1571285616.487,24.414,-141.113,-861.816,-7.324,-460.938
1571285616.491,7.324,-139.648,-780.762,-20.996,-436.523
1571285616.495,-18.555,-123.047,-821.777,-91.797,-496.094
1571285616.499,11.719,-114.746,-913.574,-94.238,-529.297
1571285616.503,69.336,-138.184,-848.633,6.836,-471.191
1571285616.507,75.684,-164.062,-751.465,42.969,-393.555
1571285616.511,18.555,-163.086,-851.074,-73.730,-437.500
1571285616.514,-7.324,-183.594,-970.215,-137.695,-518.555
1571285616.518,38.574,-192.871,-975.586,-74.219,-518.555
1571285616.522,68.359,-188.477,-909.180,0.488,-475.586
1571285616.526,20.508,-206.055,-787.598,-52.246,-490.234
1571285616.530,0.000,-234.375,-841.309,-110.840,-535.645
1571285616.534,42.969,-256.836,-911.133,-84.961,-527.832
1571285616.538,79.102,-276.855,-820.801,-2.441,-458.008
1571285616.542,42.480,-283.691,-725.098,-24.414,-456.055
1571285616.546,-15.625,-288.086,-851.074,-137.695,-541.016
1571285616.550,0.488,-298.340,-966.797,-152.344,-562.988
1571285616.553,57.129,-287.598,-857.422,-52.246,-465.820
1571285616.557,45.898,-273.438,-729.980,-38.574,-416.504
1571285616.561,-5.859,-280.273,-822.754,-135.254,-495.605
1571285616.565,7.324,-287.109,-1000.000,-154.297,-572.754
1571285616.569,62.012,-286.621,-832.520,-55.176,-496.094
1571285616.573,77.148,-284.668,-540.527,-9.277,-384.766
1571285616.577,25.879,-303.223,-752.441,-83.496,-474.609
1571285616.581,-1.465,-295.898,-999.512,-146.484,-592.773
1571285616.585,46.387,-280.273,-946.289,-97.656,-560.059
1571285616.589,70.312,-297.852,-764.648,-12.207,-450.195
1571285616.593,24.902,-325.195,-812.988,-78.613,-468.262
1571285616.596,1.953,-333.984,-987.305,-155.762,-571.777
1571285616.600,36.621,-312.500,-966.797,-111.328,-582.031
1571285616.604,81.055,-287.109,-966.797,-10.254,-469.727
1571285616.608,56.641,-275.391,-970.703,-44.922,-472.168
1571285616.612,-4.395,-244.629,-968.262,-150.879,-578.613
1571285616.616,3.906,-198.730,-978.516,-121.094,-575.684
1571285616.620,76.660,-168.945,-927.734,21.484,-477.539
1571285616.624,92.285,-156.738,-924.316,55.176,-412.598
1571285616.628,37.109,-124.512,-975.098,-87.402,-459.961
1571285616.632,13.672,-111.816,-968.262,-118.164,-528.320
1571285616.636,65.918,-141.113,-969.727,-4.883,-484.375
1571285616.639,85.449,-149.902,-970.215,33.691,-422.852
1571285616.643,21.973,-103.516,-970.215,-67.871,-467.773
1571285616.647,-5.371,-67.871,-970.215,-132.812,-535.645
1571285616.651,36.621,-45.410,-970.215,-57.129,-549.805
1571285616.655,89.355,-5.371,-970.215,44.434,-476.074
1571285616.659,46.875,29.785,-970.215,-19.531,-460.938
1571285616.663,-13.672,19.531,-970.215,-83.496,-502.930
1571285616.667,11.719,-7.324,-970.215,-41.016,-521.484
1571285616.671,67.871,-15.625,-970.215,58.105,-419.922
1571285616.675,63.965,-47.852,-970.215,65.918,-351.074
1571285616.678,10.742,-72.754,-970.215,-24.902,-446.777
1571285616.682,-5.859,-56.641,-970.215,-31.738,-512.207
1571285616.686,41.504,-42.480,-970.215,73.242,-440.430
1571285616.690,63.965,-33.691,-970.215,102.539,-384.277
1571285616.694,5.371,-53.711,-970.215,19.531,-460.449
1571285616.698,-16.602,-80.566,-970.215,-15.137,-560.547
1571285616.702,54.199,-62.988,-970.215,69.824,-530.762
1571285616.706,96.680,-38.574,-970.215,160.156,-397.461
1571285616.710,62.500,-46.387,-970.703,117.188,-428.223
1571285616.714,41.016,-43.457,-966.309,41.016,-544.434
1571285616.718,91.309,-17.578,-979.492,80.078,-552.734
1571285616.721,145.508,-10.742,-936.523,187.988,-439.453
1571285616.725,113.281,-24.414,-906.738,150.391,-418.945
1571285616.729,60.059,13.672,-961.426,90.820,-519.531
1571285616.733,57.617,41.992,-997.559,88.379,-537.598
1571285616.737,107.910,19.531,-857.422,163.086,-430.176
1571285616.741,93.262,-15.137,-818.359,161.621,-373.535
1571285616.745,13.184,-17.090,-971.680,45.410,-495.605
1571285616.749,-1.953,-23.926,-993.164,0.977,-556.152
1571285616.753,49.316,11.230,-852.051,91.309,-463.867
1571285616.757,72.754,146.973,-743.164,158.203,-422.363
1571285616.761,31.738,185.547,-862.793,53.711,-487.793
1571285616.764,26.367,154.785,-923.828,0.488,-533.203
1571285616.768,61.523,153.320,-793.457,83.496,-495.117
1571285616.772,40.527,141.602,-625.000,117.188,-421.875
1571285616.776,-8.301,81.543,-693.848,8.301,-444.336
1571285616.780,-45.410,6.836,-885.254,-68.848,-542.480
1571285616.784,-45.410,-42.480,-944.824,-18.066,-552.734
1571285616.788,10.254,-79.102,-923.828,46.875,-459.961
1571285616.792,-13.184,-89.844,-937.012,7.812,-441.406
1571285616.796,-57.617,-110.352,-925.781,-74.707,-519.531
1571285616.800,-33.203,-109.375,-975.586,-51.270,-570.312
1571285616.803,39.062,-75.684,-961.426,85.449,-498.047
1571285616.807,62.988,-39.551,-816.406,94.727,-438.965
1571285616.811,13.672,57.129,-795.410,-20.996,-490.234
1571285616.815,10.742,122.559,-959.473,-43.457,-565.918
1571285616.819,73.242,104.492,-942.383,41.016,-497.070
1571285616.823,68.848,64.453,-750.977,84.961,-402.832
1571285616.827,2.930,58.105,-775.391,10.742,-479.980
1571285616.831,-16.113,83.496,-935.547,-45.410,-556.152
1571285616.835,28.320,98.633,-960.938,6.348,-514.160
1571285616.839,78.613,122.070,-844.238,83.008,-414.551
1571285616.843,48.828,117.188,-842.285,29.785,-435.547
1571285616.846,19.043,58.594,-946.777,-24.414,-533.691
1571285616.850,56.152,62.500,-994.141,38.086,-567.871
1571285616.854,102.539,136.230,-847.656,134.277,-455.566
1571285616.858,84.473,207.520,-810.059,94.727,-411.133
1571285616.862,32.227,272.461,-959.473,14.160,-532.227
1571285616.866,35.156,341.797,-990.723,33.691,-573.730
1571285616.870,89.844,384.277,-862.793,115.234,-456.543
1571285616.874,97.656,387.207,-736.816,109.375,-396.973
1571285616.878,55.176,474.121,-910.645,38.086,-492.188
1571285616.882,58.594,574.707,-988.770,40.039,-571.289
1571285616.886,106.445,608.887,-958.496,106.934,-506.348
1571285616.889,131.348,690.918,-888.672,161.621,-405.762
1571285616.893,81.543,788.086,-904.297,85.449,-467.285
1571285616.897,42.480,809.570,-986.816,23.438,-542.480
1571285616.901,74.707,847.168,-957.520,96.191,-507.324
1571285616.905,119.141,956.543,-750.000,184.570,-407.715
1571285616.909,86.914,-996.094,-808.594,118.164,-439.941
1571285616.913,40.039,996.094,-1000.000,10.254,-541.992
1571285616.917,55.176,999.023,-937.988,39.062,-531.738
1571285616.921,113.770,999.512,-742.188,146.973,-432.129
1571285616.925,119.629,999.512,-727.051,141.113,-408.691
1571285616.928,62.988,999.512,-923.340,46.875,-519.531
1571285616.932,52.734,999.512,-983.398,38.086,-569.336
1571285616.936,104.980,999.512,-910.156,152.344,-468.750
1571285616.940,115.723,999.512,-904.785,176.270,-404.785
1571285616.944,64.941,999.512,-863.770,66.895,-469.727
1571285616.948,27.832,999.512,-802.734,-5.371,-531.738
1571285616.952,53.711,999.512,-785.645,51.758,-471.191
1571285616.956,93.262,999.512,-619.141,127.441,-380.371
1571285616.960,58.105,999.512,-610.352,58.594,-437.500
1571285616.964,25.391,999.512,-789.551,-10.254,-515.137
1571285616.968,70.801,999.512,-833.984,65.430,-481.445
1571285616.971,113.770,999.512,-704.590,170.898,-418.945
1571285616.975,65.918,999.512,-730.469,128.906,-428.223
1571285616.979,5.371,999.512,-936.035,19.531,-514.648
1571285616.983,46.387,999.512,-993.652,11.719,-541.992
1571285616.987,107.910,999.512,-866.211,103.516,-449.707
1571285616.991,95.703,999.512,-685.059,121.094,-399.902
1571285616.995,49.316,999.512,-776.855,46.875,-489.258
1571285616.999,41.504,999.512,-942.383,-1.465,-545.898
1571285617.003,69.824,999.512,-768.555,85.938,-449.707
1571285617.007,77.637,999.512,-527.344,122.559,-381.348
1571285617.011,17.090,999.512,-631.836,10.254,-429.688
1571285617.014,-22.949,999.512,-890.625,-44.434,-506.348
1571285617.018,33.691,999.512,-842.773,43.457,-486.816
1571285617.022,69.824,999.512,-720.703,121.582,-396.973
1571285617.026,12.207,999.512,-848.145,42.969,-420.898
1571285617.030,-21.973,999.512,-979.980,-38.574,-536.133
1571285617.034,13.672,999.512,-953.125,11.719,-523.926
1571285617.038,75.684,999.512,-710.449,122.559,-395.996
1571285617.042,45.410,999.512,-740.723,71.777,-402.344
1571285617.046,-39.062,999.512,-976.074,-35.645,-501.465
1571285617.050,-14.160,999.512,-989.258,-6.836,-520.508
1571285617.053,40.527,999.512,-862.305,92.773,-440.918
1571285617.057,25.879,999.512,-766.113,104.980,-384.277
1571285617.061,-22.461,999.512,-900.391,11.719,-439.453
1571285617.065,-37.109,999.512,-973.633,-4.395,-521.973
1571285617.069,10.742,999.512,-967.773,92.285,-489.258
1571285617.073,49.316,999.512,-969.238,126.953,-417.969
1571285617.077,16.602,999.512,-966.309,48.828,-458.496
1571285617.081,-11.230,999.512,-974.609,4.883,-502.441
1571285617.085,28.320,999.512,-943.848,72.266,-476.074
1571285617.089,58.594,999.512,-810.547,163.086,-390.137
1571285617.093,22.949,999.512,-761.719,123.535,-397.461
1571285617.096,-1.953,999.512,-897.461,56.152,-500.977
1571285617.100,30.273,999.512,-963.379,83.984,-517.578
1571285617.104,75.195,999.512,-873.047,177.246,-424.316
1571285617.108,45.410,999.512,-748.535,159.180,-409.668
1571285617.112,-20.996,999.512,-824.707,78.125,-500.000
1571285617.116,-19.043,999.512,-958.496,60.059,-542.480
1571285617.120,47.363,999.512,-982.422,138.672,-490.234
1571285617.124,73.242,999.512,-800.293,164.062,-417.969
1571285617.128,10.742,999.512,-701.660,83.984,-460.938
1571285617.132,-14.160,999.512,-903.320,69.824,-535.156
1571285617.136,50.293,999.512,-902.344,149.414,-500.000
1571285617.139,77.148,999.512,-656.738,192.383,-420.898
1571285617.143,13.184,999.512,-665.527,111.328,-455.566
1571285617.147,-33.691,999.512,-906.738,32.227,-552.734
1571285617.151,-21.484,999.512,-939.453,74.219,-537.598
1571285617.155,24.414,999.512,-626.465,183.105,-410.645
1571285617.159,14.648,999.512,-596.191,166.016,-414.551
1571285617.163,-17.090,999.512,-888.184,114.258,-513.672
1571285617.167,18.066,999.512,-996.582,132.812,-541.504
1571285617.171,38.086,999.512,-785.156,193.359,-455.078
1571285617.175,-20.020,999.512,-518.555,137.695,-396.973
1571285617.178,-63.477,999.512,-774.414,60.547,-501.465
1571285617.182,-43.945,999.512,-968.262,80.566,-568.848
1571285617.186,-8.301,999.512,-601.074,166.992,-458.496
1571285617.190,-16.113,999.512,-356.934,193.359,-392.578
1571285617.194,-66.895,999.512,-505.859,108.398,-447.754
1571285617.198,-95.703,999.512,-643.066,83.984,-522.949
1571285617.202,-68.359,999.512,-527.832,176.758,-506.348
1571285617.206,-38.574,999.512,-293.945,247.559,-401.855
1571285617.210,-68.848,999.512,-433.594,203.125,-440.918
1571285617.214,-67.871,999.512,-698.730,158.691,-539.062
1571285617.218,-8.789,999.512,-659.180,240.723,-522.461
1571285617.221,41.504,999.512,-386.230,359.375,-399.414
1571285617.225,18.555,999.512,-569.824,332.031,-443.848
1571285617.229,-23.438,-1000.000,-662.109,270.020,-545.898
1571285617.233,-4.395,994.629,-382.324,299.805,-511.230
1571285617.237,59.570,-995.117,-292.969,393.555,-441.895
1571285617.241,66.406,954.590,-237.793,395.996,-420.898
1571285617.245,-5.371,803.711,-264.160,314.453,-476.562
1571285617.249,-10.254,632.324,-409.668,308.105,-519.531
1571285617.253,59.082,435.059,-398.926,419.922,-446.777
1571285617.257,65.430,241.699,-376.465,474.121,-385.254
1571285617.261,6.348,19.043,-592.285,358.398,-455.566
1571285617.264,-20.508,-194.824,-792.969,293.457,-537.109
1571285617.268,32.227,-326.660,-895.996,370.605,-507.324
1571285617.272,63.965,-363.770,-913.574,430.176,-421.387
1571285617.276,1.465,-381.348,-719.238,376.953,-429.199
1571285617.280,-23.926,-450.684,-806.152,330.078,-508.301
1571285617.284,12.207,-503.418,-877.441,385.254,-495.117
1571285617.288,62.012,-517.578,-575.684,474.609,-384.766
1571285617.292,51.270,-586.426,-459.473,444.336,-382.324
1571285617.296,2.930,-686.035,-745.605,349.609,-503.906
1571285617.300,14.648,-703.613,-960.449,322.266,-567.871
1571285617.303,54.688,-751.465,-833.984,406.738,-474.121
1571285617.307,41.992,-807.129,-771.484,425.293,-419.434
1571285617.311,-20.508,-879.883,-913.574,333.008,-513.184
1571285617.315,-31.250,-967.773,-999.512,312.988,-592.285
1571285617.319,28.320,-970.703,-845.703,411.621,-495.605
1571285617.323,66.895,-967.773,-638.672,472.656,-418.945
1571285617.327,6.836,-970.703,-792.969,395.508,-474.121
1571285617.331,-37.109,-970.215,-991.699,350.586,-535.156
1571285617.335,36.621,-970.215,-932.129,450.195,-519.531
1571285617.339,92.285,-970.215,-675.293,542.969,-418.457
1571285617.343,49.805,-970.215,-719.727,475.586,-424.805
1571285617.346,17.090,-970.215,-928.711,420.410,-517.090
1571285617.350,44.434,-970.215,-988.770,457.031,-539.062
1571285617.354,89.355,-970.215,-862.793,535.156,-438.477
1571285617.358,64.453,-970.215,-809.570,539.551,-428.711
1571285617.362,-14.160,-970.215,-973.633,446.289,-529.297
1571285617.366,-15.137,-970.215,-992.188,448.242,-539.062
1571285617.370,62.012,-970.215,-836.426,585.938,-434.082
1571285617.374,91.797,-970.703,-773.438,612.305,-380.859
1571285617.378,39.551,-968.750,-921.387,526.367,-445.801
1571285617.382,37.598,-969.238,-967.285,487.793,-497.070
1571285617.386,111.816,-968.750,-973.145,559.082,-467.773
1571285617.389,131.836,-905.762,-953.613,622.559,-404.297
1571285617.393,63.477,-839.355,-932.617,558.594,-425.781
1571285617.397,22.949,-778.320,-961.426,501.953,-490.234
1571285617.401,72.754,-705.566,-973.633,544.434,-476.074
1571285617.405,116.211,-687.500,-971.191,620.605,-399.414
1571285617.409,54.199,-663.086,-927.734,551.270,-403.809
1571285617.413,-10.742,-650.391,-918.457,459.961,-452.637
1571285617.417,18.066,-643.555,-979.492,464.844,-465.820
1571285617.421,67.383,-609.863,-913.086,519.531,-403.320
1571285617.425,55.176,-571.777,-834.473,507.324,-358.887
1571285617.428,19.043,-493.164,-933.105,431.641,-436.523
1571285617.432,18.555,-393.066,-990.723,445.801,-495.605
1571285617.436,65.430,-329.590,-921.387,528.320,-428.223
1571285617.440,76.172,-280.762,-863.281,541.504,-357.910
1571285617.444,23.438,-203.613,-940.430,454.590,-416.504
1571285617.448,15.625,-132.812,-990.234,441.406,-504.395
1571285617.452,54.688,-99.609,-913.574,514.160,-454.590
1571285617.456,83.008,-36.621,-643.066,549.805,-343.750
1571285617.460,62.012,-156.250,-645.508,509.277,-387.695
1571285617.464,34.180,-375.000,-928.711,467.773,-503.418
1571285617.468,72.754,-402.832,-961.914,471.680,-498.535
1571285617.471,132.324,-315.430,-706.543,542.480,-397.461
1571285617.475,108.398,-251.465,-616.699,476.074,-395.020
1571285617.479,78.125,-224.121,-873.047,355.957,-486.816
1571285617.483,116.211,-133.789,-895.020,391.602,-512.695
1571285617.487,142.090,-67.383,-563.965,499.512,-415.527
1571285617.491,108.398,-71.289,-535.645,469.238,-382.324
1571285617.495,49.316,-112.305,-884.277,345.703,-489.258
1571285617.499,44.434,-105.469,-987.793,331.055,-540.039
1571285617.503,104.980,-65.918,-583.008,408.691,-430.176
1571285617.507,124.512,-119.629,-313.965,447.266,-358.398
1571285617.511,77.148,-228.516,-571.777,403.320,-456.055
1571285617.514,67.383,-271.973,-668.945,350.586,-532.715
1571285617.518,128.418,-294.434,-460.449,383.789,-492.676
1571285617.522,166.016,-322.754,-260.742,458.984,-413.086
1571285617.526,100.098,-348.633,-219.727,377.441,-430.176
1571285617.530,43.457,-349.121,-276.855,270.996,-506.348
1571285617.534,74.219,-427.734,-192.871,290.527,-489.746
1571285617.538,127.441,-547.852,-213.379,366.699,-422.852
1571285617.542,89.844,-530.273,-288.086,313.477,-442.383
1571285617.546,22.949,-444.336,-135.254,223.145,-496.582
1571285617.550,16.113,-369.629,-88.867,201.660,-510.742
1571285617.553,56.641,-333.984,-97.656,264.648,-445.312
1571285617.557,47.852,-317.383,0.488,265.137,-387.695
1571285617.561,12.695,-314.453,68.848,164.551,-437.988
1571285617.565,13.672,-311.523,-129.883,136.230,-514.648
1571285617.569,52.246,-297.852,-149.902,215.820,-472.168
1571285617.573,83.008,-284.180,48.828,250.977,-392.578
1571285617.577,26.855,-275.879,-2.441,162.598,-433.594
1571285617.581,-19.531,-325.684,-267.090,127.441,-508.301
1571285617.585,10.254,-370.605,-409.180,183.105,-475.098
1571285617.589,58.105,-357.910,-332.031,199.707,-393.066
1571285617.593,22.461,-378.418,-233.887,131.348,-404.297
1571285617.596,-35.156,-420.898,-427.734,73.242,-483.398
1571285617.600,-14.160,-410.156,-808.594,93.262,-514.160
1571285617.604,38.574,-278.320,-468.262,190.430,-394.531
1571285617.608,15.625,-218.262,-95.215,158.203,-349.121
1571285617.612,-26.367,-250.488,-527.344,71.777,-469.727
1571285617.616,-12.695,-208.984,-692.871,94.238,-492.676
1571285617.620,41.504,-112.305,-374.023,179.688,-397.949
1571285617.624,55.176,-92.773,-272.949,187.012,-371.582
1571285617.628,-11.719,-149.414,-550.781,78.613,-444.824
1571285617.632,-38.086,-213.867,-901.367,35.156,-506.348
1571285617.636,21.973,-324.707,-839.355,117.188,-430.176
1571285617.639,54.199,-466.309,-546.387,176.270,-324.707
1571285617.643,3.418,-566.406,-745.117,107.422,-408.203
1571285617.647,-20.996,-519.043,-1000.000,46.875,-488.281
1571285617.651,11.719,-452.637,-927.734,105.957,-444.824
1571285617.655,55.176,-419.922,-731.445,187.988,-348.633
1571285617.659,28.320,-407.715,-823.730,117.676,-376.465
1571285617.663,-21.484,-411.133,-991.211,42.480,-478.516
1571285617.667,5.371,-417.480,-974.121,86.426,-488.281
1571285617.671,39.062,-436.523,-913.574,175.293,-391.602
1571285617.675,26.367,-450.684,-868.652,143.066,-337.891
1571285617.678,-13.184,-453.613,-953.125,58.594,-419.434
1571285617.682,-5.371,-489.746,-975.098,66.406,-488.281
1571285617.686,84.473,-490.234,-964.355,183.105,-431.641
1571285617.690,83.008,-439.453,-969.727,212.891,-403.320
1571285617.694,42.969,-356.445,-969.727,152.344,-462.402
1571285617.698,84.961,-344.238,-962.402,180.664,-492.676
1571285617.702,129.395,-437.500,-993.652,260.742,-448.242
1571285617.706,148.438,-430.176,-838.379,322.266,-333.984
1571285617.710,95.215,-400.879,-746.094,245.117,-360.840
1571285617.714,28.809,-451.660,-910.645,151.367,-449.707
1571285617.718,42.480,-486.816,-957.520,201.660,-435.059
1571285617.721,111.328,-482.422,-720.215,279.785,-342.285
1571285617.725,88.379,-519.043,-716.797,233.398,-361.816
1571285617.729,-2.441,-552.734,-954.102,163.574,-464.355
1571285617.733,20.508,-563.477,-1000.000,181.152,-500.000
1571285617.737,90.332,-518.555,-819.336,275.391,-414.062
1571285617.741,71.777,-473.145,-501.465,269.043,-354.980
1571285617.745,21.484,-484.375,-511.719,175.781,-419.922
1571285617.749,19.043,-476.562,-699.219,181.641,-481.445
1571285617.753,78.125,-418.457,-541.504,273.926,-430.664
1571285617.757,87.891,-380.371,-159.180,306.152,-329.102
1571285617.761,33.203,-439.453,-302.246,229.492,-404.785
1571285617.764,39.551,-479.004,-606.445,188.965,-507.812
1571285617.768,83.496,-500.000,-479.980,249.512,-467.285
1571285617.772,97.168,-562.988,-367.676,282.227,-399.902
1571285617.776,54.199,-620.117,-505.859,186.035,-432.617
1571285617.780,13.184,-643.066,-846.680,113.770,-538.574
1571285617.784,44.922,-626.953,-721.191,148.926,-509.277
1571285617.788,104.004,-681.641,-251.465,227.539,-403.809
1571285617.792,76.172,-788.086,-311.523,196.777,-413.086
1571285617.796,9.277,-820.312,-520.996,128.418,-468.750
1571285617.800,5.859,-814.453,-534.180,137.207,-503.906
1571285617.803,43.457,-824.707,-351.562,225.586,-440.430
1571285617.807,38.574,-852.539,-278.809,206.055,-390.137
1571285617.811,-14.160,-858.887,-486.816,72.754,-476.562
1571285617.815,-13.672,-793.945,-614.258,31.250,-548.340
1571285617.819,31.250,-723.145,-563.965,110.352,-484.863
1571285617.823,36.133,-705.078,-552.734,151.855,-406.738
1571285617.827,-12.695,-730.957,-767.578,55.664,-489.258
1571285617.831,-40.527,-747.070,-703.125,23.926,-545.410
1571285617.835,12.207,-805.664,-496.582,103.516,-477.051
1571285617.839,86.426,-872.559,-455.566,185.059,-408.203
1571285617.843,44.922,-905.273,-518.066,163.574,-449.219
1571285617.846,-16.602,-912.109,-578.125,85.938,-506.348
1571285617.850,35.645,-913.574,-631.836,98.633,-505.371
1571285617.854,105.469,-932.129,-456.543,186.035,-400.879
1571285617.858,77.637,-954.102,-318.848,162.598,-374.023
1571285617.862,18.066,-970.703,-522.949,75.684,-492.676
1571285617.866,34.180,-969.727,-799.316,70.801,-545.898
1571285617.870,82.520,-969.727,-958.984,140.625,-509.277
1571285617.874,71.289,-970.215,-767.578,158.691,-460.938
1571285617.878,16.113,-969.727,-622.559,73.730,-496.094
1571285617.882,17.090,-971.191,-883.301,51.270,-574.219
1571285617.886,79.590,-963.379,-868.652,149.414,-520.020
1571285617.889,86.426,-963.379,-539.062,206.055,-417.969
1571285617.893,37.109,-971.191,-686.523,130.371,-471.680
1571285617.897,5.371,-969.727,-992.188,83.496,-571.289
1571285617.901,32.227,-968.750,-883.301,139.648,-530.273
1571285617.905,80.566,-973.633,-626.465,221.191,-430.176
1571285617.909,54.199,-946.289,-597.168,160.645,-429.199
1571285617.913,5.859,-927.734,-840.332,82.031,-510.254
1571285617.917,30.762,-924.805,-1000.000,125.000,-546.875
1571285617.921,106.445,-932.617,-720.215,235.840,-426.758
1571285617.925,86.426,-967.285,-453.613,227.539,-368.164
1571285617.928,30.273,-970.703,-765.625,121.094,-473.633
1571285617.932,41.992,-968.750,-1000.000,79.590,-542.969
1571285617.936,88.867,-970.215,-749.023,175.781,-457.520
1571285617.940,92.285,-970.215,-544.922,226.562,-392.090
1571285617.944,56.152,-970.215,-780.273,136.719,-470.703
1571285617.948,33.203,-970.215,-992.676,87.402,-562.988
1571285617.952,58.594,-970.215,-941.895,163.574,-514.648
1571285617.956,98.145,-970.215,-751.953,233.887,-405.762
1571285617.960,49.316,-970.215,-834.961,173.340,-441.406
1571285617.964,0.488,-970.215,-1000.000,102.539,-546.387
1571285617.968,38.574,-970.215,-928.223,135.254,-527.344
1571285617.971,90.820,-970.215,-833.984,227.051,-421.387
1571285617.975,45.410,-970.215,-929.199,163.086,-448.730
1571285617.979,-19.043,-970.215,-988.770,84.473,-520.020
1571285617.983,8.789,-970.215,-949.219,122.070,-507.324
1571285617.987,73.730,-970.215,-898.926,198.242,-430.176
1571285617.991,69.336,-970.215,-817.871,203.613,-404.297
1571285617.995,13.184,-970.215,-844.238,105.957,-471.680
1571285617.999,-15.625,-970.215,-974.609,47.852,-529.785
1571285618.003,29.297,-970.215,-940.430,142.090,-472.656
1571285618.007,55.176,-970.215,-882.812,189.453,-407.227
1571285618.011,-15.137,-970.215,-940.430,98.145,-458.984
1571285618.014,-47.852,-970.215,-967.773,56.641,-525.879
1571285618.018,10.742,-970.215,-988.770,131.348,-514.648
1571285618.022,42.969,-970.215,-875.488,193.359,-424.805
1571285618.026,-0.977,-970.215,-723.145,116.211,-410.156
1571285618.030,-29.785,-970.215,-860.840,73.730,-494.141
1571285618.034,4.395,-970.215,-980.469,114.746,-512.207
1571285618.038,50.781,-970.215,-778.809,162.598,-423.340
1571285618.042,39.551,-970.215,-676.270,118.652,-407.715
1571285618.046,-11.719,-970.215,-881.836,44.922,-495.605
1571285618.050,-4.883,-970.215,-973.633,56.641,-541.016
1571285618.053,56.152,-970.215,-961.426,115.234,-500.488
1571285618.057,56.641,-970.215,-949.707,112.305,-453.125
1571285618.061,6.836,-970.215,-959.961,-9.277,-558.594
1571285618.065,10.254,-969.727,-971.191,-115.234,-745.605
1571285618.069,40.527,-971.191,-969.727,-72.754,-742.676
1571285618.073,63.477,-965.332,-969.727,29.785,-669.434
1571285618.077,17.090,-962.891,-970.215,7.812,-724.609
1571285618.081,-33.691,-965.332,-970.215,-32.227,-799.805
1571285618.085,26.855,-959.961,-970.215,60.547,-749.512
1571285618.089,73.730,-976.074,-970.215,132.324,-649.414
1571285618.093,33.203,-943.848,-970.703,79.102,-672.363
1571285618.096,12.207,-859.863,-964.844,27.344,-740.234
1571285618.100,35.156,-808.105,-983.887,68.359,-720.703
1571285618.104,57.129,-746.582,-923.340,165.039,-594.727
1571285618.108,39.551,-733.398,-891.113,163.086,-581.543
1571285618.112,12.695,-699.707,-970.703,101.562,-686.035
1571285618.116,18.555,-621.094,-977.051,115.723,-684.082
1571285618.120,49.316,-574.219,-935.547,228.516,-592.773
1571285618.124,36.621,-538.574,-854.980,244.629,-523.438
1571285618.128,-17.578,-519.531,-856.934,178.711,-556.641
1571285618.132,-27.832,-446.777,-943.848,187.988,-606.934
1571285618.136,7.812,-348.145,-857.910,235.840,-537.109
1571285618.139,-6.348,-293.457,-728.516,262.695,-458.008
1571285618.143,-54.688,-205.078,-750.977,208.984,-505.371
1571285618.147,-65.430,-156.738,-917.969,191.895,-572.754
1571285618.151,-39.062,-136.230,-899.414,286.621,-536.133
1571285618.155,-28.320,-85.449,-818.848,351.562,-450.195
1571285618.159,-90.820,-12.695,-744.141,299.805,-461.426
1571285618.163,-106.445,108.887,-634.277,244.629,-514.648
1571285618.167,-43.457,276.367,-652.832,311.035,-492.676
1571285618.171,27.832,377.930,-432.617,413.086,-389.648
1571285618.175,-21.973,350.586,-245.117,391.113,-363.281
1571285618.178,-98.633,410.156,-489.258,338.379,-451.660
1571285618.182,-40.527,685.547,-675.781,380.859,-499.023
1571285618.186,16.113,895.508,-417.969,479.004,-407.227
1571285618.190,11.230,957.520,-180.176,487.793,-351.074
1571285618.194,-38.086,992.676,-441.895,431.641,-428.711
1571285618.198,-64.941,-999.512,-858.887,422.363,-510.742
1571285618.202,-18.066,998.047,-814.453,482.422,-456.055
1571285618.206,9.277,999.023,-328.613,559.570,-332.520
1571285618.210,-15.625,-997.070,-220.703,521.973,-343.750
1571285618.214,-39.551,977.051,-539.551,466.309,-429.199
1571285618.218,7.812,978.027,-637.695,529.297,-448.242
1571285618.221,75.195,-996.582,-333.496,621.094,-354.004
1571285618.225,17.090,998.535,-281.250,591.309,-339.355
1571285618.229,-39.551,999.023,-494.141,551.758,-404.297
1571285618.233,1.953,999.512,-618.164,561.035,-424.316
1571285618.237,78.125,999.512,-470.703,635.254,-351.074
1571285618.241,44.434,999.512,-378.906,629.883,-317.871
1571285618.245,-24.902,999.512,-808.594,527.832,-425.293
1571285618.249,6.836,999.512,-864.258,512.207,-457.520
1571285618.253,66.895,999.512,-376.465,595.703,-347.168
1571285618.257,60.547,999.512,-313.477,625.977,-322.266
1571285618.261,12.695,999.512,-520.508,521.484,-398.438
1571285618.264,-20.996,999.512,-583.496,432.129,-449.219
1571285618.268,17.578,999.512,-458.496,481.445,-399.414
1571285618.272,69.824,999.512,-323.730,558.105,-307.129
1571285618.276,21.484,999.512,-458.984,464.355,-364.258
1571285618.280,-13.184,999.512,-551.758,367.188,-444.824
1571285618.284,32.715,999.512,-460.449,426.270,-414.551
1571285618.288,49.805,999.512,-461.426,502.930,-329.590
1571285618.292,-12.207,999.512,-675.293,440.430,-356.934
1571285618.296,-63.965,999.512,-664.551,348.633,-431.152
1571285618.300,-1.953,999.512,-570.312,344.238,-438.477
1571285618.303,61.523,999.512,-502.441,413.086,-383.789
1571285618.307,49.316,999.512,-353.516,401.367,-339.844
1571285618.311,-10.254,999.512,-354.004,291.992,-392.090
1571285618.315,-13.184,999.512,-532.227,270.508,-462.402
1571285618.319,49.805,999.512,-480.469,335.938,-412.109
1571285618.323,74.707,999.512,-196.289,352.539,-308.105
1571285618.327,20.020,-1000.000,-245.117,269.531,-366.211
1571285618.331,-1.465,997.070,-543.945,232.422,-477.539
1571285618.335,51.758,999.023,-674.805,278.320,-472.656
1571285618.339,83.984,996.582,-546.875,336.914,-395.996
1571285618.343,35.645,897.949,-481.934,277.344,-386.719
1571285618.346,3.418,779.297,-674.316,195.801,-455.078
1571285618.350,22.949,757.812,-936.523,216.309,-485.352
1571285618.354,37.598,809.082,-610.840,305.176,-380.859
1571285618.358,13.672,823.730,-193.359,282.715,-314.941
1571285618.362,-41.992,808.594,-517.090,156.738,-423.340
1571285618.366,-30.762,824.219,-747.070,125.488,-481.934
1571285618.370,40.527,786.133,-475.586,254.395,-399.902
1571285618.374,53.223,738.770,-278.320,284.668,-340.332
1571285618.378,0.488,721.680,-544.922,178.711,-427.734
1571285618.382,0.000,694.824,-880.371,130.859,-504.883
1571285618.386,69.336,647.461,-757.812,196.289,-423.828
1571285618.389,62.988,550.293,-452.148,254.883,-345.215
1571285618.393,-5.371,437.012,-669.434,179.688,-423.828
1571285618.397,0.000,370.605,-964.355,125.977,-506.836
1571285618.401,75.195,291.016,-830.078,190.918,-485.352
1571285618.405,120.117,151.367,-620.605,259.766,-389.160
1571285618.409,75.195,52.734,-589.355,197.754,-380.371
1571285618.413,40.527,-10.254,-766.602,146.973,-468.750
1571285618.417,52.734,-77.637,-751.465,149.902,-467.773
1571285618.421,96.191,-101.074,-601.562,196.777,-391.602
1571285618.425,87.402,-77.148,-572.266,199.219,-372.559
1571285618.428,30.273,-85.938,-831.055,108.398,-456.055
1571285618.432,48.340,-117.188,-968.750,104.004,-496.582
1571285618.436,110.840,-144.531,-710.938,190.918,-402.832
1571285618.440,109.863,-148.926,-799.316,199.707,-386.719
1571285618.444,25.391,-96.191,-943.359,126.465,-481.445
1571285618.448,-10.742,-65.430,-797.363,106.934,-508.301
1571285618.452,72.266,-43.945,-777.344,172.363,-462.402
1571285618.456,108.887,-41.016,-556.152,211.914,-361.816
1571285618.460,59.082,-76.660,-556.641,132.324,-397.461
1571285618.464,44.434,-107.422,-860.840,55.176,-507.812
1571285618.468,68.848,-117.188,-830.078,98.633,-482.422
1571285618.471,93.262,-157.227,-607.910,174.805,-398.438
1571285618.475,63.965,-203.125,-653.809,142.578,-407.715
1571285618.479,3.418,-267.578,-847.168,81.055,-474.609
1571285618.483,28.320,-328.125,-932.129,81.543,-498.047
1571285618.487,90.820,-304.199,-785.156,154.297,-427.246
1571285618.491,83.496,-333.496,-494.141,147.461,-378.418
1571285618.495,26.855,-415.039,-639.160,51.270,-457.031
1571285618.499,1.953,-466.309,-954.590,57.129,-553.223
1571285618.503,58.105,-486.816,-835.449,145.996,-481.934
1571285618.507,91.797,-513.184,-483.887,146.484,-374.023
1571285618.511,32.715,-560.547,-603.516,48.340,-437.012
1571285618.514,-1.953,-606.934,-836.914,23.926,-488.281
1571285618.518,55.664,-632.324,-851.074,105.469,-458.984
1571285618.522,81.543,-627.441,-748.047,152.344,-409.180
1571285618.526,15.625,-645.996,-803.223,88.867,-436.523
1571285618.530,-5.371,-680.664,-949.219,56.152,-503.906
1571285618.534,40.039,-729.492,-835.449,88.379,-485.840
1571285618.538,92.285,-796.387,-536.621,130.371,-384.766
1571285618.542,79.102,-854.004,-620.117,97.168,-391.602
1571285618.546,37.598,-857.910,-962.402,42.969,-497.559
1571285618.550,51.270,-807.617,-952.148,44.434,-510.254
1571285618.553,108.887,-793.945,-734.863,110.840,-431.641
1571285618.557,97.656,-830.566,-713.867,132.812,-401.855
1571285618.561,27.344,-809.570,-848.633,71.289,-452.637
1571285618.565,43.945,-724.121,-886.230,64.453,-492.188
1571285618.569,106.934,-649.902,-880.371,125.977,-458.496
1571285618.573,106.934,-656.738,-853.516,169.922,-393.066
1571285618.577,40.527,-698.730,-965.820,75.195,-452.148
1571285618.581,13.184,-696.777,-924.805,-2.930,-492.188
1571285618.585,60.547,-723.633,-785.645,65.918,-458.008
1571285618.589,79.590,-770.996,-687.012,117.188,-395.508
1571285618.593,27.344,-814.941,-692.871,67.383,-405.273
1571285618.596,4.883,-837.402,-746.582,15.625,-458.008
1571285618.600,27.832,-828.125,-767.090,60.059,-453.125
1571285618.604,64.453,-802.246,-694.824,143.066,-398.438
1571285618.608,65.430,-791.016,-560.547,110.352,-364.258
1571285618.612,-6.348,-783.203,-718.750,30.273,-438.477
1571285618.616,-5.859,-746.094,-961.914,24.414,-515.625
1571285618.620,80.566,-729.980,-994.629,118.164,-465.332
1571285618.624,67.871,-748.047,-839.844,131.836,-395.020
1571285618.628,9.766,-791.992,-750.488,59.082,-416.504
1571285618.632,-4.395,-824.707,-970.703,60.547,-487.305
1571285618.636,26.855,-809.082,-873.047,125.977,-432.129
1571285618.639,39.062,-812.500,-528.809,149.902,-321.777
1571285618.643,-19.531,-838.379,-492.676,84.473,-335.449
1571285618.647,-32.715,-827.637,-802.246,30.762,-428.711
1571285618.651,49.316,-799.316,-881.348,85.938,-434.570
1571285618.655,106.445,-761.719,-551.270,178.223,-333.984
1571285618.659,43.457,-719.238,-510.254,121.582,-337.891
1571285618.663,-2.441,-702.148,-830.078,50.781,-434.082
1571285618.667,32.227,-642.090,-962.891,96.680,-472.168
1571285618.671,76.660,-573.730,-672.852,162.109,-386.230
1571285618.675,48.828,-583.984,-474.121,150.391,-347.656
1571285618.678,-8.789,-607.422,-755.859,87.402,-426.758
1571285618.682,23.926,-585.449,-974.609,75.684,-481.934
1571285618.686,80.566,-575.195,-779.297,146.973,-402.344
1571285618.690,83.984,-614.746,-561.523,174.805,-318.359
1571285618.694,22.461,-676.758,-724.609,80.566,-389.160
1571285618.698,-15.625,-691.895,-890.625,39.062,-445.801
1571285618.702,37.109,-656.250,-746.094,110.352,-396.973
1571285618.706,70.312,-618.164,-590.820,167.480,-337.891
1571285618.710,13.672,-623.047,-724.609,120.117,-370.117
1571285618.714,-17.090,-624.023,-957.031,63.965,-444.336
1571285618.718,20.996,-569.336,-914.551,98.145,-453.613
1571285618.721,61.523,-543.457,-634.766,165.039,-365.234
1571285618.725,26.855,-571.289,-793.945,116.211,-371.582
1571285618.729,-21.973,-568.359,-927.734,42.969,-448.730
1571285618.733,25.391,-571.289,-707.520,83.984,-435.547
1571285618.737,103.516,-618.164,-644.531,179.199,-376.465
