timestamps,TP9,AF7,AF8,TP10,Right AUX
1571286554.081,-413.574,-970.215,-965.820,-427.734,-15.625
1571286554.085,-248.535,-970.215,-970.215,-310.059,18.555
1571286554.089,-158.691,-970.215,-967.285,-248.535,-1.953
1571286554.093,-243.652,-970.215,-970.703,-281.250,-19.043
1571286554.096,-267.090,-970.215,-970.215,-282.227,23.438
1571286554.100,-149.902,-970.215,-970.215,-213.867,-2.441
1571286554.104,-118.652,-970.215,-970.215,-173.340,-62.500
1571286554.108,-241.699,-970.215,-970.215,-229.492,-59.082
1571286554.112,-359.863,-970.215,-970.215,-308.105,-67.871
1571286554.116,-324.219,-970.215,-970.215,-302.246,11.719
1571286554.120,-273.926,-970.215,-970.215,-268.066,-22.949
1571286554.124,-448.730,-970.215,-970.215,-426.758,-91.797
1571286554.128,-644.531,-971.680,-970.215,-564.453,-20.996
1571286554.132,-639.648,-957.520,-970.215,-588.379,-30.762
1571286554.136,-540.039,-983.887,-970.215,-504.395,-65.430
1571286554.139,-516.602,-897.949,-970.215,-404.785,-40.039
1571286554.143,-589.844,-476.562,-972.168,-446.777,3.418
1571286554.147,-610.840,-453.125,-954.590,-502.930,-17.578
1571286554.151,-478.027,-319.824,-992.188,-407.227,-30.273
1571286554.155,-389.648,563.477,-854.980,-312.500,13.184
1571286554.159,-451.172,-981.934,-419.922,-318.359,-15.137
1571286554.163,-439.941,982.422,-239.746,-258.301,-62.500
1571286554.167,-323.242,991.699,236.816,-167.480,30.762
1571286554.171,-222.168,-997.559,897.949,-57.129,24.414
1571286554.175,-282.715,999.512,-994.629,-35.156,-14.648
1571286554.179,-316.406,999.512,983.887,-67.383,28.809
1571286554.182,-165.527,999.512,-999.023,-18.066,29.297
1571286554.186,-10.254,999.512,999.512,94.727,10.254
1571286554.190,-52.246,999.512,999.512,110.352,28.809
1571286554.194,-150.391,999.512,999.512,73.730,34.668
1571286554.198,-36.621,999.512,999.512,146.973,21.484
1571286554.202,163.574,999.512,999.512,289.062,-34.668
1571286554.206,177.246,999.512,999.512,349.609,-53.223
1571286554.210,44.434,999.512,999.512,296.875,-43.945
1571286554.214,52.734,999.512,999.512,305.176,-75.195
1571286554.218,193.359,999.512,999.512,419.922,-82.520
1571286554.221,249.023,999.512,999.512,482.422,-20.996
1571286554.225,177.734,999.512,999.512,469.238,-11.719
1571286554.229,175.293,999.512,999.512,492.188,-67.383
1571286554.233,308.105,999.512,999.512,568.848,-2.441
1571286554.237,404.297,999.512,999.512,638.672,6.836
1571286554.241,310.547,999.512,999.512,596.191,-31.738
1571286554.245,174.316,999.512,999.512,472.656,44.434
1571286554.249,205.078,999.512,999.512,472.168,33.203
1571286554.253,323.730,999.512,999.512,583.496,-45.898
1571286554.257,271.484,999.512,999.512,570.801,-62.012
1571286554.261,125.488,999.512,999.512,465.820,-31.250
1571286554.264,127.441,999.512,999.512,422.363,-0.488
1571286554.268,242.188,999.512,999.512,519.043,-34.180
1571286554.272,246.582,999.512,999.512,563.965,5.371
1571286554.276,127.930,-999.512,999.512,468.750,5.371
1571286554.280,81.543,988.281,999.512,421.387,8.789
1571286554.284,182.617,-987.793,999.512,491.699,66.406
1571286554.288,249.023,902.344,998.047,544.922,28.809
1571286554.292,124.023,565.918,996.094,480.957,-16.113
1571286554.296,28.320,156.250,-982.910,416.016,-19.043
1571286554.300,77.148,-611.816,878.906,410.645,-7.812
1571286554.304,114.746,-682.129,893.066,453.125,34.180
1571286554.307,-2.930,-435.059,916.016,410.645,43.945
1571286554.311,-125.488,-826.660,239.258,273.926,-23.926
1571286554.315,-91.797,-992.188,-365.723,260.254,-14.648
1571286554.319,-29.785,-958.008,-409.668,344.727,56.152
1571286554.323,-102.539,-969.238,-683.105,350.586,-9.766
1571286554.327,-252.441,-970.703,-983.398,272.949,-69.824
1571286554.331,-279.297,-970.215,-966.309,231.445,-39.062
1571286554.335,-180.664,-970.215,-963.867,310.547,-22.461
1571286554.339,-168.457,-970.215,-971.680,330.078,-39.551
1571286554.343,-313.965,-970.215,-970.215,253.906,-54.688
1571286554.346,-396.484,-970.215,-970.215,215.332,-48.340
1571286554.350,-318.359,-970.215,-970.215,227.051,-43.457
1571286554.354,-261.230,-970.215,-970.215,283.203,-55.176
1571286554.358,-379.883,-970.215,-970.215,238.770,-28.809
1571286554.362,-561.523,-970.215,-970.215,136.719,-44.434
1571286554.366,-551.270,-970.215,-970.215,156.738,-16.113
1571286554.370,-450.684,-970.215,-970.215,262.695,-12.207
1571286554.374,-545.898,-970.215,-970.215,258.301,-12.695
1571286554.378,-682.617,-970.215,-970.215,115.723,-3.418
1571286554.382,-608.398,-970.215,-970.215,87.402,-20.508
1571286554.386,-428.223,-970.215,-970.215,205.566,-29.297
1571286554.389,-475.098,-970.215,-970.215,202.637,-11.719
1571286554.393,-625.977,-970.215,-970.215,98.145,-3.906
1571286554.397,-614.746,-970.215,-970.215,71.777,0.488
1571286554.401,-485.352,-970.215,-970.215,145.508,15.137
1571286554.405,-385.742,-970.215,-970.215,235.840,1.953
1571286554.409,-425.781,-970.215,-970.215,196.289,11.719
1571286554.413,-459.961,-970.215,-970.215,143.066,-4.883
1571286554.417,-352.539,-970.215,-970.215,208.496,-8.301
1571286554.421,-242.188,-970.215,-970.215,268.555,-3.418
1571286554.425,-309.082,-970.215,-970.215,205.566,-4.395
1571286554.429,-373.047,-970.215,-970.215,153.320,11.719
1571286554.432,-243.164,-970.215,-970.215,188.477,0.000
1571286554.436,-79.590,-970.215,-970.215,237.305,-49.805
1571286554.440,-121.582,-970.215,-970.215,245.117,-50.293
1571286554.444,-187.012,-970.215,-970.215,220.215,-12.207
1571286554.448,-50.293,-970.215,-970.215,215.332,-20.508
1571286554.452,137.695,-970.215,-970.215,275.391,-13.184
1571286554.456,139.160,-970.215,-970.215,304.688,-4.883
1571286554.460,56.152,-970.215,-970.215,271.484,4.883
1571286554.464,86.426,-970.215,-970.215,236.816,53.223
1571286554.468,238.281,-970.215,-970.215,291.992,32.227
1571286554.471,323.730,-970.703,-970.215,318.848,-28.320
1571286554.475,250.488,-967.773,-970.215,258.789,14.648
1571286554.479,223.633,-968.262,-970.215,217.285,7.812
1571286554.483,385.742,-970.703,-970.215,264.648,-24.902
1571286554.487,536.133,-970.215,-970.215,354.980,-46.875
1571286554.491,450.195,-970.215,-970.215,310.547,-5.371
1571286554.495,366.211,-970.215,-970.215,224.121,34.668
1571286554.499,463.379,-970.215,-970.215,253.418,4.395
1571286554.503,613.770,-970.215,-970.215,351.562,-37.598
1571286554.507,603.027,-970.215,-970.215,355.469,-55.664
1571286554.511,486.816,-970.215,-970.215,245.605,-16.113
1571286554.514,507.812,-970.215,-970.215,206.543,20.996
1571286554.518,636.230,-970.215,-970.215,285.645,16.113
1571286554.522,669.922,-970.215,-970.215,306.152,24.414
1571286554.526,568.359,-970.215,-970.215,238.770,87.402
1571286554.530,525.391,-970.215,-970.215,199.707,18.555
1571286554.534,668.457,-970.215,-970.215,293.457,-28.320
1571286554.538,735.352,-970.215,-970.215,359.375,-6.348
1571286554.542,600.098,-970.215,-970.215,280.273,-27.832
1571286554.546,525.391,-970.215,-970.215,208.008,-36.133
1571286554.550,623.047,-970.215,-970.215,208.496,-13.672
1571286554.554,732.422,-970.215,-970.215,262.695,13.672
1571286554.557,609.863,-970.215,-970.215,247.559,-12.207
1571286554.561,478.516,-970.215,-970.215,181.152,-26.367
1571286554.565,558.594,-970.215,-970.215,176.270,-19.043
1571286554.569,658.691,-970.215,-970.215,253.906,-2.930
1571286554.573,606.445,-970.215,-970.215,253.418,10.742
1571286554.577,497.559,-970.215,-970.215,162.598,-12.207
1571286554.581,507.324,-970.215,-970.215,121.582,-25.391
1571286554.585,615.723,-970.215,-970.215,164.062,21.973
1571286554.589,591.797,-970.215,-970.215,169.434,9.766
1571286554.593,431.152,-970.215,-970.215,90.332,-26.367
1571286554.596,398.926,-970.215,-970.215,50.781,-14.648
1571286554.600,508.789,-970.215,-970.215,86.914,-38.574
1571286554.604,562.012,-970.215,-970.215,138.184,-56.641
1571286554.608,452.148,-970.215,-970.215,85.449,-46.875
1571286554.612,358.398,-970.215,-970.215,16.113,-29.785
1571286554.616,408.691,-970.215,-970.215,62.500,-17.578
1571286554.620,522.949,-970.215,-970.215,172.852,0.000
1571286554.624,458.496,-970.215,-970.215,136.719,15.137
1571286554.628,339.844,-970.215,-970.215,61.035,33.203
1571286554.632,378.906,-970.215,-970.215,87.402,6.348
1571286554.636,510.254,-970.215,-970.215,169.922,-22.949
1571286554.639,494.141,-970.215,-970.215,191.406,-7.812
1571286554.643,350.586,-970.215,-970.215,115.723,28.320
1571286554.647,342.285,-970.215,-970.215,71.289,14.160
1571286554.651,440.430,-970.215,-970.215,129.395,-46.387
1571286554.655,441.895,-970.215,-970.215,164.062,-51.758
1571286554.659,311.523,-970.215,-970.215,76.172,-13.672
1571286554.663,242.188,-970.215,-970.215,25.391,37.109
1571286554.667,336.426,-970.215,-970.215,79.590,-0.488
1571286554.671,444.824,-970.215,-970.215,169.434,-56.641
1571286554.675,358.398,-970.215,-970.215,116.699,-27.832
1571286554.679,212.402,-970.215,-970.215,-18.066,-6.836
1571286554.682,273.926,-970.215,-970.215,12.207,-11.719
1571286554.686,406.250,-970.215,-970.215,124.023,23.926
1571286554.690,326.172,-970.215,-970.215,74.219,23.438
1571286554.694,193.848,-970.215,-970.215,-6.836,-20.996
1571286554.698,256.836,-970.215,-970.215,20.508,-46.875
1571286554.702,379.883,-970.215,-970.215,111.816,-28.809
1571286554.706,353.516,-970.215,-970.215,117.188,-28.809
1571286554.710,227.539,-970.215,-970.215,36.621,-83.496
1571286554.714,207.520,-970.215,-970.215,-4.883,-24.902
1571286554.718,332.031,-970.215,-970.215,65.918,24.414
1571286554.721,343.750,-970.215,-970.215,96.680,-55.664
1571286554.725,209.473,-970.215,-970.215,25.391,-38.086
1571286554.729,153.809,-970.215,-970.215,-39.062,37.109
1571286554.733,196.777,-970.215,-970.215,-41.504,7.324
1571286554.737,242.676,-970.215,-970.215,7.812,-48.340
1571286554.741,143.555,-970.215,-970.215,-36.133,-61.035
1571286554.745,14.160,-970.215,-970.215,-160.156,-44.434
1571286554.749,14.648,-970.215,-970.215,-229.004,-28.320
1571286554.753,42.969,-970.215,-970.215,-197.266,26.367
1571286554.757,-72.754,-970.215,-970.215,-246.582,-6.836
1571286554.761,-218.262,-970.215,-970.215,-360.352,-76.172
1571286554.764,-239.258,-970.215,-970.215,-402.344,-19.043
1571286554.768,-195.801,-970.215,-970.215,-403.809,-2.930
1571286554.772,-249.023,-970.215,-970.215,-446.777,-0.977
1571286554.776,-418.945,-970.215,-970.215,-562.988,-40.527
1571286554.780,-486.328,-969.727,-970.215,-649.414,-12.207
1571286554.784,-399.902,-970.215,-970.215,-597.168,23.438
1571286554.788,-342.285,-970.215,-970.215,-518.555,-10.254
1571286554.792,-423.828,-970.215,-970.215,-589.844,24.902
1571286554.796,-470.215,-970.215,-970.215,-652.832,-3.906
1571286554.800,-382.324,-970.215,-970.215,-553.711,-12.207
1571286554.804,-256.348,-970.215,-970.215,-399.414,-26.855
1571286554.807,-304.688,-970.215,-970.215,-434.082,-41.992
1571286554.811,-412.598,-970.215,-970.215,-511.719,7.324
1571286554.815,-336.914,-970.215,-970.215,-472.656,59.570
1571286554.819,-194.824,-970.215,-970.215,-342.773,54.688
1571286554.823,-230.957,-970.215,-970.215,-321.777,12.207
1571286554.827,-339.844,-970.215,-970.215,-375.977,19.043
1571286554.831,-293.457,-970.215,-970.215,-342.285,36.621
1571286554.835,-141.113,-970.215,-970.215,-239.746,21.973
1571286554.839,-93.750,-970.215,-970.215,-180.664,17.578
1571286554.843,-220.215,-970.215,-970.215,-277.344,-8.789
1571286554.846,-258.301,-970.215,-970.215,-344.727,5.859
1571286554.850,-124.512,-970.215,-970.215,-248.535,21.484
1571286554.854,-81.055,-970.215,-970.215,-166.504,25.391
1571286554.858,-204.102,-970.215,-970.215,-252.930,29.785
1571286554.862,-305.664,-970.215,-970.215,-340.820,40.527
1571286554.866,-283.203,-970.215,-970.215,-336.426,58.105
1571286554.870,-194.824,-970.215,-970.215,-289.062,-23.926
1571286554.874,-283.203,-970.215,-970.215,-339.355,-107.910
1571286554.878,-441.406,-970.215,-970.215,-462.891,-68.848
1571286554.882,-404.297,-970.215,-970.215,-489.746,-6.348
1571286554.886,-273.926,-970.215,-970.215,-385.742,19.043
1571286554.889,-262.207,-970.215,-970.215,-337.891,-1.953
1571286554.893,-372.070,-970.215,-970.215,-363.770,-12.695
1571286554.897,-383.789,-970.215,-970.215,-377.441,1.953
1571286554.901,-273.438,-970.215,-970.215,-291.992,-8.301
1571286554.905,-233.887,-970.215,-970.215,-272.949,-38.574
1571286554.909,-293.945,-970.215,-970.215,-378.418,-42.969
1571286554.913,-327.637,-970.215,-966.309,-407.715,41.016
1571286554.917,-230.469,-970.215,-978.516,-322.754,52.734
1571286554.921,-130.859,-970.215,-942.871,-216.309,11.719
1571286554.925,-182.129,-970.215,-904.297,-230.957,52.246
1571286554.929,-224.609,-970.215,-958.496,-250.977,-13.184
1571286554.932,-132.812,-970.215,-986.816,-185.547,-43.945
1571286554.936,0.977,-970.215,-924.805,-55.664,51.270
1571286554.940,3.418,-970.215,-884.766,-27.832,38.086
1571286554.944,-95.215,-970.215,-961.426,-95.703,-27.344
1571286554.948,-58.105,-970.215,-982.422,-82.520,-24.414
1571286554.952,82.520,-970.215,-945.801,24.414,-20.996
1571286554.956,61.035,-970.215,-886.719,40.527,-37.598
1571286554.960,-75.195,-970.215,-932.129,-77.637,-21.484
1571286554.964,-91.797,-970.215,-834.473,-141.602,30.273
1571286554.968,41.016,-970.215,-583.496,-39.062,24.902
1571286554.971,96.680,-970.215,-501.953,19.531,27.344
1571286554.975,-37.598,-970.215,-527.344,-65.918,38.574
1571286554.979,-119.629,-970.215,-564.453,-150.879,37.109
1571286554.983,-31.738,-970.215,-647.461,-136.719,-8.301
1571286554.987,33.203,-970.215,-621.094,-68.848,-37.598
1571286554.991,-75.684,-970.215,-617.188,-139.648,-23.438
1571286554.995,-170.898,-969.727,-707.520,-228.027,-16.602
1571286554.999,-97.656,-970.215,-653.809,-204.590,-3.418
1571286555.003,28.320,-970.215,-644.531,-97.656,26.367
1571286555.007,2.441,-970.215,-633.789,-88.867,30.273
1571286555.011,-81.543,-970.215,-374.512,-170.898,17.578
1571286555.014,-38.086,-970.215,-410.645,-164.551,-2.930
1571286555.018,87.402,-970.215,-458.984,-74.219,26.855
1571286555.022,105.469,-970.215,-328.125,-90.820,10.254
1571286555.026,-18.555,-970.215,-279.785,-201.660,9.766
1571286555.030,-50.781,-970.215,-470.703,-235.352,14.160
1571286555.034,57.617,-970.215,-645.020,-182.129,-41.504
1571286555.038,100.586,-970.215,-601.562,-132.812,1.953
1571286555.042,-4.395,-970.215,-623.535,-169.922,-10.254
1571286555.046,-50.293,-970.215,-696.777,-207.031,-7.324
1571286555.050,43.457,-970.215,-931.152,-144.043,27.344
1571286555.054,136.230,-970.215,-867.676,-53.711,-47.363
1571286555.057,77.637,-970.215,-739.258,-70.801,-16.113
1571286555.061,-28.809,-970.215,-935.547,-110.352,8.301
1571286555.065,0.977,-970.215,-982.910,-120.117,-41.016
1571286555.069,83.496,-970.215,-961.914,-71.289,-30.762
1571286555.073,45.410,-970.215,-971.191,-71.289,10.254
1571286555.077,-51.270,-970.215,-970.215,-160.645,1.953
1571286555.081,-62.012,-970.215,-970.215,-180.176,-61.523
1571286555.085,32.227,-970.215,-970.215,-61.523,-36.133
1571286555.089,52.246,-970.215,-970.215,-27.832,6.348
1571286555.093,-96.680,-970.215,-970.215,-133.789,25.391
1571286555.096,-150.879,-970.215,-970.215,-175.293,62.012
1571286555.100,-17.090,-970.215,-970.215,-96.680,18.066
1571286555.104,23.926,-970.215,-970.215,-44.922,-25.879
1571286555.108,-104.492,-970.215,-970.215,-113.281,10.254
1571286555.112,-165.527,-970.215,-970.215,-160.645,-12.695
1571286555.116,-67.871,-970.215,-970.215,-90.820,-54.688
1571286555.120,33.691,-970.215,-970.215,26.855,-29.297
1571286555.124,-42.969,-970.215,-970.215,5.371,-43.945
1571286555.128,-134.277,-970.215,-970.215,-65.918,-33.203
1571286555.132,-93.750,-970.215,-970.215,-77.637,53.223
1571286555.136,-20.020,-970.215,-970.215,-7.324,16.602
1571286555.139,-64.941,-970.215,-970.215,-8.301,-41.992
1571286555.143,-210.449,-970.215,-970.215,-112.793,-40.039
1571286555.147,-212.891,-970.215,-970.215,-122.070,0.977
1571286555.151,-88.867,-970.215,-970.215,-65.430,38.086
1571286555.155,-89.844,-970.215,-970.215,-81.543,46.387
1571286555.159,-211.426,-970.215,-970.215,-199.707,24.902
1571286555.163,-264.648,-970.215,-970.215,-260.254,-5.859
1571286555.167,-195.312,-970.215,-970.215,-208.008,-17.090
1571286555.171,-140.137,-970.215,-970.215,-138.184,4.883
1571286555.175,-213.867,-970.215,-970.215,-171.875,52.734
1571286555.179,-276.367,-970.215,-970.215,-217.773,10.742
1571286555.182,-222.168,-970.215,-970.215,-196.777,-22.949
1571286555.186,-121.582,-970.215,-970.215,-163.574,5.859
1571286555.190,-150.879,-970.215,-970.215,-185.059,-18.555
1571286555.194,-195.312,-970.215,-970.215,-187.500,-71.289
1571286555.198,-124.512,-970.215,-970.215,-134.766,-44.434
1571286555.202,-34.668,-970.215,-970.215,-52.246,7.324
1571286555.206,-63.477,-970.215,-970.703,-52.246,25.879
1571286555.210,-179.688,-970.215,-968.262,-138.672,-22.461
1571286555.214,-194.336,-970.215,-964.844,-162.109,-42.969
1571286555.218,-101.074,-970.215,-992.676,-88.379,-32.227
1571286555.221,-74.707,-970.215,-824.707,-51.270,14.648
1571286555.225,-223.145,-970.215,-790.527,-184.082,63.965
1571286555.229,-334.961,-970.215,-988.281,-267.578,24.902
1571286555.233,-256.348,-970.215,-881.348,-214.355,-2.441
1571286555.237,-181.152,-970.215,-511.719,-161.621,-18.555
1571286555.241,-264.160,-970.215,-407.715,-227.539,-3.906
1571286555.245,-361.328,-970.215,-556.641,-327.148,-4.395
1571286555.249,-305.664,-970.215,-478.027,-299.316,-8.301
1571286555.253,-177.734,-970.215,-261.719,-186.523,2.930
1571286555.257,-183.105,-970.215,-257.324,-208.008,-1.953
1571286555.261,-334.473,-970.215,-408.203,-326.172,4.883
1571286555.264,-387.695,-970.215,-477.051,-409.668,-8.301
1571286555.268,-287.109,-970.215,-430.176,-370.605,-13.672
1571286555.272,-294.434,-970.215,-565.918,-326.660,-3.906
1571286555.276,-400.879,-970.215,-793.457,-415.527,-32.715
1571286555.280,-395.508,-970.215,-650.879,-485.840,-7.324
1571286555.284,-298.340,-970.215,-630.371,-412.598,57.617
1571286555.288,-248.535,-970.215,-774.414,-340.820,22.949
1571286555.292,-290.039,-970.215,-748.047,-360.840,20.996
1571286555.296,-315.430,-970.215,-809.082,-351.074,24.414
1571286555.300,-209.961,-970.215,-970.703,-289.551,-31.738
1571286555.304,-105.957,-970.215,-969.727,-209.961,-59.570
1571286555.307,-165.527,-970.215,-966.309,-208.984,-68.359
1571286555.311,-227.539,-970.215,-971.191,-229.004,-87.402
1571286555.315,-147.949,-970.215,-970.215,-182.617,-45.410
1571286555.319,-34.180,-970.215,-970.215,-74.219,23.438
1571286555.323,-43.457,-970.215,-970.215,-57.129,6.836
1571286555.327,-127.930,-970.215,-970.215,-124.512,-17.578
1571286555.331,-151.367,-970.215,-970.215,-158.203,1.465
1571286555.335,-125.000,-970.215,-970.215,-143.555,-11.719
1571286555.339,-165.527,-970.215,-970.215,-184.570,-32.715
1571286555.343,-276.855,-970.215,-970.215,-284.668,-68.848
1571286555.346,-302.246,-970.215,-970.215,-305.176,-74.707
1571286555.350,-207.520,-970.215,-970.215,-227.539,-41.504
1571286555.354,-153.320,-970.215,-970.215,-151.855,-1.465
1571286555.358,-227.051,-970.215,-970.215,-201.172,23.438
1571286555.362,-306.641,-970.215,-970.215,-282.227,44.922
1571286555.366,-236.816,-970.215,-970.215,-251.465,85.449
1571286555.370,-149.902,-970.215,-970.215,-156.250,48.340
1571286555.374,-191.406,-970.215,-970.215,-153.809,36.621
1571286555.378,-243.652,-970.215,-970.215,-220.215,18.066
1571286555.382,-186.523,-970.215,-970.215,-206.543,-13.672
1571286555.386,-83.984,-970.215,-970.215,-90.820,11.230
1571286555.389,-95.703,-970.215,-970.703,-44.434,-10.254
1571286555.393,-218.262,-970.215,-967.773,-150.879,-12.695
1571286555.397,-268.066,-970.215,-971.680,-229.980,15.137
1571286555.401,-203.125,-970.215,-970.703,-168.945,22.461
1571286555.405,-219.238,-970.215,-894.043,-154.297,2.441
1571286555.409,-293.457,-970.215,-896.484,-233.887,-9.766
1571286555.413,-272.949,-970.215,-986.328,-250.977,-41.504
1571286555.417,-176.758,-970.215,-930.664,-181.641,-25.391
1571286555.421,-149.902,-970.215,-687.012,-144.043,10.254
1571286555.425,-290.527,-970.215,-775.391,-242.188,-11.230
1571286555.429,-368.164,-970.215,-728.516,-336.914,7.812
1571286555.432,-270.508,-953.125,-386.719,-280.762,8.789
1571286555.436,-179.199,-987.793,-200.684,-164.062,24.902
1571286555.440,-253.906,-729.004,19.043,-195.801,19.043
1571286555.444,-326.172,-165.039,284.180,-220.703,-5.371
1571286555.448,-316.895,398.926,548.828,-235.352,39.551
1571286555.452,-290.527,890.625,857.422,-265.137,56.641
1571286555.456,-317.871,-995.117,996.582,-274.902,19.531
1571286555.460,-472.168,987.305,994.629,-397.461,-3.418
1571286555.464,-553.223,-999.512,997.559,-482.422,-44.922
1571286555.468,-469.238,999.512,-1000.000,-416.992,-41.504
1571286555.471,-428.711,999.512,999.512,-341.797,7.324
1571286555.475,-509.766,999.512,999.512,-358.398,5.859
1571286555.479,-533.203,999.512,999.512,-349.121,-15.625
1571286555.483,-372.070,999.512,999.512,-220.703,-42.480
1571286555.487,-208.984,999.512,999.512,-149.414,-38.086
1571286555.491,-236.328,999.512,999.512,-173.828,2.441
1571286555.495,-270.020,999.512,999.512,-151.855,-38.086
1571286555.499,-176.270,999.512,999.512,-80.078,-29.785
1571286555.503,-32.227,999.512,999.512,73.730,-21.484
1571286555.507,-28.809,999.512,999.512,146.973,-3.906
1571286555.511,-99.609,999.512,999.512,133.301,55.664
1571286555.514,-23.438,999.512,999.512,165.039,76.660
1571286555.518,145.996,999.512,999.512,287.598,75.684
1571286555.522,182.617,999.512,999.512,345.703,51.270
1571286555.526,98.145,999.512,999.512,292.480,20.996
1571286555.530,115.234,999.512,999.512,292.969,-25.879
1571286555.534,264.648,999.512,999.512,383.301,-65.918
1571286555.538,317.871,999.512,999.512,447.754,-13.672
1571286555.542,212.891,999.512,999.512,372.070,-14.648
1571286555.546,172.852,999.512,999.512,311.035,-16.113
1571286555.550,267.090,999.512,999.512,385.254,-32.227
1571286555.554,375.977,999.512,999.512,486.816,-17.090
1571286555.557,321.289,999.512,999.512,434.082,43.457
1571286555.561,265.137,999.512,999.512,359.863,21.973
1571286555.565,377.441,999.512,999.512,430.664,36.621
1571286555.569,542.969,999.512,999.512,562.988,-18.066
1571286555.573,492.676,999.512,999.512,549.316,-76.172
1571286555.577,358.398,999.512,999.512,466.309,-21.484
1571286555.581,396.484,999.512,999.512,461.914,9.277
1571286555.585,516.602,999.512,999.512,519.531,8.789
1571286555.589,507.812,-999.512,999.512,522.461,-2.441
1571286555.593,387.695,991.699,999.512,444.824,24.902
1571286555.596,331.055,996.582,999.512,381.836,18.555
1571286555.600,404.297,994.141,999.512,396.973,-5.371
1571286555.604,482.422,576.172,999.512,464.844,-36.621
1571286555.608,398.926,425.293,998.535,439.941,-38.574
1571286555.612,335.449,615.723,-998.047,365.234,-4.395
1571286555.616,396.484,353.027,989.746,362.305,-20.508
1571286555.620,471.680,361.328,987.793,439.453,20.020
1571286555.624,395.996,540.039,973.633,427.734,43.945
1571286555.628,295.898,392.090,815.430,353.027,48.828
1571286555.632,357.422,71.289,418.945,367.676,0.000
1571286555.636,440.918,-42.480,243.164,406.738,-26.855
1571286555.639,365.723,209.961,366.699,322.266,-5.371
1571286555.643,226.562,212.402,266.113,222.168,-30.273
1571286555.647,189.453,-356.934,-224.609,207.520,6.836
1571286555.651,279.297,-683.594,-466.797,256.836,57.617
1571286555.655,290.527,-232.910,-135.254,271.484,9.277
1571286555.659,153.320,-21.973,-94.727,181.152,-13.672
1571286555.663,79.590,-332.031,-451.172,102.051,27.344
1571286555.667,153.809,-600.098,-676.270,125.977,24.902
1571286555.671,214.355,-403.809,-503.906,173.828,13.184
1571286555.675,121.582,-338.867,-434.570,145.020,7.812
1571286555.679,62.012,-751.465,-777.832,97.168,-44.922
1571286555.682,148.438,-1000.000,-984.863,143.555,-12.695
1571286555.686,255.859,-732.910,-718.262,212.891,27.832
1571286555.690,179.199,-584.473,-564.941,160.645,3.418
1571286555.694,50.781,-859.375,-818.359,69.336,33.203
1571286555.698,82.031,-995.117,-994.629,56.641,-28.809
1571286555.702,181.641,-957.520,-954.102,105.469,-116.211
1571286555.706,146.973,-971.191,-905.273,76.660,-91.309
1571286555.710,5.859,-970.215,-948.242,-24.414,-47.363
1571286555.714,-32.227,-970.215,-979.004,-64.941,-33.691
1571286555.718,61.035,-970.215,-965.820,9.277,4.395
1571286555.721,101.074,-970.215,-971.191,38.574,31.250
1571286555.725,-0.488,-970.215,-970.215,-49.316,19.043
1571286555.729,-62.500,-970.215,-970.215,-107.422,-41.016
1571286555.733,21.973,-970.215,-970.215,-40.527,-68.359
1571286555.737,88.867,-970.215,-970.215,45.410,-45.410
1571286555.741,24.902,-970.215,-970.215,11.719,-65.918
1571286555.745,-44.434,-970.215,-970.215,-63.477,-66.406
1571286555.749,-7.812,-970.215,-970.215,-67.383,-4.395
1571286555.753,73.730,-970.215,-970.215,26.367,62.988
1571286555.757,43.457,-970.215,-970.215,17.578,4.395
1571286555.761,-38.086,-970.215,-970.215,-39.062,-50.781
1571286555.764,23.926,-970.215,-970.215,-3.418,-5.859
1571286555.768,151.367,-970.215,-970.215,70.312,-16.602
1571286555.772,148.438,-970.215,-970.215,71.777,-32.715
1571286555.776,42.969,-970.215,-970.215,19.043,-39.062
1571286555.780,35.645,-970.215,-970.215,28.320,-21.484
1571286555.784,162.598,-970.215,-970.215,94.238,2.930
1571286555.788,192.871,-970.215,-970.215,100.098,25.391
1571286555.792,84.961,-970.215,-970.215,25.391,4.883
1571286555.796,46.875,-970.215,-970.215,19.531,-48.828
1571286555.800,144.531,-970.215,-970.215,76.660,-11.230
1571286555.804,251.465,-970.215,-970.215,160.645,24.414
1571286555.807,190.918,-970.215,-970.215,141.602,10.742
1571286555.811,112.793,-970.215,-970.215,53.223,52.734
1571286555.815,149.414,-970.215,-970.215,81.543,30.273
1571286555.819,249.023,-970.215,-970.215,189.453,-25.879
1571286555.823,210.449,-970.215,-970.215,178.223,-16.113
1571286555.827,75.195,-970.215,-970.215,87.402,-38.574
1571286555.831,109.375,-970.215,-970.215,88.867,-10.254
1571286555.835,226.074,-970.215,-970.215,147.949,-3.418
1571286555.839,206.543,-970.215,-970.215,159.668,-22.461
1571286555.843,105.469,-970.215,-970.215,124.512,34.668
1571286555.846,94.727,-970.215,-970.215,80.566,17.090
1571286555.850,200.684,-970.215,-970.215,140.137,-64.453
1571286555.854,239.746,-970.215,-970.215,218.262,-40.527
1571286555.858,136.230,-970.215,-970.215,141.602,-18.066
1571286555.862,79.102,-970.215,-970.215,80.566,-16.113
1571286555.866,163.574,-970.215,-970.215,124.023,-0.977
1571286555.870,235.840,-970.215,-970.215,192.871,-23.438
1571286555.874,137.207,-970.215,-970.215,161.133,-15.625
1571286555.878,35.645,-970.215,-970.215,98.633,20.020
1571286555.882,56.152,-970.215,-970.215,70.801,-8.301
1571286555.886,157.227,-970.215,-970.215,110.840,-33.203
1571286555.889,141.113,-970.215,-970.215,131.348,-4.883
1571286555.893,23.438,-970.215,-970.215,44.434,-20.996
1571286555.897,19.043,-970.215,-970.215,-4.883,-14.160
1571286555.901,126.465,-970.215,-969.727,83.984,22.949
1571286555.905,155.273,-970.215,-970.215,104.492,19.043
1571286555.909,36.621,-970.215,-970.215,30.273,-50.781
1571286555.913,15.625,-970.215,-970.215,17.578,-21.973
1571286555.917,121.094,-970.215,-970.215,73.730,27.344
1571286555.921,145.020,-970.215,-970.215,119.629,-17.578
1571286555.925,18.066,-970.215,-970.215,40.039,-15.625
1571286555.929,-70.801,-970.215,-970.215,-43.945,-10.742
1571286555.932,-1.953,-970.215,-970.215,-28.809,28.320
1571286555.936,79.102,-970.215,-970.215,31.738,8.301
1571286555.940,16.602,-970.215,-970.703,-14.648,-69.336
1571286555.944,-87.402,-970.215,-963.867,-104.492,-20.020
1571286555.948,-66.406,-970.215,-977.051,-99.609,-3.418
1571286555.952,42.480,-970.215,-934.082,-3.418,-5.371
1571286555.956,45.898,-970.215,-744.629,40.039,24.902
1571286555.960,-14.648,-970.215,-727.051,-22.461,-3.906
1571286555.964,-27.344,-970.215,-935.059,-51.758,-22.949
1571286555.968,73.730,-970.215,-825.195,16.113,5.371
1571286555.971,123.047,-970.215,-486.328,54.199,38.574
1571286555.975,-14.160,-970.215,-517.578,4.395,36.133
1571286555.979,-86.914,-970.215,-879.395,-49.316,45.410
1571286555.983,22.949,-970.215,-806.152,-15.625,24.414
1571286555.987,104.980,-970.215,-290.039,57.129,-2.441
1571286555.991,22.949,-970.215,-164.062,-1.953,45.410
1571286555.995,-41.992,-970.215,-370.117,-76.660,-5.859
1571286555.999,6.836,-970.215,-302.734,-70.312,18.066
1571286556.003,94.727,-970.215,-77.148,22.949,40.527
1571286556.007,37.598,-970.215,-22.461,30.762,2.441
1571286556.011,-58.105,-970.215,-90.332,-23.926,6.348
1571286556.014,-14.160,-970.215,-76.660,-23.438,-10.742
1571286556.018,97.656,-970.215,-12.695,19.043,-40.039
1571286556.022,100.098,-970.215,-95.703,49.805,-37.109
1571286556.026,-30.273,-970.215,-100.098,-3.418,38.086
1571286556.030,-66.895,-970.215,89.844,-33.203,60.059
1571286556.034,49.805,-970.215,186.035,13.184,38.574
1571286556.038,94.238,-970.215,135.742,40.527,1.465
1571286556.042,-24.902,-970.215,84.961,-21.484,-35.645
1571286556.046,-114.258,-970.215,147.461,-81.543,11.719
1571286556.050,-61.523,-970.215,25.879,-52.246,-20.508
1571286556.054,4.883,-970.215,-18.555,-10.742,-65.430
1571286556.057,-63.965,-970.215,78.125,-50.293,-29.785
1571286556.061,-141.113,-970.215,40.039,-107.910,-30.273
1571286556.065,-82.520,-970.215,-78.125,-112.305,-20.996
1571286556.069,15.625,-970.215,-125.977,-25.879,-2.930
1571286556.073,-12.207,-970.215,-75.684,-4.395,16.602
1571286556.077,-98.145,-970.215,-189.941,-51.758,-29.785
1571286556.081,-57.129,-970.215,-453.125,-22.949,-82.031
1571286556.085,85.938,-970.215,-644.043,57.129,-104.004
1571286556.089,77.148,-970.215,-473.145,56.152,-60.059
1571286556.093,-51.270,-970.215,-460.938,-57.129,-36.133
1571286556.096,-83.496,-970.215,-821.289,-92.285,-75.684
1571286556.100,-6.348,-970.215,-967.773,-5.859,-32.227
1571286556.104,58.105,-970.215,-743.164,44.434,0.977
1571286556.108,-48.828,-970.215,-688.965,-8.789,-14.160
1571286556.112,-120.605,-970.215,-900.879,-67.383,-22.949
1571286556.116,-34.668,-970.215,-977.051,-37.598,-10.742
1571286556.120,40.527,-970.215,-964.844,23.926,-72.266
1571286556.124,-46.875,-970.215,-969.238,-23.926,-64.453
1571286556.128,-135.742,-970.215,-970.703,-81.055,3.418
1571286556.132,-67.383,-970.215,-970.215,-59.082,3.418
1571286556.136,37.109,-970.215,-970.215,-6.836,-14.160
1571286556.139,-12.207,-970.215,-970.215,-19.043,-45.410
1571286556.143,-130.859,-970.215,-970.215,-72.754,-1.465
1571286556.147,-131.348,-970.215,-970.215,-96.680,13.672
1571286556.151,-21.484,-970.215,-970.215,-58.105,-40.527
1571286556.155,9.277,-970.215,-970.215,-4.883,-2.930
1571286556.159,-94.727,-970.215,-970.215,-62.012,6.348
1571286556.163,-111.328,-970.215,-970.215,-111.816,-37.598
1571286556.167,3.418,-970.215,-970.215,-34.180,-56.152
1571286556.171,78.613,-970.215,-970.215,37.109,-43.457
1571286556.175,-13.672,-970.215,-970.215,0.488,-4.883
1571286556.179,-105.957,-970.215,-970.215,-38.574,-44.434
1571286556.182,-27.832,-970.215,-970.215,-11.230,-39.551
1571286556.186,92.773,-970.215,-970.215,44.922,-17.578
1571286556.190,35.156,-970.215,-970.215,33.691,1.953
1571286556.194,-67.871,-970.215,-970.215,-26.855,12.695
1571286556.198,-21.484,-970.215,-970.215,-48.340,-72.266
1571286556.202,104.004,-970.215,-970.215,29.785,-97.656
1571286556.206,95.215,-970.215,-970.215,69.336,-19.043
1571286556.210,-27.344,-970.215,-970.215,-1.465,-38.086
1571286556.214,-29.785,-970.215,-970.215,-35.156,-28.320
1571286556.218,87.402,-970.215,-970.215,49.805,-0.488
1571286556.221,131.836,-970.215,-970.215,92.285,-33.203
1571286556.225,36.621,-970.215,-970.215,5.371,-11.719
1571286556.229,-6.836,-970.215,-970.215,-7.324,37.109
1571286556.233,90.332,-970.215,-970.215,60.059,33.203
1571286556.237,153.320,-970.215,-970.215,88.379,19.043
1571286556.241,52.246,-970.215,-970.215,21.973,57.129
1571286556.245,-7.812,-970.215,-970.215,-33.203,15.137
1571286556.249,71.777,-970.215,-970.215,7.812,-33.203
1571286556.253,153.320,-970.215,-970.215,124.023,-37.109
1571286556.257,117.188,-970.215,-970.215,127.441,-27.832
1571286556.261,27.344,-970.215,-970.215,76.660,10.254
1571286556.264,16.602,-970.215,-970.215,20.508,-6.836
1571286556.268,99.121,-970.215,-970.215,18.066,-18.555
1571286556.272,141.113,-970.215,-970.215,76.660,-15.625
1571286556.276,47.363,-970.215,-970.215,41.016,-45.410
1571286556.280,11.719,-970.215,-970.215,29.297,4.395
1571286556.284,107.910,-970.215,-970.215,89.844,12.207
1571286556.288,152.344,-970.215,-970.215,127.930,-53.223
1571286556.292,92.773,-970.215,-970.215,73.730,-2.441
1571286556.296,57.129,-970.215,-970.215,26.855,8.789
1571286556.300,107.422,-970.215,-970.215,80.566,2.930
1571286556.304,178.223,-970.215,-970.215,163.086,11.719
1571286556.307,116.699,-970.215,-970.215,124.512,1.953
1571286556.311,11.230,-970.215,-970.215,37.109,-12.207
1571286556.315,62.012,-970.215,-970.215,49.316,-51.270
1571286556.319,175.781,-970.215,-970.215,107.422,-39.062
1571286556.323,92.285,-970.215,-970.215,47.852,-17.578
1571286556.327,-62.012,-970.215,-970.215,-59.570,-32.715
1571286556.331,-58.105,-970.215,-970.215,-93.750,3.906
1571286556.335,37.109,-970.215,-970.215,-38.086,23.926
1571286556.339,37.109,-970.215,-970.215,-35.645,42.480
1571286556.343,-87.402,-970.215,-970.215,-137.695,-2.441
1571286556.346,-107.910,-970.215,-970.215,-201.172,-24.414
1571286556.350,5.371,-970.215,-970.215,-133.301,-11.230
1571286556.354,42.969,-970.215,-970.215,-68.359,16.113
1571286556.358,-69.824,-970.215,-970.215,-150.391,58.105
1571286556.362,-155.762,-970.215,-970.215,-229.980,-24.902
1571286556.366,-86.914,-970.215,-970.215,-194.824,-28.320
1571286556.370,-10.742,-970.215,-970.215,-134.766,49.805
1571286556.374,-81.543,-970.215,-970.215,-204.590,50.293
1571286556.378,-155.762,-970.215,-970.215,-274.902,11.230
1571286556.382,-129.883,-970.215,-970.215,-262.695,-7.812
1571286556.386,-87.891,-970.215,-970.215,-230.957,14.160
1571286556.389,-153.320,-970.215,-970.215,-243.164,28.809
1571286556.393,-261.230,-970.215,-970.215,-307.617,55.664
1571286556.397,-260.742,-970.215,-970.215,-352.539,18.555
1571286556.401,-173.340,-970.215,-970.215,-306.641,-15.137
1571286556.405,-157.715,-970.215,-970.215,-291.992,-45.898
1571286556.409,-269.531,-970.215,-970.215,-354.004,-28.809
1571286556.413,-315.918,-970.215,-970.215,-396.484,60.547
1571286556.417,-252.930,-970.215,-970.215,-387.695,30.273
1571286556.421,-261.719,-970.215,-970.215,-366.211,8.301
1571286556.425,-376.953,-970.215,-970.215,-434.082,11.719
1571286556.429,-433.105,-970.215,-970.215,-485.352,15.137
1571286556.432,-336.914,-970.215,-970.215,-430.664,0.488
1571286556.436,-235.840,-970.215,-970.215,-322.754,-47.852
1571286556.440,-262.695,-970.215,-970.215,-331.055,-26.855
1571286556.444,-339.844,-970.215,-970.215,-398.438,-3.906
1571286556.448,-312.500,-970.215,-970.215,-374.023,-4.395
1571286556.452,-196.777,-970.215,-970.215,-280.762,-38.574
1571286556.456,-201.172,-970.215,-970.215,-264.160,-28.809
1571286556.460,-294.922,-970.215,-970.215,-314.941,-52.246
1571286556.464,-299.805,-970.215,-970.215,-335.449,-71.777
1571286556.468,-193.848,-970.215,-970.215,-246.582,-11.719
1571286556.471,-154.297,-970.215,-970.215,-180.664,16.602
1571286556.475,-248.047,-970.215,-970.215,-255.859,-1.465
1571286556.479,-290.039,-970.215,-970.215,-337.402,-40.039
1571286556.483,-237.305,-970.215,-970.215,-305.176,-0.488
1571286556.487,-187.500,-970.215,-970.215,-247.070,72.754
1571286556.491,-247.070,-970.215,-970.215,-276.367,24.414
1571286556.495,-337.891,-970.215,-970.215,-346.191,7.324
1571286556.499,-336.914,-970.215,-970.215,-363.281,60.547
1571286556.503,-273.926,-970.215,-970.215,-277.832,22.461
1571286556.507,-309.570,-970.215,-970.703,-318.359,-17.090
1571286556.511,-409.668,-970.215,-967.285,-439.453,-35.156
1571286556.514,-399.902,-970.215,-965.332,-446.289,-74.707
1571286556.518,-304.688,-969.727,-976.562,-364.746,-73.242
1571286556.522,-336.914,-974.121,-810.547,-331.543,-38.574
1571286556.526,-436.035,-941.406,-569.824,-438.965,-16.113
1571286556.530,-441.406,-995.117,-596.680,-503.418,-31.250
1571286556.534,-334.473,-767.090,-360.352,-384.766,-41.504
1571286556.538,-229.980,20.996,349.609,-270.508,3.906
1571286556.542,-339.844,719.727,842.773,-374.023,6.836
1571286556.546,-453.613,995.605,992.188,-471.680,-23.926
1571286556.550,-350.586,989.258,992.188,-386.719,-36.133
1571286556.554,-237.793,995.117,997.559,-304.199,-1.465
1571286556.557,-266.602,-999.023,-999.512,-321.289,-11.719
1571286556.561,-319.824,999.512,999.512,-353.027,2.441
1571286556.565,-248.535,999.512,999.512,-323.242,12.695
1571286556.569,-133.789,999.512,999.512,-206.543,-17.090
1571286556.573,-153.809,999.512,999.512,-175.293,-4.883
1571286556.577,-236.816,999.512,999.512,-275.879,60.059
1571286556.581,-210.449,999.512,999.512,-295.410,41.016
1571286556.585,-97.168,999.512,999.512,-189.453,-13.184
1571286556.589,-62.500,999.512,999.512,-135.254,-22.461
1571286556.593,-129.883,999.512,999.512,-174.316,-38.574
1571286556.596,-142.578,999.512,999.512,-201.660,-17.578
1571286556.600,-25.391,999.512,999.512,-146.484,24.902
1571286556.604,43.457,999.512,999.512,-67.383,0.000
1571286556.608,-67.383,-1000.000,999.512,-88.867,-32.227
1571286556.612,-116.699,997.070,999.023,-122.070,10.254
1571286556.616,-15.625,988.770,-999.512,-59.570,16.113
1571286556.620,86.426,-986.328,988.770,-0.977,1.465
1571286556.624,38.086,756.836,991.211,-10.254,55.664
1571286556.628,-43.945,324.219,897.949,-39.062,22.949
1571286556.632,0.488,-305.664,437.012,-35.645,-1.465
1571286556.636,109.863,-848.633,154.785,47.852,38.086
1571286556.639,93.750,-947.754,-159.668,44.434,32.715
1571286556.643,-16.602,-965.820,-462.891,-29.785,20.020
1571286556.647,-10.742,-968.262,-371.094,-26.367,43.457
1571286556.651,94.727,-971.191,-485.352,54.199,13.184
1571286556.655,119.629,-970.215,-537.109,94.238,-2.930
1571286556.659,-14.160,-970.215,-526.855,38.574,-4.395
1571286556.663,-60.547,-970.215,-729.492,10.742,-3.418
1571286556.667,69.336,-970.215,-918.457,80.566,-28.809
1571286556.671,155.762,-970.215,-903.809,141.113,-35.645
1571286556.675,62.012,-970.215,-842.285,86.914,49.316
1571286556.679,-32.715,-970.215,-961.426,25.391,-13.672
1571286556.682,25.879,-970.215,-976.074,36.621,-78.613
1571286556.686,113.281,-970.215,-965.332,109.863,-65.430
1571286556.690,62.500,-970.215,-971.191,101.074,-41.992
1571286556.694,-54.688,-970.215,-970.215,16.602,-5.859
1571286556.698,-62.012,-970.215,-970.215,8.789,-21.973
1571286556.702,20.996,-970.215,-970.215,56.152,-24.902
1571286556.706,-19.043,-970.215,-970.215,26.855,7.324
1571286556.710,-140.625,-970.215,-970.215,-33.203,-20.508
1571286556.714,-148.438,-970.215,-970.215,-44.434,31.250
1571286556.718,-40.527,-970.215,-970.215,9.766,65.430
1571286556.721,0.000,-970.215,-970.703,52.734,14.648
1571286556.725,-103.027,-970.215,-967.285,-15.137,14.648
1571286556.729,-138.672,-970.215,-969.727,-57.129,5.859
1571286556.733,-36.621,-970.215,-965.820,-3.418,29.785
1571286556.737,45.898,-970.215,-837.891,65.918,-34.180
1571286556.741,-40.527,-970.215,-789.551,43.457,-18.066
1571286556.745,-94.238,-970.215,-946.289,-4.883,17.090
1571286556.749,4.395,-970.215,-983.398,27.344,-43.457
1571286556.753,104.492,-970.215,-950.684,104.980,-23.438
1571286556.757,60.059,-970.215,-951.660,109.375,-6.836
1571286556.761,-32.227,-970.215,-966.309,41.992,-26.855
1571286556.764,4.883,-970.215,-987.305,18.066,-52.246
1571286556.768,106.934,-970.215,-890.625,110.352,-18.555
1571286556.772,89.355,-970.215,-871.094,101.074,61.523
1571286556.776,-7.812,-970.215,-973.633,9.277,38.086
1571286556.780,8.301,-970.215,-985.352,2.930,21.484
1571286556.784,116.699,-970.215,-909.180,73.730,52.734
1571286556.788,135.254,-970.215,-875.977,114.746,59.082
1571286556.792,20.020,-970.215,-974.121,53.223,0.000
1571286556.796,-21.973,-970.215,-972.168,4.395,-17.578
1571286556.800,86.426,-970.215,-966.797,43.457,-3.906
1571286556.804,175.293,-970.215,-970.703,116.699,-18.555
1571286556.807,101.074,-970.215,-970.215,89.844,-52.734
1571286556.811,11.719,-970.215,-970.215,25.879,-37.109
1571286556.815,52.734,-970.215,-970.215,31.250,-8.789
1571286556.819,167.480,-970.215,-970.215,125.488,24.414
1571286556.823,152.832,-970.215,-970.215,126.465,-1.465
1571286556.827,37.109,-970.215,-970.215,30.762,-23.926
1571286556.831,64.941,-970.215,-970.215,20.508,9.766
1571286556.835,168.945,-970.215,-970.215,81.055,-48.340
1571286556.839,158.203,-970.215,-970.215,95.215,-59.082
1571286556.843,50.781,-970.215,-970.215,49.316,17.578
1571286556.846,26.367,-970.215,-970.215,22.949,66.406
1571286556.850,127.930,-970.215,-970.215,73.242,6.348
1571286556.854,200.195,-970.215,-970.215,144.043,-14.160
1571286556.858,116.211,-970.215,-970.215,89.355,-16.113
1571286556.862,30.762,-970.215,-970.215,34.180,-8.789
1571286556.866,109.863,-970.215,-970.215,65.918,15.625
1571286556.870,207.031,-970.215,-970.215,133.301,-3.418
1571286556.874,153.320,-970.215,-970.215,104.004,25.879
1571286556.878,76.172,-970.215,-970.215,26.855,-21.484
1571286556.882,100.586,-970.215,-970.215,54.199,-45.410
1571286556.886,190.430,-970.215,-970.215,120.605,-1.465
1571286556.889,177.246,-970.215,-970.215,115.723,-29.297
1571286556.893,65.918,-970.215,-970.215,23.926,-23.926
1571286556.897,49.316,-970.215,-970.215,-18.066,-16.113
1571286556.901,145.996,-970.215,-970.215,67.871,-58.105
1571286556.905,155.273,-970.215,-970.215,102.051,-72.266
1571286556.909,44.922,-970.215,-970.215,-9.277,-83.984
1571286556.913,17.090,-970.215,-970.215,-60.547,-88.379
1571286556.917,133.789,-970.215,-970.215,0.977,-78.613
1571286556.921,196.289,-970.215,-970.215,59.570,-55.176
1571286556.925,90.820,-970.215,-970.215,-20.508,-26.855
1571286556.929,33.691,-970.215,-970.215,-100.098,-42.480
1571286556.932,96.191,-970.215,-970.215,-36.621,-13.672
1571286556.936,161.133,-970.215,-970.215,44.922,-28.809
1571286556.940,138.184,-970.215,-970.215,1.465,-9.277
1571286556.944,92.285,-970.215,-970.215,-52.734,17.578
1571286556.948,96.191,-970.215,-970.215,-67.383,-81.055
1571286556.952,138.184,-970.215,-970.215,-11.719,-58.594
1571286556.956,165.527,-970.215,-970.215,59.570,-41.992
1571286556.960,97.168,-970.215,-970.215,13.672,-40.039
1571286556.964,74.219,-970.215,-970.215,-44.922,-19.043
1571286556.968,187.012,-970.215,-970.215,17.090,-50.781
1571286556.971,196.289,-970.215,-970.215,62.500,-35.645
1571286556.975,60.547,-970.215,-970.215,-36.133,-10.742
1571286556.979,-2.441,-970.215,-970.215,-74.219,-47.363
1571286556.983,77.148,-970.215,-970.215,-41.992,-37.598
1571286556.987,145.020,-970.215,-970.215,-8.301,-12.207
1571286556.991,52.734,-970.215,-970.215,-54.688,-35.156
1571286556.995,-65.430,-970.215,-970.215,-138.184,0.488
1571286556.999,-18.066,-970.215,-970.215,-138.672,-19.043
1571286557.003,68.848,-970.215,-970.215,-59.570,-13.184
1571286557.007,-0.488,-970.215,-970.215,-86.914,-0.977
1571286557.011,-107.422,-970.215,-970.215,-173.340,-28.320
1571286557.014,-57.617,-970.215,-970.215,-170.898,-39.551
1571286557.018,63.965,-970.215,-970.215,-93.262,-41.016
1571286557.022,49.316,-970.215,-970.215,-58.594,-23.438
1571286557.026,-60.059,-970.215,-970.215,-146.973,17.578
1571286557.030,-86.426,-970.215,-970.215,-215.332,-1.953
1571286557.034,-21.484,-970.215,-970.215,-160.645,-31.250
1571286557.038,-6.348,-970.215,-970.215,-103.516,-17.090
1571286557.042,-102.051,-970.215,-970.215,-147.461,-19.531
1571286557.046,-147.461,-970.215,-970.215,-187.988,7.812
1571286557.050,-83.984,-970.215,-970.215,-155.273,-28.320
1571286557.054,-26.855,-970.215,-970.215,-127.441,-45.410
1571286557.057,-111.816,-970.215,-970.215,-212.891,34.180
1571286557.061,-215.332,-970.215,-970.215,-285.645,75.195
1571286557.065,-182.129,-970.215,-970.215,-264.160,60.059
1571286557.069,-114.746,-970.215,-970.215,-187.012,57.617
1571286557.073,-164.551,-970.215,-970.215,-224.609,66.895
1571286557.077,-268.066,-970.215,-970.215,-307.129,31.250
1571286557.081,-242.676,-970.215,-970.215,-280.273,69.824
1571286557.085,-111.328,-970.215,-970.215,-180.176,63.965
1571286557.089,-61.523,-970.215,-970.215,-131.348,26.367
1571286557.093,-166.992,-970.215,-970.215,-193.359,74.707
1571286557.096,-220.215,-970.215,-970.215,-227.539,62.012
1571286557.100,-151.367,-970.215,-970.215,-195.312,60.059
1571286557.104,-138.672,-970.215,-970.215,-170.898,73.730
1571286557.108,-228.516,-970.215,-970.215,-212.891,41.504
1571286557.112,-261.719,-970.215,-970.215,-288.086,-9.766
1571286557.116,-187.988,-970.215,-970.215,-266.602,-7.812
1571286557.120,-106.934,-970.215,-970.215,-178.223,-14.160
1571286557.124,-153.809,-970.215,-970.215,-195.312,26.367
1571286557.128,-244.629,-970.215,-970.215,-259.766,43.945
1571286557.132,-208.984,-970.215,-970.215,-216.797,2.930
1571286557.136,-88.379,-970.215,-970.215,-119.629,11.719
1571286557.139,-90.820,-970.215,-970.215,-90.332,2.441
1571286557.143,-160.156,-970.215,-970.703,-125.000,0.977
1571286557.147,-150.879,-970.215,-966.797,-159.668,44.434
1571286557.151,-73.730,-970.215,-974.609,-111.328,38.574
1571286557.155,-38.086,-973.145,-956.543,-44.922,30.762
1571286557.159,-114.746,-959.961,-814.941,-71.289,55.664
1571286557.163,-182.129,-952.148,-866.211,-157.227,21.484
1571286557.167,-121.582,-964.844,-729.492,-122.070,-27.832
1571286557.171,-32.227,-319.824,51.270,-23.438,17.578
1571286557.175,-103.516,712.402,746.582,-76.660,58.594
1571286557.179,-203.613,-982.910,979.004,-177.246,-9.277
1571286557.182,-167.969,974.609,986.816,-176.270,-22.949
1571286557.186,-90.332,998.535,997.559,-119.629,67.383
1571286557.190,-160.645,-999.512,-1000.000,-165.527,71.777
1571286557.194,-277.832,999.512,999.512,-219.727,26.855
1571286557.198,-281.738,999.512,999.512,-238.770,-31.250
1571286557.202,-205.078,999.512,999.512,-215.332,-7.812
1571286557.206,-203.613,999.512,999.512,-208.496,39.551
1571286557.210,-288.086,999.512,999.512,-257.812,-10.254
1571286557.214,-285.645,999.512,999.512,-274.414,-4.395
1571286557.218,-181.152,999.512,999.512,-195.801,6.836
1571286557.221,-133.301,999.512,999.512,-111.816,4.883
1571286557.225,-179.199,999.512,999.512,-139.160,15.137
1571286557.229,-154.297,999.512,999.512,-146.973,-9.766
1571286557.233,-23.438,999.512,999.512,-40.527,4.395
1571286557.237,56.152,999.512,999.512,62.988,-5.371
1571286557.241,-11.719,999.512,999.512,16.602,-47.363
1571286557.245,-74.219,999.512,999.512,-46.387,-56.152
1571286557.249,-14.160,999.512,999.512,0.977,-34.668
1571286557.253,106.445,999.512,999.512,102.539,-25.391
1571286557.257,82.031,999.512,999.512,87.402,-12.207
1571286557.261,0.000,999.512,999.512,35.156,6.348
1571286557.264,59.570,999.512,999.512,56.641,-35.645
1571286557.268,160.645,999.512,999.512,132.812,-67.383
1571286557.272,140.625,999.512,999.512,128.418,-18.555
1571286557.276,60.547,999.512,999.512,69.824,-6.836
1571286557.280,67.383,999.512,999.512,54.199,-14.160
1571286557.284,150.879,999.512,999.512,127.441,20.020
1571286557.288,205.566,999.512,999.512,181.152,-4.395
1571286557.292,107.910,999.512,999.512,87.402,-31.738
1571286557.296,38.574,999.512,999.512,41.016,-31.738
1571286557.300,120.117,-998.535,999.512,96.191,-10.742
1571286557.304,178.223,988.770,999.512,118.164,15.137
1571286557.307,91.797,-984.375,999.512,53.223,45.410
1571286557.311,15.137,940.918,999.512,23.926,48.828
1571286557.315,80.566,708.984,-999.512,70.312,54.199
1571286557.319,191.895,600.586,996.094,133.301,72.754
1571286557.323,165.039,200.684,995.605,129.883,26.367
1571286557.327,69.824,-481.934,989.258,87.402,2.930
1571286557.331,85.449,-916.016,803.711,82.031,7.812
1571286557.335,181.641,-969.238,485.840,150.391,-15.137
1571286557.339,197.754,-959.473,479.492,170.898,31.738
1571286557.343,95.215,-972.168,248.047,91.309,36.621
1571286557.346,55.176,-970.215,-109.375,57.617,40.039
1571286557.350,155.762,-970.215,-73.730,150.391,35.645
1571286557.354,229.980,-970.215,-45.898,197.266,-18.555
1571286557.358,123.047,-970.215,-416.992,126.953,-42.969
1571286557.362,43.457,-970.215,-770.508,86.426,-21.973
1571286557.366,147.461,-970.215,-711.426,106.445,6.836
1571286557.370,229.980,-970.215,-687.012,150.879,-19.531
1571286557.374,150.879,-970.215,-726.074,112.305,4.395
1571286557.378,49.805,-970.215,-896.484,45.410,-9.277
1571286557.382,68.848,-970.215,-979.004,52.734,-46.387
1571286557.386,137.207,-970.215,-964.844,106.445,-46.875
1571286557.389,100.586,-970.215,-969.727,96.680,-17.090
1571286557.393,3.906,-970.215,-970.215,12.207,0.977
1571286557.397,-7.324,-970.215,-970.215,-22.461,-43.945
1571286557.401,92.285,-970.215,-970.215,44.434,-26.855
1571286557.405,124.023,-970.215,-970.215,69.336,-19.043
1571286557.409,10.742,-970.215,-970.215,-5.859,-42.969
1571286557.413,-37.109,-970.215,-970.215,-42.969,-46.387
1571286557.417,54.688,-970.215,-970.215,37.598,-36.621
1571286557.421,83.496,-970.215,-970.215,71.289,-22.461
1571286557.425,-15.137,-970.215,-970.215,-14.160,-42.969
1571286557.429,-82.520,-970.215,-970.215,-59.570,-20.996
1571286557.432,-37.598,-970.215,-970.215,-49.805,-14.648
1571286557.436,58.594,-970.215,-970.215,-2.930,-60.547
1571286557.440,16.602,-970.215,-970.215,-12.695,-62.012
1571286557.444,-87.891,-970.215,-970.215,-67.871,-41.504
1571286557.448,-49.805,-970.215,-970.215,-66.406,-20.020
1571286557.452,58.594,-970.215,-970.215,4.395,25.391
1571286557.456,24.414,-970.215,-970.215,9.277,-8.789
1571286557.460,-77.637,-970.215,-970.215,-49.316,-6.348
1571286557.464,-55.664,-970.215,-970.215,-52.734,19.531
1571286557.468,59.082,-970.215,-970.215,19.043,-20.508
1571286557.471,69.824,-970.215,-970.215,42.480,-30.762
1571286557.475,-45.898,-970.215,-970.215,-17.578,-50.293
1571286557.479,-66.895,-970.215,-970.215,-51.270,-39.062
1571286557.483,20.020,-970.215,-970.215,-8.789,-18.555
1571286557.487,55.176,-970.215,-970.215,29.785,-69.336
1571286557.491,-38.086,-970.215,-970.215,-12.207,-10.742
1571286557.495,-107.422,-970.215,-970.215,-54.688,18.066
1571286557.499,-33.203,-970.215,-970.215,-39.062,-38.574
1571286557.503,77.148,-970.215,-970.215,30.762,-2.930
1571286557.507,32.715,-970.215,-970.215,15.625,40.527
1571286557.511,-50.293,-970.215,-970.215,-41.504,43.945
1571286557.514,-19.043,-970.215,-970.215,-40.527,45.410
1571286557.518,20.020,-970.215,-970.215,-31.250,21.484
1571286557.522,-23.926,-970.215,-970.215,-43.945,-1.953
1571286557.526,-108.398,-970.215,-970.215,-102.539,18.555
1571286557.530,-97.656,-970.215,-970.215,-115.723,-2.441
1571286557.534,1.953,-970.215,-970.215,-49.316,-8.301
1571286557.538,40.527,-970.215,-970.215,-27.344,-33.203
1571286557.542,-41.504,-970.215,-970.215,-64.941,9.766
1571286557.546,-79.102,-970.215,-970.215,-78.613,33.691
1571286557.550,21.484,-970.215,-970.215,-13.184,-58.105
1571286557.554,117.676,-970.215,-970.215,51.270,-66.406
1571286557.557,56.152,-970.215,-970.215,18.066,-60.059
1571286557.561,-16.602,-970.215,-970.215,-21.973,-4.395
1571286557.565,41.504,-970.215,-970.215,-1.465,78.613
1571286557.569,125.488,-970.215,-970.215,66.406,12.695
1571286557.573,87.402,-970.215,-970.215,42.969,-26.367
1571286557.577,2.930,-970.215,-970.215,-12.207,22.461
1571286557.581,26.367,-970.215,-970.215,-7.812,8.301
1571286557.585,126.465,-970.215,-970.215,29.785,-33.203
1571286557.589,117.676,-970.215,-970.215,61.523,-33.203
1571286557.593,14.648,-970.215,-970.215,2.441,-25.879
1571286557.596,0.000,-970.215,-970.215,-11.719,2.930
1571286557.600,108.887,-970.215,-970.215,49.805,33.691
1571286557.604,151.367,-970.215,-970.215,83.984,-12.207
1571286557.608,50.781,-970.215,-970.215,40.039,-29.785
1571286557.612,-9.766,-970.215,-970.215,-33.691,-27.344
1571286557.616,54.688,-970.215,-970.215,2.441,-2.441
1571286557.620,120.605,-970.215,-970.215,76.660,-15.137
1571286557.624,57.129,-970.215,-970.215,42.969,-17.090
1571286557.628,-11.230,-970.215,-970.215,-12.695,10.254
1571286557.632,39.062,-970.215,-970.215,10.254,10.254
1571286557.636,145.508,-970.215,-970.215,75.684,-18.555
1571286557.639,108.887,-970.215,-970.215,50.293,-28.809
1571286557.643,-9.277,-970.215,-970.215,-27.832,36.133
1571286557.647,-16.113,-970.215,-970.215,-70.801,33.203
1571286557.651,81.543,-970.215,-970.215,-9.766,-32.715
1571286557.655,104.980,-970.215,-970.215,41.992,-69.336
1571286557.659,0.488,-970.215,-970.215,-29.785,22.949
1571286557.663,-31.738,-970.215,-970.215,-73.730,41.016
1571286557.667,44.434,-970.215,-970.215,-39.062,-44.922
1571286557.671,70.312,-970.215,-970.215,2.930,-56.641
1571286557.675,-42.969,-970.215,-970.215,-75.195,-13.672
1571286557.679,-136.230,-970.215,-970.215,-148.926,10.742
1571286557.682,-60.059,-970.215,-970.215,-141.602,-18.555
1571286557.686,51.270,-970.215,-970.215,-89.355,-55.176
1571286557.690,-2.930,-970.215,-970.215,-91.309,1.465
1571286557.694,-82.031,-970.215,-970.215,-133.789,89.355
1571286557.698,-23.926,-970.215,-970.215,-87.891,52.246
1571286557.702,96.191,-970.215,-970.215,1.953,-38.086
1571286557.706,29.785,-969.727,-970.215,-46.875,2.930
1571286557.710,-118.652,-970.215,-970.215,-140.137,28.320
1571286557.714,-85.449,-970.215,-970.215,-139.648,10.742
1571286557.718,34.668,-969.727,-970.215,-57.617,34.668
1571286557.721,51.758,-970.215,-970.215,9.766,-26.855
1571286557.725,-54.199,-970.215,-970.215,-73.730,-47.363
1571286557.729,-98.145,-970.215,-970.215,-128.418,0.977
1571286557.733,-1.953,-970.215,-970.215,-62.988,0.488
1571286557.737,94.238,-970.215,-969.727,17.090,31.250
1571286557.741,32.715,-970.215,-970.215,-5.371,43.945
1571286557.745,-42.480,-970.215,-970.215,-46.387,5.371
1571286557.749,12.695,-970.215,-970.215,-43.457,-11.719
1571286557.753,103.516,-970.215,-970.215,19.531,-68.359
1571286557.757,67.383,-970.215,-970.215,11.719,-44.434
1571286557.761,-44.434,-970.215,-970.215,-92.773,39.062
1571286557.764,-37.109,-970.215,-970.215,-129.883,44.434
1571286557.768,37.109,-970.215,-970.215,-104.004,33.691
1571286557.772,-12.207,-970.215,-970.215,-152.344,5.371
1571286557.776,-148.926,-970.215,-970.215,-255.859,-2.930
1571286557.780,-190.918,-970.215,-970.215,-287.598,-14.160
1571286557.784,-120.117,-970.215,-970.215,-225.586,-31.250
1571286557.788,-82.031,-970.215,-970.215,-199.219,33.691
1571286557.792,-159.180,-970.215,-970.215,-276.855,22.949
1571286557.796,-225.098,-970.215,-970.215,-328.613,-14.160
1571286557.800,-193.359,-970.215,-970.215,-293.945,-15.625
1571286557.804,-142.578,-970.215,-970.215,-250.488,21.484
1571286557.807,-208.496,-970.215,-970.215,-304.199,69.336
1571286557.811,-310.059,-970.215,-970.215,-357.422,26.367
1571286557.815,-273.926,-970.215,-970.215,-332.031,19.531
1571286557.819,-185.059,-970.215,-970.215,-274.414,-50.781
1571286557.823,-223.633,-970.215,-970.215,-277.832,-85.449
1571286557.827,-323.242,-970.215,-970.215,-373.535,-25.879
1571286557.831,-314.453,-970.215,-970.215,-431.641,-39.062
1571286557.835,-205.566,-970.215,-970.215,-335.449,-22.949
1571286557.839,-188.477,-970.215,-970.215,-283.203,4.395
1571286557.843,-258.301,-970.215,-970.215,-352.051,7.812
1571286557.846,-253.418,-970.215,-970.215,-362.305,33.203
1571286557.850,-166.504,-970.215,-970.215,-259.766,-11.230
1571286557.854,-116.699,-970.215,-970.215,-190.430,-1.953
1571286557.858,-183.105,-970.215,-970.215,-262.695,7.812
1571286557.862,-224.121,-970.215,-970.215,-309.082,-3.906
1571286557.866,-159.180,-970.215,-970.215,-257.324,19.043
1571286557.870,-96.191,-970.215,-970.215,-165.527,0.000
1571286557.874,-144.043,-970.215,-970.215,-176.270,-75.684
1571286557.878,-197.266,-970.215,-970.215,-254.395,4.883
1571286557.882,-142.578,-970.215,-970.215,-218.262,-8.789
1571286557.886,-57.617,-970.215,-970.215,-127.441,-101.074
1571286557.889,-83.984,-970.215,-970.215,-149.414,-38.574
1571286557.893,-200.195,-970.215,-970.215,-229.492,-40.039
1571286557.897,-216.797,-970.215,-970.215,-233.887,-41.992
1571286557.901,-116.699,-970.215,-970.215,-129.395,-13.672
1571286557.905,-75.684,-970.215,-970.215,-99.121,-38.574
1571286557.909,-144.043,-970.215,-970.215,-185.059,-80.078
1571286557.913,-167.480,-970.215,-970.215,-221.680,-45.898
1571286557.917,-69.336,-970.215,-970.215,-143.066,-9.766
1571286557.921,8.789,-970.215,-970.215,-27.832,-16.602
1571286557.925,-58.594,-970.215,-970.215,-45.898,-19.043
1571286557.929,-318.359,-970.215,-970.215,-285.645,-1.953
1571286557.932,-469.238,-970.215,-970.215,-431.152,-41.016
1571286557.936,-424.805,-970.215,-970.215,-414.551,-27.832
1571286557.940,-500.977,-971.191,-972.168,-505.371,2.930
1571286557.944,-617.676,-964.355,-950.684,-627.441,-31.250
1571286557.948,-628.418,-971.191,-995.117,-643.555,-62.988
1571286557.952,-565.918,-975.098,-827.148,-578.613,-69.336
1571286557.956,-611.816,-688.965,-239.746,-611.328,-1.465
1571286557.960,-747.070,-675.293,17.578,-718.750,65.430
1571286557.964,-813.965,-194.336,551.758,-794.434,54.199
1571286557.968,-787.598,813.477,-954.590,-789.062,-6.836
1571286557.971,-805.664,-987.305,979.492,-793.457,47.363
1571286557.975,-900.879,976.074,994.629,-888.184,70.801
1571286557.979,-940.918,-999.512,-999.023,-938.477,22.949
1571286557.983,-848.633,-1000.000,999.512,-855.469,22.949
1571286557.987,-739.258,999.512,999.512,-743.164,29.785
1571286557.991,-775.879,999.512,999.512,-751.953,28.320
1571286557.995,-804.199,999.512,999.512,-777.832,31.250
1571286557.999,-701.172,999.512,999.512,-708.984,27.832
1571286558.003,-565.430,999.512,999.512,-563.477,47.852
1571286558.007,-544.922,999.512,999.512,-485.840,64.941
1571286558.011,-569.336,999.512,999.512,-491.699,38.574
1571286558.014,-505.371,999.512,999.512,-458.008,9.766
1571286558.018,-354.004,999.512,999.512,-365.234,64.941
1571286558.022,-287.598,999.512,999.512,-309.082,52.734
1571286558.026,-337.891,999.512,999.512,-314.941,15.137
1571286558.030,-311.035,999.512,999.512,-277.832,15.137
1571286558.034,-171.875,999.512,999.512,-168.457,33.203
1571286558.038,-76.172,999.512,999.512,-78.125,32.715
1571286558.042,-134.766,999.512,999.512,-97.168,-4.395
1571286558.046,-150.879,999.512,999.512,-106.445,-53.223
1571286558.050,-34.668,999.512,999.512,-18.555,-45.898
1571286558.054,46.875,999.512,999.512,72.754,2.441
1571286558.057,-3.418,999.512,999.512,63.477,-16.113
1571286558.061,-70.312,999.512,999.512,6.348,8.789
1571286558.065,-8.301,999.512,999.512,23.438,0.977
1571286558.069,84.961,999.512,999.512,97.168,-10.254
1571286558.073,56.152,999.512,999.512,81.055,15.625
1571286558.077,-21.484,998.535,999.512,38.574,29.297
1571286558.081,-0.977,991.699,999.512,44.922,24.414
1571286558.085,100.586,978.027,999.512,123.047,6.348
1571286558.089,119.629,872.070,999.512,147.461,24.902
1571286558.093,26.855,220.215,999.512,63.965,-11.719
1571286558.096,-9.766,-598.145,999.512,34.180,24.902
1571286558.100,104.492,-678.711,985.840,98.633,66.895
1571286558.104,156.250,-709.473,-979.980,125.488,35.156
1571286558.108,15.625,-932.617,844.238,30.273,-31.738
1571286558.112,-56.641,-978.516,436.523,-11.230,-28.320
1571286558.116,13.672,-963.379,244.629,21.484,13.184
1571286558.120,90.820,-971.191,262.207,54.688,27.832
1571286558.124,45.898,-970.215,102.051,36.621,18.555
1571286558.128,-48.828,-970.215,-149.414,-35.156,17.090
1571286558.132,-32.227,-970.215,-469.727,-47.363,22.461
1571286558.136,61.035,-970.215,-519.531,54.688,48.828
1571286558.139,67.871,-970.215,-664.062,44.922,55.664
1571286558.143,-43.945,-970.215,-899.414,-62.012,-6.836
1571286558.147,-67.871,-970.215,-768.066,-63.965,21.484
1571286558.151,72.754,-970.215,-798.828,25.879,48.828
1571286558.155,99.609,-970.215,-809.570,72.266,-3.906
1571286558.159,-5.859,-970.215,-729.492,6.348,16.602
1571286558.163,-36.621,-970.215,-797.852,-24.902,93.750
1571286558.167,58.105,-970.215,-927.246,47.852,90.332
1571286558.171,109.863,-970.215,-972.168,74.707,-26.367
1571286558.175,23.926,-970.215,-967.285,27.832,-37.109
1571286558.179,-31.250,-970.215,-969.727,-16.113,15.625
1571286558.182,32.715,-970.215,-970.215,-14.648,-17.578
1571286558.186,93.262,-969.727,-970.215,40.039,9.766
1571286558.190,34.180,-969.727,-970.215,2.930,-37.598
1571286558.194,-29.785,-970.215,-970.215,-47.852,-75.195
1571286558.198,-9.277,-970.215,-970.215,-24.414,-41.016
1571286558.202,98.145,-970.215,-970.215,32.227,-32.227
1571286558.206,97.656,-970.215,-970.215,18.555,-64.941
1571286558.210,7.812,-970.215,-970.215,-22.461,-139.160
1571286558.214,15.625,-970.215,-970.215,-8.301,-106.445
1571286558.218,120.117,-970.215,-970.215,85.938,-53.223
1571286558.221,179.688,-970.215,-970.215,130.371,-48.340
1571286558.225,84.961,-970.215,-970.215,66.406,-28.320
1571286558.229,38.574,-970.215,-970.215,21.484,25.879
1571286558.233,120.605,-970.215,-970.215,42.480,32.715
1571286558.237,183.594,-970.215,-970.215,90.332,-55.664
1571286558.241,83.496,-970.215,-970.215,38.086,-26.855
1571286558.245,-8.789,-970.215,-970.215,-42.480,11.230
1571286558.249,49.805,-970.215,-970.215,-5.371,53.711
1571286558.253,122.070,-970.215,-970.215,59.570,57.129
1571286558.257,73.730,-970.215,-970.215,43.457,18.066
1571286558.261,-12.207,-970.215,-970.215,-21.484,58.105
1571286558.264,17.578,-970.215,-970.215,-27.344,63.965
1571286558.268,123.535,-970.215,-970.215,65.918,-10.254
1571286558.272,126.465,-970.215,-970.215,99.609,11.719
1571286558.276,43.945,-970.215,-970.215,45.410,9.766
1571286558.280,41.504,-970.215,-970.215,-19.531,-28.320
1571286558.284,94.238,-970.215,-970.215,16.113,0.488
1571286558.288,103.516,-970.215,-970.215,45.898,-5.859
1571286558.292,20.020,-970.215,-970.215,-20.020,35.156
1571286558.296,-20.508,-970.215,-970.215,-56.641,62.988
1571286558.300,62.500,-970.215,-970.215,6.348,22.949
1571286558.304,128.906,-970.215,-970.215,84.961,34.180
1571286558.307,51.758,-970.215,-970.215,27.344,-16.602
1571286558.311,-15.625,-970.215,-970.215,-28.320,-32.227
1571286558.315,57.617,-970.215,-970.215,0.488,4.883
1571286558.319,148.926,-970.215,-970.215,38.574,-56.641
1571286558.323,91.309,-970.215,-970.215,17.578,-83.496
1571286558.327,-24.902,-970.215,-970.215,-46.387,-59.570
1571286558.331,-8.301,-970.215,-970.215,-57.129,-51.270
1571286558.335,98.633,-970.215,-970.215,20.508,-15.625
1571286558.339,109.863,-970.215,-970.215,46.387,-33.691
1571286558.343,15.137,-970.215,-970.215,-20.996,-52.734
1571286558.346,-23.438,-970.215,-970.215,-62.988,-57.129
1571286558.350,65.918,-970.215,-970.215,2.930,-25.391
1571286558.354,119.141,-970.215,-970.215,51.758,13.184
1571286558.358,20.508,-970.215,-970.215,-24.902,1.953
1571286558.362,-45.898,-970.215,-970.215,-64.941,29.297
1571286558.366,26.855,-970.215,-970.215,-30.273,35.156
1571286558.370,102.539,-969.727,-970.215,30.273,-0.488
1571286558.374,43.945,-969.727,-970.215,7.812,48.828
1571286558.378,-17.578,-970.215,-970.215,-49.316,29.785
1571286558.382,24.902,-970.215,-970.215,-27.344,-6.348
1571286558.386,104.492,-970.215,-970.215,32.715,-4.883
1571286558.389,75.195,-969.727,-970.215,24.902,-6.836
1571286558.393,-27.832,-970.215,-970.215,-54.688,-22.949
1571286558.397,-63.965,-970.215,-970.215,-101.562,-19.531
1571286558.401,-2.441,-970.215,-970.215,-93.262,-0.488
1571286558.405,8.789,-970.215,-970.215,-73.730,-32.715
1571286558.409,-71.777,-970.215,-970.215,-115.723,32.227
1571286558.413,-67.871,-970.215,-970.215,-150.879,61.523
1571286558.417,12.207,-970.215,-970.215,-85.449,6.348
1571286558.421,51.270,-970.215,-970.215,-20.508,16.113
1571286558.425,-30.762,-970.215,-970.215,-94.238,58.594
1571286558.429,-96.191,-970.215,-970.215,-151.367,-2.441
1571286558.432,-17.578,-970.215,-970.215,-108.398,-57.129
1571286558.436,89.844,-970.215,-970.215,-66.406,-5.371
1571286558.440,25.391,-970.215,-970.215,-92.285,43.457
1571286558.444,-88.379,-970.215,-970.215,-129.883,35.645
1571286558.448,-22.461,-970.215,-970.215,-94.727,19.531
1571286558.452,103.516,-970.215,-970.215,-4.883,2.441
1571286558.456,34.180,-970.215,-970.215,-47.852,-5.859
1571286558.460,-102.539,-970.215,-970.215,-142.578,-33.203
1571286558.464,-85.938,-970.215,-970.215,-132.812,-15.625
1571286558.468,14.160,-970.215,-970.215,-75.684,57.617
1571286558.471,40.039,-970.215,-970.215,-41.992,20.996
1571286558.475,-45.898,-970.215,-970.215,-72.754,-42.969
1571286558.479,-85.449,-970.215,-970.215,-85.938,-29.297
1571286558.483,4.883,-970.215,-970.215,-21.484,-93.750
1571286558.487,94.727,-970.215,-970.215,9.766,-87.891
1571286558.491,39.551,-970.215,-970.215,-50.293,41.504
1571286558.495,-24.414,-970.215,-970.215,-87.891,39.551
1571286558.499,29.785,-970.215,-970.215,-66.406,0.000
1571286558.503,111.328,-970.215,-970.215,-6.836,38.574
1571286558.507,62.988,-970.215,-970.215,-22.461,26.855
1571286558.511,-33.203,-970.215,-970.215,-71.777,9.766
1571286558.514,-9.766,-970.215,-970.215,-82.520,61.035
1571286558.518,66.406,-970.215,-970.215,-39.062,77.148
1571286558.522,35.645,-970.215,-970.215,-36.133,17.090
1571286558.526,-86.426,-970.215,-970.215,-134.277,-6.348
1571286558.530,-118.652,-970.215,-970.215,-188.477,32.715
1571286558.534,-52.246,-970.215,-970.215,-132.324,-2.930
1571286558.538,-48.340,-970.215,-970.215,-92.773,-18.555
1571286558.542,-157.227,-970.215,-970.215,-196.289,30.273
1571286558.546,-216.309,-970.215,-970.215,-277.832,-3.418
1571286558.550,-145.020,-970.215,-970.215,-229.980,5.859
1571286558.554,-87.402,-970.215,-970.215,-154.785,31.738
1571286558.557,-167.969,-969.727,-970.215,-231.445,7.324
1571286558.561,-229.492,-970.215,-970.215,-314.453,-10.742
1571286558.565,-155.273,-970.215,-970.215,-254.883,-23.926
1571286558.569,-65.430,-970.215,-970.215,-151.855,20.020
1571286558.573,-120.605,-970.215,-970.215,-188.477,21.973
1571286558.577,-224.609,-970.215,-970.215,-274.414,4.395
1571286558.581,-202.637,-970.215,-970.215,-262.207,24.414
1571286558.585,-122.070,-970.215,-970.215,-182.617,-2.441
1571286558.589,-163.086,-970.215,-970.215,-173.828,21.484
1571286558.593,-290.527,-969.727,-970.215,-293.457,20.508
1571286558.596,-313.477,-970.215,-970.215,-371.094,-13.184
1571286558.600,-274.902,-970.215,-970.215,-346.680,16.602
1571286558.604,-289.551,-970.215,-970.215,-355.957,-15.625
1571286558.608,-391.113,-970.215,-970.215,-446.289,-50.781
1571286558.612,-474.609,-970.215,-970.215,-493.164,23.926
1571286558.616,-421.875,-970.215,-970.215,-434.082,12.207
1571286558.620,-368.652,-970.215,-970.215,-375.977,-40.039
1571286558.624,-450.684,-970.215,-970.215,-448.730,-32.227
1571286558.628,-525.879,-970.215,-970.215,-550.781,-10.254
1571286558.632,-537.598,-970.215,-970.215,-590.820,-64.941
1571286558.636,-498.535,-970.215,-970.215,-529.785,-36.621
1571286558.639,-504.883,-970.215,-972.656,-503.418,8.301
1571286558.643,-608.398,-971.680,-956.543,-562.988,-28.809
1571286558.647,-651.855,-948.730,-967.773,-637.695,-56.152
1571286558.651,-656.738,-995.117,-908.691,-697.266,-51.758
1571286558.655,-706.055,-764.648,-293.945,-735.352,-24.414
1571286558.659,-797.852,-50.781,604.004,-793.457,22.461
1571286558.663,-811.523,540.039,998.535,-813.965,57.617
1571286558.667,-710.938,904.785,985.840,-733.887,11.719
1571286558.671,-664.062,-992.676,992.676,-680.176,-33.203
1571286558.675,-764.160,988.281,-998.047,-779.297,-10.742
1571286558.679,-806.641,-998.535,999.512,-814.453,-1.953
1571286558.682,-710.938,999.512,999.512,-731.934,27.344
1571286558.686,-583.008,999.512,999.512,-620.605,6.836
1571286558.690,-596.191,999.512,999.512,-581.543,36.621
1571286558.694,-666.992,999.512,999.512,-619.141,68.359
1571286558.698,-589.844,999.512,999.512,-603.516,21.973
1571286558.702,-451.660,999.512,999.512,-465.332,-11.719
1571286558.706,-416.992,999.512,999.512,-405.762,39.551
1571286558.710,-431.152,999.512,999.512,-424.805,21.484
1571286558.714,-383.789,999.512,999.512,-378.906,12.695
1571286558.718,-267.578,999.512,999.512,-276.367,-9.766
1571286558.721,-222.168,999.512,999.512,-213.867,-35.645
1571286558.725,-261.719,999.512,999.512,-209.473,20.020
1571286558.729,-249.023,999.512,999.512,-210.938,3.418
1571286558.733,-192.383,999.512,999.512,-170.898,-5.371
1571286558.737,-132.812,999.512,999.512,-85.938,-35.645
1571286558.741,-168.457,999.512,999.512,-109.863,-58.594
1571286558.745,-226.074,999.512,999.512,-164.062,-11.719
1571286558.749,-168.457,999.512,999.512,-152.344,23.926
1571286558.753,-82.031,999.512,999.512,-79.102,17.090
1571286558.757,-110.352,999.512,999.512,-61.035,25.879
1571286558.761,-146.973,999.512,999.512,-104.492,75.195
1571286558.764,-101.562,999.512,999.512,-83.496,26.367
1571286558.768,12.695,999.512,999.512,27.344,8.301
1571286558.772,76.660,999.512,999.512,80.566,2.441
1571286558.776,9.277,999.512,999.512,53.223,-41.992
1571286558.780,5.371,997.559,999.512,46.875,-40.527
1571286558.784,104.980,983.887,999.512,99.121,-9.766
1571286558.788,140.137,-996.582,998.535,138.184,-5.859
1571286558.792,45.410,699.707,993.652,61.035,-54.199
1571286558.796,-15.137,107.422,-976.074,18.066,-70.801
1571286558.800,79.590,-602.051,866.211,99.609,18.066
1571286558.804,152.832,-685.059,855.469,167.969,104.980
1571286558.807,81.055,-444.336,991.699,92.773,71.777
1571286558.811,5.371,-824.707,581.543,32.227,18.066
1571286558.815,33.691,-993.164,171.387,50.293,56.152
1571286558.819,115.234,-958.008,192.383,90.332,48.340
1571286558.823,96.191,-969.238,196.289,100.098,20.996
1571286558.827,12.695,-970.703,-100.586,40.039,35.645
1571286558.831,38.086,-970.215,-383.301,34.180,43.457
1571286558.835,168.945,-970.215,-483.887,131.348,41.992
1571286558.839,186.035,-970.215,-454.102,187.012,-14.648
1571286558.843,75.684,-970.215,-578.613,106.445,-2.930
1571286558.846,26.855,-970.215,-958.008,17.090,56.641
1571286558.850,64.941,-970.215,-922.363,46.875,3.418
1571286558.854,74.707,-970.215,-598.145,70.312,-19.043
1571286558.858,-34.668,-970.215,-595.215,-19.043,1.953
1571286558.862,-102.539,-970.215,-814.941,-78.613,-63.965
1571286558.866,-51.758,-970.215,-756.836,-43.457,-62.012
1571286558.870,13.184,-970.215,-593.750,23.926,-54.199
1571286558.874,-28.320,-970.215,-589.844,-18.066,-69.336
1571286558.878,-90.332,-970.215,-618.164,-87.891,16.113
1571286558.882,-26.367,-970.215,-768.555,-29.785,25.391
1571286558.886,73.730,-970.215,-798.340,41.016,-6.836
1571286558.889,41.504,-970.215,-846.680,20.020,15.625
1571286558.893,-26.367,-970.215,-897.949,-33.691,20.996
1571286558.897,-3.906,-970.215,-723.633,-10.254,33.691
1571286558.901,99.121,-970.215,-699.219,78.125,59.570
1571286558.905,117.676,-970.215,-748.047,91.797,37.598
1571286558.909,8.301,-970.215,-767.090,17.578,-14.648
1571286558.913,-9.277,-970.215,-713.867,-10.742,24.902
1571286558.917,106.934,-970.215,-748.047,62.988,71.777
1571286558.921,137.207,-970.215,-651.855,110.840,82.031
1571286558.925,36.621,-970.215,-552.246,48.828,93.262
1571286558.929,-44.922,-970.215,-838.867,-31.738,86.914
1571286558.932,-20.508,-970.215,-988.281,-18.066,22.949
1571286558.936,63.477,-970.215,-960.449,17.090,21.973
1571286558.940,13.184,-970.215,-969.238,-62.500,38.574
1571286558.944,-87.891,-970.215,-970.703,-121.582,14.648
1571286558.948,-54.199,-970.215,-970.215,-83.008,4.883
1571286558.952,35.156,-970.215,-970.215,-2.930,-32.715
1571286558.956,23.438,-970.215,-970.215,-21.484,-36.621
1571286558.960,-71.289,-970.215,-970.215,-91.309,-65.430
1571286558.964,-103.027,-970.215,-970.215,-103.516,-67.383
1571286558.968,-14.160,-970.215,-970.215,-45.410,29.785
1571286558.971,26.855,-970.215,-970.215,-32.227,34.180
1571286558.975,-73.242,-970.215,-970.215,-106.934,-31.250
1571286558.979,-125.488,-970.215,-970.215,-150.391,-16.113
1571286558.983,-32.227,-970.215,-970.215,-92.285,-17.090
1571286558.987,28.320,-970.215,-970.215,-36.621,-44.922
1571286558.991,-52.734,-970.215,-970.215,-90.820,-89.355
1571286558.995,-131.836,-970.215,-970.215,-135.254,24.902
1571286558.999,-101.562,-970.215,-970.215,-125.000,82.520
1571286559.003,-26.367,-970.215,-970.215,-81.055,-34.180
1571286559.007,-70.801,-970.215,-970.215,-107.422,9.277
1571286559.011,-169.922,-970.215,-970.215,-172.363,24.414
1571286559.014,-143.555,-970.215,-970.215,-190.430,-19.531
1571286559.018,-33.691,-970.215,-970.215,-108.887,-44.434
1571286559.022,-22.461,-970.215,-970.215,-51.758,-2.930
1571286559.026,-114.746,-970.215,-970.215,-117.676,21.484
1571286559.030,-131.348,-970.215,-970.215,-159.668,41.504
1571286559.034,-9.766,-970.215,-970.215,-100.098,49.316
1571286559.038,45.898,-970.215,-970.215,-43.457,16.113
1571286559.042,-27.344,-970.215,-970.215,-76.660,15.137
1571286559.046,-63.477,-970.215,-970.215,-88.379,-20.508
1571286559.050,9.277,-970.215,-970.215,-36.621,-54.688
1571286559.054,62.988,-970.215,-970.215,-17.090,-47.852
1571286559.057,-13.184,-970.215,-970.215,-78.613,-13.184
1571286559.061,-86.426,-970.215,-970.215,-145.020,23.926
1571286559.065,-39.551,-970.215,-970.215,-121.582,-7.324
1571286559.069,43.945,-970.215,-970.215,-41.504,-22.949
1571286559.073,8.301,-970.215,-970.215,-35.156,-16.113
1571286559.077,-87.891,-970.215,-970.215,-113.281,-7.324
1571286559.081,-83.008,-970.215,-970.215,-116.211,-13.184
1571286559.085,27.832,-970.215,-970.215,-34.668,6.348
1571286559.089,37.109,-970.215,-970.215,-49.805,-9.766
1571286559.093,-68.848,-970.215,-970.215,-112.793,-14.648
1571286559.096,-85.449,-970.215,-970.215,-111.816,20.996
1571286559.100,7.324,-970.215,-970.215,-59.570,-48.340
1571286559.104,77.637,-970.215,-970.215,2.930,-18.555
1571286559.108,20.508,-970.215,-970.215,-2.930,-7.324
1571286559.112,-47.852,-970.215,-970.215,-46.875,-54.199
1571286559.116,-28.809,-970.215,-970.215,-76.660,-0.488
1571286559.120,15.625,-970.215,-970.215,-39.062,11.230
1571286559.124,-26.855,-970.215,-970.215,-62.012,11.719
1571286559.128,-98.145,-970.215,-970.215,-164.551,44.922
1571286559.132,-90.820,-970.215,-970.215,-171.875,-30.762
1571286559.136,-6.836,-970.215,-970.215,-95.703,-49.316
1571286559.139,-43.457,-970.215,-970.215,-97.168,-47.852
1571286559.143,-152.344,-970.215,-970.215,-156.738,-20.020
1571286559.147,-78.613,-970.215,-970.215,-112.793,30.273
1571286559.151,92.773,-970.215,-970.215,15.137,-10.254
1571286559.155,121.094,-970.215,-970.215,75.684,50.781
1571286559.159,38.574,-970.215,-970.215,31.738,99.609
1571286559.163,18.555,-970.215,-970.215,-8.789,-29.297
1571286559.167,93.750,-970.215,-970.215,25.879,-52.734
1571286559.171,128.418,-970.215,-970.215,61.523,-24.414
1571286559.175,9.766,-970.215,-970.215,-10.254,-54.688
1571286559.179,-43.457,-970.215,-970.215,-71.289,-32.227
1571286559.182,24.414,-970.215,-970.215,-48.340,3.418
1571286559.186,33.203,-970.215,-970.215,-31.738,18.555
1571286559.190,-86.426,-970.215,-970.215,-128.418,-2.441
1571286559.194,-213.867,-970.215,-970.215,-246.582,-2.441
1571286559.198,-207.031,-970.215,-970.215,-254.883,9.277
1571286559.202,-133.789,-970.215,-970.215,-219.238,30.762
1571286559.206,-175.781,-970.215,-970.215,-237.793,48.828
1571286559.210,-270.996,-970.215,-970.215,-281.738,15.625
1571286559.214,-249.512,-970.215,-970.215,-297.852,-45.898
1571286559.218,-126.953,-970.215,-970.215,-228.027,-60.547
1571286559.221,-100.098,-970.215,-970.215,-193.848,29.297
1571286559.225,-206.543,-970.215,-970.215,-272.949,18.555
1571286559.229,-249.512,-970.215,-970.215,-312.988,-23.926
1571286559.233,-176.270,-970.215,-970.215,-268.066,11.719
1571286559.237,-124.023,-970.215,-970.215,-203.613,16.602
1571286559.241,-209.473,-970.215,-970.215,-250.000,46.387
1571286559.245,-313.965,-970.215,-970.215,-353.027,13.184
1571286559.249,-279.785,-970.215,-970.215,-345.703,-25.879
1571286559.253,-202.637,-970.215,-970.215,-285.156,22.461
1571286559.257,-278.320,-970.215,-970.215,-340.820,22.461
1571286559.261,-345.703,-970.215,-970.215,-395.020,51.270
1571286559.264,-248.047,-970.215,-970.215,-333.008,29.785
1571286559.268,-104.004,-970.215,-970.215,-186.035,-64.453
1571286559.272,-72.266,-970.215,-970.215,-108.398,-55.176
1571286559.276,-152.344,-970.215,-970.215,-160.645,50.781
1571286559.280,-182.129,-970.215,-970.215,-200.195,45.898
1571286559.284,-88.379,-970.215,-970.215,-139.160,3.418
1571286559.288,-66.406,-970.215,-970.215,-122.559,-18.555
1571286559.292,-164.062,-970.215,-970.215,-201.660,-53.711
1571286559.296,-185.059,-970.215,-970.215,-221.191,16.602
1571286559.300,-137.207,-970.215,-970.215,-181.641,41.016
1571286559.304,-114.746,-970.215,-970.215,-140.625,20.508
1571286559.307,-163.574,-970.215,-970.215,-161.621,15.625
1571286559.311,-210.938,-970.215,-970.215,-214.844,-2.441
1571286559.315,-168.945,-970.215,-970.215,-188.965,46.875
1571286559.319,-71.289,-970.215,-970.215,-110.840,44.922
1571286559.323,-89.844,-970.215,-970.215,-117.188,-38.574
1571286559.327,-161.133,-970.215,-970.215,-172.852,-19.531
1571286559.331,-145.508,-970.215,-970.215,-185.059,-10.742
1571286559.335,-55.664,-970.215,-970.215,-110.840,-19.043
1571286559.339,-41.992,-970.215,-970.215,-77.148,-30.762
1571286559.343,-133.789,-970.215,-970.215,-127.441,-43.945
1571286559.346,-161.133,-970.215,-970.215,-172.852,-66.895
1571286559.350,-96.191,-970.215,-970.215,-111.816,-55.664
1571286559.354,-46.387,-970.215,-970.215,-53.711,-20.996
1571286559.358,-106.934,-970.215,-970.215,-101.562,-38.574
1571286559.362,-136.719,-970.215,-970.215,-109.863,-36.133
1571286559.366,-42.969,-970.215,-970.215,-31.738,32.715
1571286559.370,59.082,-970.215,-970.215,59.082,76.172
1571286559.374,27.344,-970.215,-970.215,18.066,14.648
1571286559.378,-83.008,-970.215,-970.215,-83.984,-11.230
1571286559.382,-71.777,-970.215,-970.215,-102.539,1.465
1571286559.386,46.875,-970.215,-970.215,-7.812,-67.871
1571286559.389,28.320,-970.215,-970.215,3.418,-28.320
1571286559.393,-91.309,-970.215,-970.703,-107.910,38.574
1571286559.397,-75.195,-970.215,-965.820,-128.418,20.508
1571286559.401,69.336,-970.215,-977.539,11.719,12.207
1571286559.405,109.863,-970.215,-945.801,92.285,-19.531
1571286559.409,28.809,-970.215,-854.004,41.016,29.297
1571286559.413,3.418,-970.215,-911.621,-7.812,14.648
1571286559.417,98.633,-970.215,-952.637,39.551,-38.574
1571286559.421,147.461,-970.215,-719.238,111.816,-32.715
1571286559.425,51.758,-970.215,-563.965,50.781,-22.949
1571286559.429,30.273,-970.215,-673.828,-6.348,9.766
1571286559.432,69.336,-970.215,-712.402,6.348,14.160
1571286559.436,88.867,-970.215,-560.547,15.625,-33.203
1571286559.440,-6.348,-970.215,-497.070,-70.312,-4.395
1571286559.444,-177.734,-970.215,-798.340,-174.316,20.996
1571286559.448,-198.242,-970.215,-1000.000,-192.383,-1.465
1571286559.452,-126.953,-970.215,-923.828,-128.418,-3.418
1571286559.456,-136.719,-970.215,-864.258,-121.094,-0.977
1571286559.460,-223.633,-970.215,-946.289,-210.449,-18.066
1571286559.464,-228.516,-970.215,-982.910,-241.211,-29.297
1571286559.468,-114.258,-970.215,-950.684,-157.227,-37.109
1571286559.471,-52.734,-970.215,-966.309,-89.844,-45.410
1571286559.475,-107.910,-970.215,-927.246,-118.652,42.969
1571286559.479,-132.812,-970.215,-923.340,-154.297,58.594
1571286559.483,-59.082,-970.215,-954.590,-99.121,-5.371
1571286559.487,-2.441,-970.215,-888.184,-45.898,20.996
1571286559.491,-79.102,-970.215,-874.512,-97.656,21.973
1571286559.495,-146.973,-970.215,-915.039,-138.184,17.090
1571286559.499,-80.566,-970.215,-799.805,-100.098,12.207
1571286559.503,21.973,-970.215,-692.871,-22.461,4.883
1571286559.507,-24.414,-970.215,-760.742,-39.062,-26.367
1571286559.511,-109.863,-970.215,-547.363,-109.375,-1.465
1571286559.514,-91.309,-970.215,-487.793,-118.164,-0.977
1571286559.518,-36.621,-970.215,-563.477,-55.176,-26.855
1571286559.522,-49.316,-970.215,-339.355,-47.363,22.949
1571286559.526,-116.211,-970.215,-291.504,-90.332,32.227
1571286559.530,-133.789,-970.215,-466.309,-122.559,15.137
1571286559.534,-69.336,-970.215,-398.926,-105.469,16.602
1571286559.538,-71.777,-970.215,-237.305,-78.613,27.832
1571286559.542,-190.430,-970.215,-232.422,-150.391,-7.812
1571286559.546,-264.160,-970.215,-336.426,-230.957,26.855
1571286559.550,-218.262,-970.215,-411.133,-231.445,57.129
1571286559.554,-161.133,-970.215,-220.703,-197.754,-32.715
1571286559.557,-234.375,-970.215,47.852,-250.977,-16.113
1571286559.561,-322.266,-968.262,-62.012,-291.016,64.941
1571286559.565,-269.531,-968.750,-312.988,-270.996,27.832
1571286559.569,-163.086,-978.516,-157.227,-198.730,5.859
1571286559.573,-196.289,-885.742,110.840,-181.152,31.738
1571286559.577,-278.809,-869.141,-59.570,-223.633,35.645
1571286559.581,-222.168,-980.957,-398.926,-233.398,-3.906
1571286559.585,-94.727,-947.266,-283.691,-157.715,-12.695
1571286559.589,-80.078,-522.949,95.215,-93.750,76.660
1571286559.593,-163.086,-364.746,102.539,-129.395,89.355
1571286559.596,-161.133,-670.410,-184.082,-132.812,63.965
1571286559.600,-52.246,-256.836,85.938,-72.266,39.551
1571286559.604,-9.277,557.617,628.906,-28.320,50.293
1571286559.608,-93.750,848.633,712.891,-79.102,25.879
1571286559.612,-127.441,903.809,613.770,-116.211,-17.090
1571286559.616,-34.668,-994.141,721.680,-69.336,-47.852
1571286559.620,27.832,997.559,909.668,-25.879,-42.969
1571286559.624,-73.730,999.023,-993.164,-67.871,25.879
1571286559.628,-151.855,999.512,994.141,-134.277,18.555
1571286559.632,-91.309,999.512,998.535,-102.051,12.695
1571286559.636,21.973,999.512,999.512,-9.766,12.207
1571286559.639,36.133,999.512,999.512,18.555,-53.223
1571286559.643,-18.066,999.512,999.512,-5.859,-61.523
1571286559.647,-53.223,999.512,999.512,-60.059,-40.039
1571286559.651,-34.668,999.512,999.512,-65.430,-4.883
1571286559.655,-50.293,999.512,999.512,-92.285,9.766
1571286559.659,-157.715,999.512,999.512,-150.879,-35.645
1571286559.663,-205.566,999.512,999.512,-187.500,-82.031
1571286559.667,-97.168,999.512,999.512,-139.648,-30.273
1571286559.671,-57.617,999.512,999.512,-80.566,13.184
1571286559.675,-182.617,999.512,999.512,-177.734,10.254
1571286559.679,-229.980,999.512,999.512,-236.328,10.254
1571286559.682,-152.832,999.512,999.512,-166.016,-13.672
1571286559.686,-54.688,999.512,999.512,-84.473,-15.137
1571286559.690,-114.258,999.512,999.512,-145.996,39.062
1571286559.694,-197.754,999.512,999.512,-203.613,20.508
1571286559.698,-90.332,999.512,999.512,-118.652,-33.691
1571286559.702,53.223,999.512,999.512,-15.625,3.418
1571286559.706,52.734,999.512,999.512,23.438,-17.578
1571286559.710,-23.438,999.512,999.512,6.348,1.953
1571286559.714,-22.949,999.512,999.512,-4.883,6.348
1571286559.718,84.961,999.512,999.512,75.195,14.160
1571286559.721,119.629,999.512,999.512,107.422,2.441
1571286559.725,30.273,999.512,999.512,27.832,-15.137
1571286559.729,-19.531,999.512,999.512,9.766,38.086
1571286559.733,47.363,999.512,999.512,40.039,-11.230
1571286559.737,81.543,999.512,999.512,39.551,-26.855
1571286559.741,-54.688,999.512,999.512,-43.457,-36.621
1571286559.745,-170.410,999.512,999.512,-149.902,10.742
1571286559.749,-127.930,999.512,999.512,-167.480,0.488
1571286559.753,-60.059,999.512,999.512,-120.605,-72.266
1571286559.757,-127.930,999.512,999.512,-128.418,0.000
1571286559.761,-207.031,-997.559,999.512,-193.359,20.508
1571286559.764,-158.691,984.375,999.512,-188.477,-62.500
1571286559.768,-59.570,-987.793,999.512,-107.910,-12.695
1571286559.772,-62.012,951.172,999.512,-67.871,30.273
1571286559.776,-149.414,509.277,999.512,-113.770,-34.668
1571286559.780,-156.738,287.598,999.512,-145.996,-28.809
1571286559.784,-55.176,320.312,-1000.000,-82.031,15.137
1571286559.788,-24.414,73.730,997.070,-67.871,45.410
1571286559.792,-133.301,-282.227,995.117,-154.297,20.020
1571286559.796,-191.406,-647.461,999.023,-199.219,-23.926
1571286559.800,-133.789,-943.848,849.121,-139.648,-30.273
1571286559.804,-55.664,-969.238,586.914,-98.145,3.906
1571286559.807,-116.699,-962.891,301.758,-152.344,16.602
1571286559.811,-204.590,-971.680,-225.586,-204.590,-42.969
1571286559.815,-166.992,-970.215,-649.902,-197.754,-51.270
1571286559.819,-107.910,-970.215,-879.883,-158.203,-29.297
1571286559.823,-150.879,-970.215,-977.539,-175.293,-27.344
1571286559.827,-222.656,-970.215,-963.379,-237.305,-21.484
1571286559.831,-204.102,-970.215,-970.703,-238.770,-37.109
1571286559.835,-114.258,-970.215,-970.215,-180.176,-72.754
1571286559.839,-107.910,-970.215,-970.215,-146.484,-42.480
1571286559.843,-199.219,-970.215,-970.215,-186.035,-9.277
1571286559.846,-188.477,-970.215,-970.215,-215.820,-22.461
1571286559.850,-81.055,-970.215,-970.215,-152.832,-28.320
1571286559.854,-46.387,-970.215,-970.215,-102.051,-54.688
1571286559.858,-107.910,-970.215,-970.215,-122.559,-29.785
1571286559.862,-140.137,-970.215,-970.215,-143.555,-12.695
1571286559.866,-71.289,-970.215,-970.215,-103.027,10.742
1571286559.870,2.441,-970.215,-970.215,-41.504,5.859
1571286559.874,-39.551,-970.215,-970.215,-83.496,-20.996
1571286559.878,-113.770,-970.215,-970.215,-138.184,-22.949
1571286559.882,-76.172,-970.215,-970.215,-99.609,29.785
1571286559.886,5.371,-970.215,-970.215,-58.594,61.523
1571286559.889,-13.184,-970.215,-970.215,-71.777,7.324
1571286559.893,-92.773,-970.215,-970.215,-100.586,36.621
1571286559.897,-86.426,-970.215,-970.215,-98.145,27.344
1571286559.901,14.648,-970.215,-970.215,-59.570,-28.809
1571286559.905,23.926,-970.215,-970.215,-40.039,7.812
1571286559.909,-82.520,-970.215,-970.215,-71.777,26.855
1571286559.913,-112.793,-970.215,-970.215,-112.305,21.973
1571286559.917,-10.254,-970.215,-970.215,-65.430,31.738
1571286559.921,34.180,-970.215,-970.215,-6.348,30.273
1571286559.925,-89.844,-970.215,-970.215,-93.262,34.668
1571286559.929,-153.320,-970.215,-970.215,-181.152,9.277
1571286559.932,-71.777,-970.215,-970.215,-124.512,4.883
1571286559.936,-4.883,-970.215,-970.215,-53.223,33.691
1571286559.940,-72.266,-970.215,-970.215,-101.074,43.945
1571286559.944,-142.578,-970.215,-970.215,-144.043,10.742
1571286559.948,-100.098,-970.215,-970.215,-111.816,-35.645
1571286559.952,21.484,-970.215,-970.215,-28.320,-20.020
1571286559.956,27.832,-970.215,-970.215,-1.953,48.828
1571286559.960,-73.242,-970.215,-970.215,-71.777,16.602
1571286559.964,-82.520,-970.215,-970.215,-80.078,-42.480
1571286559.968,30.762,-970.215,-970.215,-12.695,-42.480
1571286559.971,59.082,-970.215,-970.215,14.160,11.719
1571286559.975,-41.016,-970.215,-970.215,-41.016,2.441
1571286559.979,-81.543,-970.215,-970.215,-93.262,-55.176
1571286559.983,4.883,-970.215,-970.215,-29.785,31.738
1571286559.987,59.082,-970.215,-970.215,33.203,77.148
1571286559.991,-47.363,-970.215,-970.215,-60.547,40.527
1571286559.995,-108.398,-970.215,-970.215,-115.723,20.996
1571286559.999,10.742,-970.215,-970.215,-60.059,-32.227
1571286560.003,119.141,-970.215,-970.215,40.527,-18.555
1571286560.007,66.895,-970.215,-970.215,48.828,-13.184
1571286560.011,-31.738,-970.215,-970.215,-27.832,-49.805
1571286560.014,-14.160,-970.215,-970.215,-45.898,3.418
1571286560.018,113.281,-970.215,-970.215,31.738,3.418
1571286560.022,100.098,-970.215,-970.215,64.941,7.324
1571286560.026,-21.973,-970.215,-970.215,-8.789,34.180
1571286560.030,-13.672,-970.215,-970.215,-33.691,0.000
1571286560.034,56.152,-970.215,-970.215,10.742,13.672
1571286560.038,52.246,-970.215,-970.215,29.297,14.648
1571286560.042,-38.574,-970.215,-970.215,-20.020,5.859
1571286560.046,-90.820,-970.215,-970.215,-74.219,20.996
1571286560.050,-4.883,-970.215,-970.215,-44.922,15.625
1571286560.054,75.195,-970.215,-970.215,30.273,4.395
1571286560.057,20.508,-970.215,-970.215,30.273,-5.371
1571286560.061,-42.969,-970.215,-970.215,-32.227,-50.781
1571286560.065,7.324,-970.215,-970.215,-29.297,-68.359
1571286560.069,127.441,-970.215,-970.215,62.988,13.184
1571286560.073,98.633,-970.215,-970.215,72.266,9.766
1571286560.077,4.883,-970.215,-970.215,20.996,-9.766
1571286560.081,47.363,-970.215,-970.215,11.719,-22.461
1571286560.085,143.555,-970.215,-970.215,73.730,-57.129
1571286560.089,110.840,-970.215,-970.215,74.707,-24.902
1571286560.093,2.441,-970.215,-970.215,17.090,-31.738
1571286560.096,-2.930,-970.215,-970.215,9.766,-43.457
1571286560.100,91.309,-970.215,-970.215,40.527,4.395
1571286560.104,135.742,-970.215,-970.215,84.473,13.672
1571286560.108,59.082,-970.215,-969.727,45.410,69.824
1571286560.112,-3.418,-969.727,-970.215,-8.301,59.570
1571286560.116,45.898,-970.215,-970.215,26.855,42.480
1571286560.120,105.957,-970.215,-970.215,82.031,18.555
1571286560.124,74.219,-969.727,-970.215,69.824,12.695
1571286560.128,2.930,-970.215,-970.215,11.719,51.758
1571286560.132,12.695,-970.215,-970.215,-27.344,6.348
1571286560.136,90.820,-969.727,-970.215,25.391,32.715
1571286560.139,54.199,-969.727,-970.215,48.340,81.055
1571286560.143,-37.598,-970.215,-970.215,1.465,85.449
1571286560.147,-8.789,-970.215,-970.215,-19.043,47.363
1571286560.151,75.684,-970.215,-970.215,29.297,15.137
1571286560.155,74.219,-970.215,-970.215,33.691,5.859
1571286560.159,2.441,-970.215,-970.215,-9.766,-10.254
1571286560.163,-8.789,-970.215,-970.215,-16.602,4.395
1571286560.167,69.336,-970.215,-970.215,14.160,25.879
1571286560.171,84.961,-970.215,-970.215,51.758,37.109
1571286560.175,-34.668,-970.215,-970.215,-24.902,13.672
1571286560.179,-117.676,-970.215,-970.215,-126.465,-23.438
1571286560.182,-83.496,-970.215,-970.215,-158.203,-28.320
1571286560.186,-33.203,-970.215,-970.215,-127.441,0.488
1571286560.190,-92.285,-970.215,-970.215,-142.090,-27.344
1571286560.194,-190.918,-970.215,-970.215,-214.844,-19.043
1571286560.198,-199.707,-970.215,-970.215,-237.793,9.766
1571286560.202,-105.469,-970.215,-970.215,-191.895,-1.953
1571286560.206,-121.094,-970.215,-970.215,-187.500,-20.508
1571286560.210,-270.020,-970.215,-970.215,-265.137,10.742
1571286560.214,-278.320,-970.215,-970.215,-296.387,-29.297
1571286560.218,-145.020,-970.215,-970.215,-194.336,-18.555
1571286560.221,-105.469,-970.215,-970.215,-137.695,26.855
1571286560.225,-189.941,-970.215,-970.215,-207.031,-62.500
1571286560.229,-195.801,-970.215,-970.215,-229.492,-18.555
1571286560.233,-99.609,-970.215,-970.215,-156.250,51.758
1571286560.237,-53.223,-970.215,-970.215,-125.977,54.199
1571286560.241,-138.672,-970.215,-970.215,-185.547,54.688
1571286560.245,-187.988,-970.215,-970.215,-228.516,53.711
1571286560.249,-89.355,-970.215,-970.215,-175.293,-4.883
1571286560.253,16.602,-970.215,-970.215,-65.430,-2.930
1571286560.257,-37.109,-970.215,-970.215,-88.867,45.410
1571286560.261,-117.188,-970.215,-969.727,-141.602,41.992
1571286560.264,-94.238,-970.215,-970.215,-140.137,15.625
1571286560.268,-33.203,-970.215,-970.215,-108.398,4.883
1571286560.272,-48.340,-970.215,-970.215,-126.465,-20.996
1571286560.276,-127.930,-970.215,-970.215,-186.035,-30.273
1571286560.280,-116.211,-970.215,-970.215,-183.105,26.855
1571286560.284,-22.949,-970.215,-970.215,-121.582,0.488
1571286560.288,15.625,-970.215,-970.215,-59.570,14.160
1571286560.292,-59.082,-970.215,-970.215,-101.074,20.996
1571286560.296,-133.789,-970.215,-970.215,-166.504,-7.324
1571286560.300,-86.914,-970.215,-970.215,-151.855,10.742
1571286560.304,-4.395,-970.215,-970.215,-61.035,-12.695
1571286560.307,-31.738,-970.215,-970.215,-60.547,7.324
1571286560.311,-82.520,-970.215,-970.215,-137.207,19.531
1571286560.315,-51.758,-970.215,-970.215,-153.320,14.160
1571286560.319,19.043,-970.215,-970.215,-79.590,-1.465
1571286560.323,-48.340,-970.215,-970.215,-114.746,-28.809
1571286560.327,-166.016,-970.215,-970.215,-208.984,-13.672
1571286560.331,-99.609,-970.215,-970.215,-133.301,-16.113
1571286560.335,3.418,-970.215,-970.215,-63.477,-10.254
1571286560.339,-22.949,-970.215,-970.215,-73.730,-15.625
1571286560.343,-93.750,-970.215,-970.215,-124.023,-37.598
1571286560.346,-124.512,-970.215,-970.215,-194.824,-2.441
1571286560.350,-88.379,-970.215,-970.215,-183.594,69.824
1571286560.354,-135.742,-970.215,-970.215,-227.539,70.801
1571286560.358,-335.449,-970.215,-970.215,-409.180,36.133
1571286560.362,-446.289,-970.215,-970.215,-515.625,-21.484
1571286560.366,-446.777,-970.215,-970.215,-516.602,-70.801
1571286560.370,-443.359,-970.215,-970.215,-509.277,20.996
1571286560.374,-496.094,-970.215,-970.215,-540.039,46.875
1571286560.378,-496.582,-970.215,-970.215,-534.668,19.043
1571286560.382,-435.059,-970.215,-970.215,-512.207,-12.207
1571286560.386,-368.164,-970.215,-970.215,-449.219,17.578
1571286560.389,-386.230,-970.215,-970.215,-444.336,34.668
1571286560.393,-469.238,-970.215,-970.215,-494.629,14.648
1571286560.397,-457.520,-970.215,-970.215,-496.094,20.020
1571286560.401,-360.840,-970.215,-970.215,-413.574,-0.977
1571286560.405,-384.277,-970.215,-970.215,-437.500,3.418
1571286560.409,-504.395,-970.215,-970.215,-557.617,29.785
1571286560.413,-499.023,-970.215,-967.285,-563.477,-10.254
1571286560.417,-374.512,-970.215,-978.027,-442.871,-51.758
1571286560.421,-282.715,-970.215,-935.547,-327.637,20.508
1571286560.425,-328.125,-970.215,-907.715,-362.305,29.297
1571286560.429,-364.258,-970.215,-952.637,-380.371,1.465
1571286560.432,-260.742,-970.215,-984.863,-309.570,-35.156
1571286560.436,-169.434,-970.215,-915.527,-229.980,-39.062
1571286560.440,-225.586,-970.215,-592.285,-249.512,12.695
1571286560.444,-308.105,-970.215,-393.555,-316.406,57.129
1571286560.448,-280.273,-970.215,-549.316,-289.551,72.266
1571286560.452,-136.719,-970.215,-473.633,-171.875,34.180
1571286560.456,-117.676,-970.215,-162.109,-138.672,23.926
1571286560.460,-220.215,-970.215,-178.223,-194.824,6.348
1571286560.464,-208.008,-970.215,-374.023,-203.613,34.180
1571286560.468,-96.680,-970.215,-367.676,-118.652,44.922
1571286560.471,-56.641,-970.215,-206.543,-57.617,-14.648
1571286560.475,-127.441,-970.215,-263.672,-114.746,26.855
1571286560.479,-135.742,-970.215,-681.641,-137.207,95.215
1571286560.483,-51.270,-970.215,-794.922,-92.773,61.035
1571286560.487,-0.488,-970.215,-465.820,-31.250,45.410
1571286560.491,-73.730,-970.215,-482.910,-55.664,75.195
1571286560.495,-136.719,-970.215,-713.867,-146.484,47.363
1571286560.499,-80.078,-970.215,-803.711,-130.371,13.184
1571286560.503,15.137,-970.215,-658.203,-35.156,12.695
1571286560.507,-11.230,-970.215,-665.527,-44.434,-7.324
1571286560.511,-106.934,-970.215,-871.094,-89.844,-38.086
1571286560.514,-65.918,-970.215,-922.852,-73.730,-31.250
1571286560.518,35.645,-970.215,-833.008,-1.465,-26.367
1571286560.522,4.883,-970.215,-868.164,-0.488,-47.852
1571286560.526,-96.680,-970.215,-973.633,-69.824,-6.836
1571286560.530,-118.652,-970.215,-924.805,-87.402,-17.090
1571286560.534,-25.391,-970.215,-747.070,-19.531,-24.414
1571286560.538,31.250,-970.215,-589.844,41.992,17.090
1571286560.542,-48.828,-970.215,-547.363,-18.555,-2.930
1571286560.546,-103.516,-970.215,-559.082,-77.148,16.113
1571286560.550,-36.621,-970.215,-486.328,-34.180,50.781
1571286560.554,0.488,-970.215,-345.703,3.906,-1.465
1571286560.557,-104.004,-970.215,-253.418,-93.750,-20.508
1571286560.561,-196.777,-970.215,-250.977,-166.992,7.324
1571286560.565,-154.785,-970.215,-303.223,-148.926,35.156
1571286560.569,-49.316,-970.215,-365.234,-79.102,13.672
1571286560.573,-81.543,-970.215,-361.816,-76.172,12.695
1571286560.577,-145.996,-969.727,-320.801,-121.094,6.836
1571286560.581,-109.375,-969.238,-412.598,-132.812,-27.832
1571286560.585,-48.828,-973.145,-601.074,-91.797,-20.508
1571286560.589,-47.363,-951.660,-320.801,-86.426,43.945
1571286560.593,-142.090,-943.359,-61.523,-164.062,23.438
1571286560.596,-170.410,-950.195,-152.344,-192.871,7.324
1571286560.600,-67.871,-889.160,-116.699,-115.723,47.852
1571286560.604,-48.340,-454.102,211.426,-59.570,19.531
1571286560.608,-139.648,232.910,662.109,-125.488,3.906
1571286560.612,-195.801,479.004,790.527,-173.828,-4.395
1571286560.616,-125.488,601.074,872.070,-131.836,-9.277
1571286560.620,-57.129,936.035,-994.141,-80.566,-38.574
1571286560.624,-172.363,-988.770,998.047,-145.996,-25.879
1571286560.628,-274.414,988.770,997.070,-234.375,1.953
1571286560.632,-217.773,-999.023,-1000.000,-223.633,4.883
1571286560.636,-129.395,999.512,999.512,-173.340,42.969
1571286560.639,-178.223,999.512,999.512,-207.031,45.410
1571286560.643,-290.039,999.512,999.512,-283.691,30.273
1571286560.647,-270.020,999.512,999.512,-285.645,12.695
1571286560.651,-194.336,999.512,999.512,-230.469,-4.395
1571286560.655,-192.871,999.512,999.512,-200.195,14.160
1571286560.659,-235.840,999.512,999.512,-242.188,4.883
1571286560.663,-233.398,999.512,999.512,-264.648,19.531
1571286560.667,-125.977,999.512,999.512,-173.828,19.043
1571286560.671,-35.645,999.512,999.512,-68.848,21.973
1571286560.675,-68.359,999.512,999.512,-72.754,25.879
1571286560.679,-79.590,999.512,999.512,-84.961,-22.949
1571286560.682,-4.883,999.512,999.512,-27.832,-14.648
1571286560.686,99.609,999.512,999.512,61.523,5.371
1571286560.690,73.242,999.512,999.512,56.641,-35.156
1571286560.694,-21.973,999.512,999.512,-4.395,-31.738
1571286560.698,-2.930,999.512,999.512,11.230,-6.348
1571286560.702,102.539,999.512,999.512,87.402,10.254
1571286560.706,104.004,999.512,999.512,83.008,-9.766
1571286560.710,10.742,999.512,999.512,33.691,17.578
1571286560.714,5.859,999.512,999.512,30.273,20.508
1571286560.718,137.695,999.512,999.512,110.840,29.297
1571286560.721,198.730,999.512,999.512,175.781,6.836
1571286560.725,117.676,999.512,999.512,124.512,-30.273
1571286560.729,84.473,999.512,999.512,105.957,60.547
1571286560.733,191.406,999.512,999.512,172.852,53.711
1571286560.737,276.855,999.023,999.512,232.910,-16.113
1571286560.741,207.520,999.023,999.512,212.402,10.742
1571286560.745,143.066,998.047,999.512,178.711,40.527
1571286560.749,201.660,970.703,999.512,191.406,8.789
1571286560.753,280.273,935.059,-999.512,245.117,-45.410
1571286560.757,231.934,622.559,988.770,221.191,-15.625
1571286560.761,142.090,157.715,-969.238,145.996,44.434
1571286560.764,162.109,-550.781,868.652,130.859,32.227
1571286560.768,242.188,-934.082,807.129,145.508,48.828
1571286560.772,219.727,-864.746,966.309,148.438,102.051
1571286560.776,133.301,-973.633,642.090,118.652,66.406
1571286560.780,130.371,-971.191,168.457,110.840,49.805
1571286560.784,228.516,-968.262,-78.125,168.945,6.348
1571286560.788,271.484,-970.215,-131.348,204.590,-15.137
1571286560.792,200.684,-970.215,-397.461,184.082,29.297
1571286560.796,170.898,-970.215,-865.234,145.020,-11.719
1571286560.800,235.352,-970.215,-973.633,179.199,-51.270
1571286560.804,297.363,-970.215,-958.984,252.441,-7.812
1571286560.807,218.262,-970.215,-970.703,191.895,-20.020
1571286560.811,110.352,-970.215,-970.703,94.727,-44.434
1571286560.815,98.633,-970.215,-970.215,58.594,27.832
1571286560.819,150.391,-970.215,-970.215,100.098,28.320
1571286560.823,152.344,-970.215,-970.215,128.906,6.348
1571286560.827,115.234,-970.215,-970.215,104.492,-9.277
1571286560.831,148.926,-970.215,-970.215,102.539,-65.918
1571286560.835,246.582,-970.215,-970.215,174.805,-80.078
1571286560.839,253.906,-970.215,-970.215,201.660,-26.855
1571286560.843,137.695,-970.215,-970.215,92.773,14.648
1571286560.846,106.934,-970.215,-970.215,45.898,-23.926
1571286560.850,183.105,-970.215,-970.215,89.844,0.000
1571286560.854,215.332,-970.215,-970.215,101.562,20.508
1571286560.858,154.785,-970.215,-970.215,25.391,-31.738
1571286560.862,125.000,-970.215,-970.215,-13.184,-52.734
1571286560.866,168.457,-970.215,-970.215,23.438,-11.230
1571286560.870,196.777,-970.215,-970.215,36.133,29.785
1571286560.874,119.141,-970.215,-970.215,-15.137,20.996
1571286560.878,51.758,-970.215,-970.215,-58.594,-24.414
1571286560.882,95.703,-970.215,-970.215,-28.809,-20.996
1571286560.886,186.035,-970.215,-970.215,48.828,-9.766
1571286560.889,150.879,-970.215,-970.215,72.266,-0.977
1571286560.893,41.016,-970.215,-969.727,10.254,-9.277
1571286560.897,41.992,-970.215,-970.215,-8.301,29.297
1571286560.901,140.137,-970.215,-970.215,66.406,5.859
1571286560.905,178.711,-970.215,-970.215,113.281,-84.961
1571286560.909,90.820,-970.215,-970.215,82.031,-34.180
1571286560.913,63.477,-970.215,-970.215,48.828,12.695
1571286560.917,147.949,-970.215,-970.215,53.223,7.324
1571286560.921,188.477,-970.215,-970.215,79.590,23.438
1571286560.925,102.051,-970.215,-970.215,17.090,4.395
1571286560.929,15.137,-970.215,-970.215,-67.383,-27.832
1571286560.932,70.801,-970.215,-970.215,-58.105,-19.043
1571286560.936,165.527,-970.215,-970.215,-2.930,-5.859
1571286560.940,83.008,-970.215,-970.215,-46.387,-1.953
1571286560.944,-19.043,-970.215,-970.215,-95.215,-66.895
1571286560.948,31.738,-970.215,-970.215,-39.551,-58.105
1571286560.952,107.910,-970.215,-970.215,47.852,-1.953
1571286560.956,76.660,-970.215,-970.215,30.273,-8.301
1571286560.960,5.859,-970.215,-970.215,-28.809,51.270
1571286560.964,26.855,-970.215,-970.215,-15.625,57.129
1571286560.968,112.305,-970.215,-970.215,54.688,-46.387
1571286560.971,131.836,-970.215,-970.215,86.426,-55.176
1571286560.975,9.766,-970.215,-970.215,-0.488,39.551
1571286560.979,-77.637,-970.215,-970.215,-64.453,47.852
1571286560.983,40.527,-970.215,-970.215,11.719,-29.297
1571286560.987,177.246,-970.215,-970.215,125.488,-20.020
1571286560.991,95.215,-970.215,-970.215,88.379,-19.531
1571286560.995,2.441,-970.215,-970.215,-2.930,-28.320
1571286560.999,48.340,-970.215,-970.215,12.695,2.930
1571286561.003,139.160,-970.215,-970.215,105.469,6.836
1571286561.007,99.121,-970.215,-970.215,85.449,10.742
1571286561.011,-7.812,-970.215,-970.215,-7.324,46.387
1571286561.014,11.230,-970.215,-970.215,-25.879,38.086
1571286561.018,90.332,-970.215,-970.215,46.387,31.250
1571286561.022,75.195,-970.215,-970.215,59.082,5.371
1571286561.026,-20.020,-969.727,-970.215,-11.719,-76.660
1571286561.030,-53.223,-970.215,-970.215,-39.551,-28.320
1571286561.034,14.160,-970.215,-970.215,3.418,0.000
1571286561.038,27.344,-970.215,-970.215,29.297,-40.527
1571286561.042,-66.406,-970.215,-970.215,-25.391,-24.414
1571286561.046,-85.938,-970.215,-970.215,-63.965,43.457
1571286561.050,17.578,-970.215,-970.215,-27.832,49.316
1571286561.054,83.008,-970.215,-970.215,37.598,-27.832
1571286561.057,23.438,-970.215,-969.727,17.090,34.180
1571286561.061,-5.859,-970.215,-970.215,17.578,61.523
1571286561.065,62.988,-970.215,-970.215,64.453,-43.457
1571286561.069,139.648,-970.215,-970.215,104.004,-6.836
1571286561.073,104.980,-970.215,-970.215,96.680,23.926
1571286561.077,15.137,-970.215,-970.215,59.082,5.371
1571286561.081,41.504,-970.215,-970.215,51.758,17.090
1571286561.085,124.023,-970.215,-970.215,95.215,-54.199
1571286561.089,123.047,-970.215,-970.215,89.844,-46.875
1571286561.093,68.359,-970.215,-970.215,22.949,-37.109
1571286561.096,46.387,-970.215,-969.727,12.695,-18.066
1571286561.100,120.605,-970.215,-970.215,85.938,35.156
1571286561.104,172.852,-970.215,-970.215,136.719,10.742
1571286561.108,98.633,-970.215,-970.215,83.984,11.230
1571286561.112,24.902,-970.215,-970.215,31.250,-4.395
1571286561.116,35.156,-970.215,-970.215,-1.953,-17.578
1571286561.120,56.641,-970.215,-970.215,8.789,-17.090
1571286561.124,-0.488,-970.215,-970.215,-14.648,39.551
1571286561.128,-51.270,-970.215,-970.215,-69.336,70.801
1571286561.132,-73.730,-970.215,-970.215,-94.238,-43.945
1571286561.136,-44.434,-970.215,-970.215,-40.527,11.230
1571286561.139,-55.176,-970.215,-970.215,-46.387,101.074
1571286561.143,-156.738,-970.215,-970.215,-154.297,56.641
1571286561.147,-149.902,-970.215,-970.215,-172.852,0.977
1571286561.151,-29.785,-970.215,-970.215,-66.406,33.691
1571286561.155,3.906,-970.215,-970.215,-14.648,84.473
1571286561.159,-77.148,-970.215,-970.215,-68.359,20.508
1571286561.163,-119.629,-970.215,-970.215,-120.117,-27.832
1571286561.167,-51.270,-970.215,-970.215,-72.266,-15.137
1571286561.171,21.484,-970.215,-970.215,13.184,7.812
1571286561.175,-14.648,-970.215,-970.215,-4.883,3.906
1571286561.179,-25.391,-970.215,-970.215,-13.184,40.039
1571286561.182,58.105,-970.215,-970.215,25.879,73.242
1571286561.186,118.652,-970.215,-970.215,59.082,36.133
1571286561.190,44.922,-970.215,-970.215,18.066,17.578
1571286561.194,-69.824,-970.215,-970.215,-86.914,-26.367
1571286561.198,-119.141,-970.215,-970.215,-156.738,-50.781
1571286561.202,-125.488,-970.215,-970.215,-155.762,-17.578
1571286561.206,-161.621,-970.215,-970.215,-189.941,16.602
1571286561.210,-235.352,-970.215,-970.215,-285.156,-11.719
1571286561.214,-265.137,-970.215,-970.215,-319.824,-32.715
1571286561.218,-193.848,-970.215,-970.215,-267.090,-10.742
1571286561.221,-200.195,-970.215,-970.215,-261.230,35.156
1571286561.225,-337.891,-970.215,-970.215,-364.746,46.387
1571286561.229,-404.297,-970.215,-970.215,-430.664,12.207
1571286561.233,-357.910,-970.215,-970.215,-409.668,25.879
1571286561.237,-312.988,-970.215,-970.215,-391.602,-6.836
1571286561.241,-376.465,-970.215,-970.215,-404.297,-11.230
1571286561.245,-451.660,-970.215,-970.215,-444.336,18.555
1571286561.249,-448.730,-970.215,-970.215,-486.328,-30.762
1571286561.253,-416.992,-970.215,-970.215,-470.703,-55.176
1571286561.257,-460.449,-970.215,-970.215,-486.816,-42.480
1571286561.261,-514.160,-970.215,-970.215,-545.898,-56.152
1571286561.264,-484.863,-970.215,-970.215,-575.195,-19.043
1571286561.268,-415.527,-970.215,-970.215,-507.324,35.645
1571286561.272,-416.016,-970.215,-970.215,-491.699,0.000
1571286561.276,-484.863,-970.215,-970.215,-542.480,8.301
1571286561.280,-490.723,-970.215,-970.215,-534.180,26.855
1571286561.284,-385.742,-970.215,-970.215,-424.316,-4.395
1571286561.288,-348.633,-970.215,-970.215,-377.441,-41.992
1571286561.292,-436.523,-970.215,-970.215,-479.004,-67.383
1571286561.296,-458.008,-970.215,-970.215,-516.602,-20.996
1571286561.300,-404.785,-970.215,-970.215,-493.164,-5.371
1571286561.304,-361.816,-970.215,-970.215,-445.801,19.531
1571286561.307,-420.898,-970.215,-970.215,-468.262,50.781
1571286561.311,-485.840,-970.215,-970.215,-516.602,36.133
1571286561.315,-446.289,-970.215,-970.215,-468.262,-29.297
1571286561.319,-365.234,-970.215,-970.215,-392.578,-62.988
1571286561.323,-389.160,-970.215,-970.215,-419.922,-9.766
1571286561.327,-475.098,-970.215,-970.215,-482.910,-30.762
1571286561.331,-463.867,-970.215,-962.402,-480.469,-24.414
1571286561.335,-349.609,-970.215,-983.887,-387.695,-1.465
1571286561.339,-350.586,-970.215,-877.930,-357.910,15.137
1571286561.343,-469.727,-970.703,-670.410,-448.730,4.395
1571286561.346,-498.535,-957.520,-673.340,-492.188,-0.977
1571286561.350,-410.156,-985.840,-670.898,-459.961,8.301
1571286561.354,-382.324,-833.984,-276.855,-413.574,23.438
1571286561.358,-475.098,-399.414,73.730,-461.914,15.137
1571286561.362,-491.699,-153.809,121.094,-480.469,-15.625
1571286561.366,-409.180,147.949,303.711,-401.367,28.320
1571286561.370,-354.980,778.320,801.758,-355.469,30.762
1571286561.374,-405.273,-978.027,-980.957,-391.602,-37.598
1571286561.378,-421.387,980.957,984.863,-398.438,-13.184
1571286561.382,-355.469,998.535,998.047,-338.379,31.738
1571286561.386,-277.344,-1000.000,-1000.000,-283.203,-9.766
1571286561.389,-277.832,999.512,999.512,-293.945,-11.719
1571286561.393,-363.770,999.512,999.512,-321.289,11.719
1571286561.397,-328.125,999.512,999.512,-294.434,-16.113
1571286561.401,-199.707,999.512,999.512,-171.387,-29.297
1571286561.405,-202.637,999.512,999.512,-164.551,13.184
1571286561.409,-357.422,999.512,999.512,-323.242,-13.184
1571286561.413,-432.129,999.512,999.512,-388.184,-28.809
1571286561.417,-327.148,999.512,999.512,-311.523,-51.270
1571286561.421,-263.672,999.512,999.512,-232.422,-30.762
1571286561.425,-327.637,999.512,999.512,-249.512,14.648
1571286561.429,-374.512,999.512,999.512,-302.246,9.766
1571286561.432,-299.316,999.512,999.512,-228.516,15.137
1571286561.436,-165.039,999.512,999.512,-107.422,-17.090
1571286561.440,-228.516,999.512,999.512,-176.270,-7.812
1571286561.444,-317.871,999.512,999.512,-242.676,27.832
1571286561.448,-276.367,999.512,999.512,-213.379,6.348
1571286561.452,-169.434,999.512,999.512,-133.789,14.648
1571286561.456,-140.625,999.512,999.512,-68.848,24.902
1571286561.460,-192.871,999.512,999.512,-61.035,11.230
1571286561.464,-160.156,999.512,999.512,-64.941,41.992
1571286561.468,-75.195,999.512,999.512,-20.020,39.062
1571286561.471,-76.172,999.023,999.512,-1.465,17.578
1571286561.475,-148.438,999.512,999.512,-52.246,-37.598
1571286561.479,-122.070,999.512,999.512,-38.086,-36.133
1571286561.483,-9.766,995.605,999.512,32.715,20.020
1571286561.487,9.277,988.770,999.512,77.148,54.688
1571286561.491,-74.707,-990.234,999.512,23.438,50.781
1571286561.495,-128.906,950.684,999.512,-58.105,-7.812
1571286561.499,-119.141,644.531,999.512,-60.059,-39.062
1571286561.503,-82.031,591.309,999.512,-33.691,-3.418
1571286561.507,-145.020,565.430,999.512,-99.609,14.160
1571286561.511,-233.887,263.184,999.512,-186.523,-13.184
1571286561.514,-228.027,-295.898,999.512,-192.871,-7.812
1571286561.518,-171.387,-365.234,999.512,-171.875,3.418
1571286561.522,-197.266,281.250,999.512,-192.871,15.625
1571286561.526,-307.617,394.043,999.512,-252.441,66.406
1571286561.530,-311.035,113.770,999.512,-295.898,65.918
1571286561.534,-229.492,151.855,999.512,-248.047,41.016
1571286561.538,-219.238,423.828,999.512,-216.309,37.598
1571286561.542,-286.621,340.820,999.512,-280.762,32.715
1571286561.546,-325.195,98.633,-997.559,-324.707,63.965
1571286561.550,-272.949,26.367,982.422,-284.180,37.109
1571286561.554,-221.191,-28.320,-982.422,-224.121,15.137
1571286561.557,-278.809,-222.656,925.293,-258.301,7.324
1571286561.561,-328.613,-788.574,459.961,-312.500,-17.578
1571286561.565,-281.738,-904.297,280.762,-282.227,-39.551
1571286561.569,-228.516,-369.141,582.031,-232.910,-40.527
1571286561.573,-263.672,-110.352,667.969,-251.465,2.441
1571286561.577,-349.121,-130.371,546.875,-306.641,45.898
1571286561.581,-354.980,-168.945,416.504,-375.488,42.969
1571286561.585,-290.527,-276.855,278.320,-336.426,-14.648
1571286561.589,-290.039,-350.098,226.074,-306.641,-16.602
1571286561.593,-350.586,-510.254,85.938,-360.840,-37.109
1571286561.596,-342.773,-639.648,-45.898,-335.938,-0.488
1571286561.600,-220.215,-838.379,-152.832,-248.535,92.285
1571286561.604,-139.160,-986.816,-478.027,-206.543,9.766
1571286561.608,-224.609,-932.617,-507.324,-239.258,6.836
1571286561.612,-262.207,-904.297,-250.488,-251.465,41.016
1571286561.616,-146.973,-966.797,-347.656,-183.105,-10.254
1571286561.620,-68.359,-961.914,-388.672,-118.164,21.973
1571286561.624,-133.301,-858.398,-223.633,-153.320,41.016
1571286561.628,-199.707,-899.414,-220.215,-187.012,0.977
1571286561.632,-163.086,-975.098,-425.781,-176.270,22.949
1571286561.636,-92.773,-982.422,-502.930,-136.230,-11.230
1571286561.639,-104.004,-880.859,-289.062,-137.207,-3.418
1571286561.643,-169.922,-830.566,-210.449,-166.504,49.805
1571286561.647,-157.227,-959.473,-580.566,-145.020,-10.742
1571286561.651,-51.758,-976.074,-970.703,-85.938,-81.055
1571286561.655,-25.391,-965.332,-639.648,-80.078,-50.781
1571286561.659,-94.727,-971.191,-270.508,-115.723,1.465
1571286561.663,-83.496,-970.215,-486.328,-104.004,19.043
1571286561.667,21.484,-970.215,-579.102,-24.902,21.484
1571286561.671,103.027,-970.215,-341.797,54.688,2.441
1571286561.675,75.684,-970.215,-317.871,34.668,-20.508
1571286561.679,1.465,-970.215,-550.293,-18.066,5.859
1571286561.682,15.625,-970.215,-686.035,-21.484,-13.672
1571286561.686,92.285,-970.215,-520.996,30.762,4.883
1571286561.690,48.828,-970.215,-446.777,31.738,10.254
1571286561.694,-35.156,-970.215,-734.375,-5.859,4.883
1571286561.698,5.371,-970.215,-995.117,-8.301,7.324
1571286561.702,112.305,-970.215,-844.238,39.062,0.977
1571286561.706,102.051,-970.215,-620.605,56.152,38.574
1571286561.710,0.488,-970.215,-835.449,-7.324,40.527
1571286561.714,-35.645,-970.215,-994.629,-71.777,66.895
1571286561.718,26.367,-970.215,-880.859,-44.434,56.152
1571286561.721,35.156,-970.215,-847.168,-24.902,12.207
1571286561.725,-87.891,-970.215,-947.754,-79.590,-8.789
1571286561.729,-139.648,-970.215,-978.516,-158.691,-19.531
1571286561.733,-62.500,-970.215,-964.844,-128.418,-47.852
1571286561.737,-9.277,-970.215,-971.191,-40.039,-5.859
1571286561.741,-77.148,-969.727,-970.215,-96.680,21.484
1571286561.745,-139.648,-970.215,-970.215,-151.367,-39.551
1571286561.749,-106.445,-970.215,-970.215,-146.484,-28.320
1571286561.753,-31.738,-969.727,-970.215,-108.398,-60.547
1571286561.757,-58.105,-970.215,-970.215,-112.793,-23.438
1571286561.761,-145.996,-970.215,-969.727,-160.645,39.062
1571286561.764,-125.977,-970.215,-969.727,-150.391,19.043
1571286561.768,-35.645,-970.215,-971.680,-100.586,13.672
1571286561.772,-19.043,-970.215,-958.496,-66.895,36.133
1571286561.776,-83.984,-970.215,-960.449,-81.543,55.176
1571286561.780,-105.957,-970.215,-972.656,-111.328,39.551
1571286561.784,-68.848,-970.215,-969.238,-110.840,13.672
1571286561.788,-79.590,-970.215,-970.215,-98.145,13.184
1571286561.792,-178.711,-970.215,-970.215,-184.570,-34.668
1571286561.796,-230.957,-970.215,-970.215,-269.531,-53.223
1571286561.800,-166.016,-970.215,-970.215,-265.625,-36.621
1571286561.804,-109.863,-970.215,-970.215,-213.867,-35.156
1571286561.807,-174.805,-970.215,-970.215,-232.910,-32.227
1571286561.811,-241.211,-970.215,-970.215,-282.715,-35.645
1571286561.815,-193.359,-970.215,-970.215,-251.465,-24.414
1571286561.819,-114.746,-970.215,-970.215,-186.035,-0.977
1571286561.823,-145.508,-970.215,-970.215,-182.129,12.207
1571286561.827,-216.797,-970.215,-970.215,-230.957,-9.766
1571286561.831,-192.871,-970.215,-970.215,-250.977,-42.480
1571286561.835,-105.957,-970.215,-970.215,-191.895,-49.316
1571286561.839,-112.305,-970.215,-970.215,-178.223,-57.129
1571286561.843,-206.543,-970.215,-970.215,-234.375,-29.785
1571286561.846,-238.770,-970.215,-970.215,-278.809,54.199
1571286561.850,-169.922,-970.215,-970.215,-242.188,72.754
1571286561.854,-136.230,-970.215,-970.215,-199.219,-3.418
1571286561.858,-224.609,-970.215,-970.215,-241.699,-13.184
1571286561.862,-267.090,-970.215,-970.215,-292.480,14.648
1571286561.866,-180.176,-970.215,-970.215,-250.488,-2.930
1571286561.870,-111.816,-970.215,-970.215,-146.973,-1.953
1571286561.874,-145.508,-970.215,-970.215,-140.625,-23.438
1571286561.878,-150.391,-970.215,-970.215,-165.527,6.836
1571286561.882,-70.312,-970.215,-970.215,-133.301,20.996
1571286561.886,-29.785,-970.215,-970.215,-114.746,11.230
1571286561.889,-75.684,-970.215,-970.215,-142.578,2.441
1571286561.893,-103.027,-970.215,-970.215,-137.207,18.555
1571286561.897,-56.641,-970.215,-970.215,-99.609,52.734
1571286561.901,41.992,-970.215,-970.215,-33.691,25.391
1571286561.905,76.660,-970.215,-970.215,25.879,14.648
1571286561.909,19.043,-970.215,-970.215,21.973,33.203
1571286561.913,31.250,-970.215,-970.215,32.715,-36.133
1571286561.917,147.949,-970.215,-970.215,81.055,-18.555
1571286561.921,203.613,-970.215,-970.215,135.254,40.527
1571286561.925,113.281,-970.215,-970.215,79.590,3.906
1571286561.929,29.297,-970.215,-970.215,2.930,8.301
1571286561.932,70.801,-970.215,-970.215,27.344,38.086
1571286561.936,122.070,-970.215,-970.215,64.941,28.320
1571286561.940,46.387,-970.215,-970.215,11.230,19.531
1571286561.944,-34.668,-970.215,-970.215,-29.785,-16.602
1571286561.948,-16.602,-970.215,-970.215,-27.344,-62.012
1571286561.952,8.301,-970.215,-970.215,-62.012,-24.902
1571286561.956,-66.895,-970.215,-970.215,-145.508,27.344
1571286561.960,-186.035,-970.215,-970.215,-228.516,43.457
1571286561.964,-216.797,-970.215,-970.215,-273.438,21.973
1571286561.968,-161.621,-970.215,-970.215,-245.605,-19.043
1571286561.971,-166.016,-970.215,-970.215,-222.168,51.270
1571286561.975,-259.766,-970.215,-970.215,-300.781,60.059
1571286561.979,-301.758,-970.215,-970.215,-355.469,-44.922
1571286561.983,-244.629,-970.215,-970.215,-299.316,-67.871
1571286561.987,-203.613,-970.215,-970.215,-273.438,-47.852
1571286561.991,-269.043,-970.215,-970.215,-348.633,26.855
1571286561.995,-349.121,-970.215,-970.215,-412.109,66.895
1571286561.999,-357.422,-970.215,-970.215,-413.086,-20.996
1571286562.003,-293.945,-970.215,-970.215,-343.262,21.484
1571286562.007,-316.895,-970.215,-970.215,-353.027,72.754
1571286562.011,-406.738,-970.215,-970.215,-435.059,21.973
1571286562.014,-414.062,-970.215,-970.215,-468.750,24.902
1571286562.018,-380.859,-970.215,-970.215,-438.477,-12.695
1571286562.022,-437.012,-970.215,-970.215,-490.234,19.043
1571286562.026,-530.762,-970.215,-970.215,-582.031,63.477
1571286562.030,-529.297,-970.215,-970.215,-587.402,0.488
1571286562.034,-452.148,-970.215,-970.215,-532.227,-46.875
1571286562.038,-419.922,-970.215,-970.215,-466.797,3.906
1571286562.042,-503.906,-970.215,-970.215,-514.160,0.488
1571286562.046,-547.363,-970.215,-970.215,-569.336,3.418
1571286562.050,-468.750,-970.215,-970.215,-525.391,39.551
1571286562.054,-428.223,-970.215,-970.215,-489.258,15.625
1571286562.057,-496.582,-970.215,-970.215,-547.363,-25.879
1571286562.061,-551.270,-970.215,-970.215,-593.750,11.230
1571286562.065,-509.766,-970.215,-970.215,-559.570,11.719
1571286562.069,-443.848,-970.215,-970.215,-517.090,42.480
1571286562.073,-483.398,-970.215,-970.215,-560.547,85.938
1571286562.077,-574.707,-970.215,-970.215,-610.840,-3.418
1571286562.081,-560.547,-970.215,-970.215,-595.703,-32.715
1571286562.085,-458.496,-970.215,-970.215,-522.461,-32.715
1571286562.089,-428.711,-970.215,-970.215,-487.793,-49.805
1571286562.093,-480.957,-970.215,-970.215,-535.645,-5.859
1571286562.096,-489.258,-970.215,-968.750,-546.875,14.160
1571286562.100,-428.223,-970.215,-970.215,-495.117,15.625
1571286562.104,-406.250,-970.215,-971.680,-458.496,-2.441
1571286562.108,-461.914,-970.215,-917.969,-484.863,7.324
1571286562.112,-474.609,-970.215,-917.480,-514.160,62.500
1571286562.116,-391.602,-970.215,-986.328,-458.496,27.344
1571286562.120,-311.523,-970.215,-940.918,-382.812,37.109
1571286562.124,-380.371,-970.215,-729.492,-432.617,58.105
1571286562.128,-492.188,-970.215,-804.199,-518.555,-1.465
1571286562.132,-440.430,-970.215,-999.512,-477.539,-20.508
1571286562.136,-337.402,-970.215,-942.383,-389.160,-10.742
1571286562.139,-377.441,-970.215,-850.098,-408.691,37.109
1571286562.143,-476.562,-970.215,-918.457,-488.281,3.906
1571286562.147,-468.750,-970.215,-988.770,-507.324,0.000
1571286562.151,-361.328,-970.215,-938.477,-434.082,89.844
1571286562.155,-353.516,-970.215,-833.984,-399.902,43.457
1571286562.159,-425.293,-970.215,-882.324,-446.777,16.602
1571286562.163,-443.359,-970.215,-975.098,-476.074,22.461
1571286562.167,-380.371,-970.215,-985.352,-422.852,-41.992
1571286562.171,-329.102,-970.215,-870.605,-344.727,0.977
1571286562.175,-379.883,-970.215,-862.793,-389.160,91.309
1571286562.179,-408.203,-970.215,-986.328,-405.273,38.574
1571286562.182,-331.055,-970.215,-959.473,-341.797,12.207
1571286562.186,-222.168,-970.215,-958.496,-281.738,48.828
1571286562.190,-243.652,-970.215,-967.773,-311.035,0.488
1571286562.194,-324.219,-970.215,-968.262,-351.074,-58.594
1571286562.198,-267.578,-970.215,-947.266,-304.199,-22.949
1571286562.202,-159.668,-970.215,-897.949,-224.121,28.809
1571286562.206,-145.996,-970.215,-769.531,-197.266,48.340
1571286562.210,-192.871,-970.215,-839.355,-212.402,4.883
1571286562.214,-172.363,-970.215,-979.980,-184.570,-34.668
1571286562.218,-54.688,-970.215,-944.824,-102.051,27.344
1571286562.221,-30.273,-970.215,-958.984,-55.176,27.344
1571286562.225,-99.121,-970.215,-819.336,-100.586,4.395
1571286562.229,-135.254,-970.215,-743.652,-179.199,14.648
1571286562.233,-94.727,-970.215,-918.457,-154.785,-14.160
1571286562.237,-2.930,-970.215,-727.539,-43.945,21.973
1571286562.241,-27.832,-970.215,-499.512,-41.992,40.527
1571286562.245,-124.023,-970.215,-673.340,-112.793,-39.551
1571286562.249,-117.676,-970.215,-711.426,-140.625,7.324
1571286562.253,-69.336,-970.215,-589.355,-123.047,49.316
1571286562.257,-154.297,-971.680,-571.289,-168.457,32.227
1571286562.261,-252.441,-960.449,-731.934,-265.137,38.086
1571286562.264,-241.211,-974.121,-950.684,-265.625,-20.996
1571286562.268,-200.195,-927.734,-771.973,-221.191,-2.441
1571286562.272,-214.844,-553.711,-169.434,-219.727,73.242
1571286562.276,-253.418,-348.633,20.996,-239.746,75.684
1571286562.280,-216.797,-708.984,-185.547,-196.289,27.344
1571286562.284,-142.578,-737.793,-56.152,-116.699,41.016
1571286562.288,-128.418,-374.512,337.891,-136.230,69.336
1571286562.292,-190.430,-446.777,316.406,-233.398,3.906
1571286562.296,-229.004,-803.711,61.035,-293.457,-34.668
1571286562.300,-152.832,-912.598,23.438,-191.895,11.719
1571286562.304,-43.945,-657.227,269.531,-46.387,78.125
1571286562.307,-73.730,-503.906,372.070,-90.332,78.125
1571286562.311,-131.836,-854.004,60.547,-157.715,31.738
1571286562.315,-125.977,-743.652,147.949,-157.227,11.719
1571286562.319,-94.238,-221.191,564.941,-114.746,11.719
1571286562.323,-122.559,-94.727,675.781,-148.438,29.785
1571286562.327,-199.707,-261.719,556.641,-238.770,39.062
1571286562.331,-159.668,-452.148,404.297,-218.262,-3.418
1571286562.335,-47.363,-569.824,338.379,-102.539,-1.465
1571286562.339,-58.105,-582.520,354.492,-64.941,38.086
1571286562.343,-155.762,-689.453,267.578,-153.809,42.969
1571286562.346,-168.457,-882.812,45.898,-213.867,9.766
1571286562.350,-122.070,-983.887,-184.570,-172.852,2.441
1571286562.354,-121.582,-961.426,-395.508,-158.203,5.371
1571286562.358,-194.824,-970.703,-448.242,-214.844,-20.508
1571286562.362,-240.234,-970.215,-298.828,-253.906,-31.738
1571286562.366,-200.195,-970.215,-415.527,-238.770,-22.461
1571286562.370,-143.555,-970.215,-502.441,-163.574,-4.395
1571286562.374,-179.688,-970.215,-447.754,-188.477,-5.371
1571286562.378,-256.348,-970.215,-519.043,-270.020,8.301
1571286562.382,-226.074,-970.215,-755.371,-268.066,20.020
1571286562.386,-147.949,-970.215,-820.801,-214.844,3.906
1571286562.389,-203.125,-970.215,-604.004,-254.883,25.879
1571286562.393,-301.758,-970.215,-612.305,-329.590,41.992
1571286562.397,-302.246,-970.215,-898.926,-330.566,-17.090
1571286562.401,-206.055,-969.727,-984.375,-256.836,-28.809
