timestamps,TP9,AF7,AF8,TP10,Right AUX
1571287086.487,-299.805,999.512,999.512,-221.191,-101.074
1571287086.491,-149.902,999.512,999.512,-174.316,-50.293
1571287086.495,-88.379,999.512,999.512,-134.766,-7.324
1571287086.499,-237.305,999.512,999.512,-178.711,-21.973
1571287086.503,-308.594,999.512,999.512,-212.891,-26.367
1571287086.507,-175.293,997.559,999.512,-161.621,9.766
1571287086.511,-45.898,999.023,999.512,-71.289,27.832
1571287086.514,-169.922,991.699,999.512,-113.770,24.902
1571287086.518,-340.820,917.480,999.512,-199.707,31.250
1571287086.522,-252.441,823.242,999.512,-160.645,29.785
1571287086.526,-42.480,800.293,999.512,-41.992,-16.602
1571287086.530,-53.223,797.363,999.512,-18.066,3.906
1571287086.534,-211.914,761.719,999.512,-86.914,52.246
1571287086.538,-207.031,785.156,999.512,-86.914,42.480
1571287086.542,-19.043,827.637,999.512,8.301,40.039
1571287086.546,29.297,845.215,999.512,54.688,45.410
1571287086.550,-143.066,883.789,999.512,-30.273,83.496
1571287086.553,-193.359,904.297,999.512,-58.594,32.715
1571287086.557,-30.273,844.727,999.512,27.832,-37.598
1571287086.561,97.168,821.289,999.512,115.723,28.320
1571287086.565,-2.441,871.582,999.512,104.004,45.410
1571287086.569,-123.535,872.070,999.512,33.691,15.137
1571287086.573,-29.297,846.680,999.512,45.410,37.109
1571287086.577,120.117,791.504,999.512,119.629,4.395
1571287086.581,16.113,728.516,999.512,96.191,5.859
1571287086.585,-140.625,691.895,999.512,39.062,12.207
1571287086.589,-53.711,622.070,-998.535,75.195,24.902
1571287086.593,121.582,520.508,989.258,150.879,24.414
1571287086.596,79.102,438.965,-981.445,140.625,38.086
1571287086.600,-111.328,355.469,954.102,48.340,68.848
1571287086.604,-117.676,307.129,815.430,22.949,35.156
1571287086.608,80.566,291.992,944.336,101.074,76.660
1571287086.612,125.488,240.234,-967.773,135.254,71.777
1571287086.616,-150.391,141.113,925.293,3.418,7.812
1571287086.620,-369.141,3.418,772.949,-210.938,-10.742
1571287086.624,-313.477,-97.656,803.223,-287.598,9.277
1571287086.628,-239.258,-127.930,921.387,-254.395,-2.441
1571287086.632,-378.906,-141.113,818.359,-301.270,6.836
1571287086.636,-504.883,-171.387,658.203,-346.191,35.645
1571287086.639,-399.414,-206.543,651.367,-325.195,25.879
1571287086.643,-208.984,-173.340,775.879,-221.191,7.812
1571287086.647,-228.516,-73.242,734.863,-200.195,24.414
1571287086.651,-376.953,-18.555,445.312,-263.184,17.578
1571287086.655,-316.895,15.625,352.051,-205.078,-42.969
1571287086.659,-82.031,48.340,599.121,-64.453,12.207
1571287086.663,-34.180,68.359,702.637,-1.465,63.477
1571287086.667,-171.875,160.156,558.105,-20.996,8.301
1571287086.671,-145.508,295.898,434.082,12.207,8.301
1571287086.675,77.148,325.195,454.102,124.512,22.461
1571287086.678,190.430,301.758,317.383,195.312,17.578
1571287086.682,59.082,305.664,281.738,137.207,20.508
1571287086.686,-19.531,303.223,295.898,109.863,54.688
1571287086.690,108.887,324.707,165.527,177.246,43.457
1571287086.694,240.234,363.281,238.281,256.836,16.113
1571287086.698,131.836,404.297,277.832,217.773,13.672
1571287086.702,3.418,438.965,203.125,141.602,-31.250
1571287086.706,86.426,418.945,-0.977,174.316,-44.434
1571287086.710,262.695,411.621,-62.012,258.789,9.766
1571287086.714,236.328,397.949,262.695,237.305,21.484
1571287086.718,75.195,367.188,207.031,170.410,-11.719
1571287086.721,86.426,367.676,-41.016,178.223,30.762
1571287086.725,270.020,366.211,44.922,234.863,41.992
1571287086.729,296.387,363.281,310.059,258.301,41.992
1571287086.733,106.445,344.727,271.484,195.801,70.312
1571287086.737,60.059,291.992,2.441,163.574,43.457
1571287086.741,238.281,252.441,-133.789,225.586,-22.461
1571287086.745,346.680,238.281,-18.066,268.555,-41.016
1571287086.749,172.363,211.426,-10.742,206.543,-18.066
1571287086.753,25.879,207.031,-417.969,158.691,1.465
1571287086.757,133.789,250.977,-458.008,174.805,15.625
1571287086.761,270.996,267.578,73.242,211.914,-23.926
1571287086.764,183.594,265.625,152.832,200.684,-25.391
1571287086.768,44.434,248.047,-85.938,140.625,6.836
1571287086.772,112.305,253.906,-135.742,156.738,-38.574
1571287086.776,272.949,294.922,77.148,226.074,-15.625
1571287086.780,232.422,300.293,78.613,215.820,-12.207
1571287086.784,74.219,346.680,-143.555,171.387,-18.066
1571287086.788,83.984,458.984,-357.422,167.480,3.418
1571287086.792,246.582,518.555,-297.363,232.422,0.488
1571287086.796,291.016,508.789,-167.969,248.535,54.199
1571287086.800,117.676,497.070,-523.438,165.527,46.387
1571287086.803,46.875,487.305,-638.184,139.648,-77.637
1571287086.807,199.707,471.680,-428.711,206.543,-71.777
1571287086.811,313.477,478.027,-313.477,256.836,-39.062
1571287086.815,182.129,509.277,-260.742,201.660,25.879
1571287086.819,74.219,526.367,-312.012,169.922,41.992
1571287086.823,189.941,520.020,-399.414,196.777,11.230
1571287086.827,328.125,539.551,-254.883,238.770,96.680
1571287086.831,220.215,530.762,-282.715,221.191,39.551
1571287086.835,71.777,538.574,-619.141,164.551,3.906
1571287086.839,129.883,545.898,-766.113,169.434,16.113
1571287086.843,270.020,526.367,-823.730,231.934,10.742
1571287086.846,246.582,511.230,-765.625,226.562,-6.836
1571287086.850,95.215,469.727,-596.680,177.246,-41.504
1571287086.854,84.961,434.082,-756.348,178.223,35.645
1571287086.858,254.883,397.461,-755.859,232.422,108.398
1571287086.862,324.707,356.445,-547.363,255.371,44.922
1571287086.866,150.391,330.566,-623.535,203.125,12.207
1571287086.870,60.059,317.871,-892.578,157.227,1.953
1571287086.874,205.566,278.809,-969.727,180.176,-14.648
1571287086.878,310.059,247.070,-767.578,212.891,20.020
1571287086.882,119.629,216.797,-825.195,129.883,9.277
1571287086.886,-62.012,211.426,-981.934,46.875,-23.438
1571287086.889,42.480,252.930,-987.793,98.145,-52.734
1571287086.893,226.074,258.301,-853.516,160.156,-67.383
1571287086.897,172.852,224.609,-643.066,149.414,2.441
1571287086.901,8.789,184.082,-823.730,77.637,1.953
1571287086.905,40.039,150.879,-990.723,59.082,-5.859
1571287086.909,226.562,138.184,-767.090,143.066,43.457
1571287086.913,239.258,187.988,-643.555,167.480,19.043
1571287086.917,53.223,223.633,-834.961,114.258,-35.645
1571287086.921,21.973,188.477,-882.324,97.168,14.160
1571287086.925,197.266,180.664,-778.320,134.766,-10.742
1571287086.928,261.230,184.570,-730.469,161.133,5.371
1571287086.932,86.914,168.457,-866.699,108.887,20.020
1571287086.936,-6.836,179.688,-987.305,47.852,-12.207
1571287086.940,120.605,182.129,-894.531,92.285,7.324
1571287086.944,246.094,160.645,-804.199,162.109,-35.645
1571287086.948,129.883,146.484,-899.414,127.930,0.977
1571287086.952,-13.672,159.180,-979.492,75.195,9.766
1571287086.956,52.734,160.645,-966.309,94.727,-0.488
1571287086.960,212.891,134.766,-952.148,145.508,59.570
1571287086.964,172.852,119.141,-956.055,108.398,71.777
1571287086.968,-13.184,90.332,-970.703,24.414,36.621
1571287086.971,-15.625,47.852,-970.215,17.090,-3.418
1571287086.975,161.621,44.434,-969.727,110.840,-0.488
1571287086.979,169.922,62.012,-970.215,110.840,40.039
1571287086.983,-16.113,114.746,-970.215,-2.930,12.695
1571287086.987,-66.406,176.758,-970.215,-37.598,18.066
1571287086.991,82.031,197.266,-970.215,19.531,-1.953
1571287086.995,163.574,236.328,-970.215,60.547,-16.113
1571287086.999,2.930,250.000,-970.215,8.789,-5.371
1571287087.003,-125.000,211.914,-970.215,-49.316,-10.254
1571287087.007,-11.230,207.520,-970.215,-49.316,-25.879
1571287087.011,138.672,203.125,-970.215,3.906,-17.090
1571287087.014,43.457,187.012,-970.215,-10.254,12.695
1571287087.018,-110.352,177.246,-970.215,-51.758,-52.246
1571287087.022,-68.359,199.219,-970.215,-55.664,-64.453
1571287087.026,109.375,272.949,-970.215,14.160,16.113
1571287087.030,85.449,307.129,-970.215,13.184,5.371
1571287087.034,-113.770,272.949,-970.215,-69.336,11.719
1571287087.038,-125.977,204.590,-970.215,-76.660,32.227
1571287087.042,58.105,143.555,-970.215,-19.531,3.906
1571287087.046,125.488,55.176,-970.215,17.578,-28.809
1571287087.050,-59.570,-36.621,-970.215,-17.578,5.859
1571287087.053,-96.191,-90.820,-966.797,-50.781,-1.465
1571287087.057,65.918,-146.973,-981.445,-11.230,15.137
1571287087.061,94.238,-237.793,-918.457,-2.441,38.574
1571287087.065,-62.012,-295.898,-901.855,-77.148,9.277
1571287087.069,-145.020,-323.242,-975.586,-101.562,-5.371
1571287087.073,-20.020,-392.090,-970.215,-41.016,-25.391
1571287087.077,149.902,-467.773,-968.262,29.297,-2.441
1571287087.081,98.633,-504.395,-970.215,5.371,-16.602
1571287087.085,-55.664,-502.441,-970.215,-45.898,26.367
1571287087.089,9.277,-480.957,-970.215,-14.648,34.668
1571287087.093,208.496,-475.586,-970.215,80.078,-48.828
1571287087.096,211.914,-476.562,-970.215,93.262,6.836
1571287087.100,34.180,-469.727,-970.215,26.367,20.508
1571287087.104,5.371,-461.914,-970.215,0.488,-7.324
1571287087.108,190.430,-434.570,-970.215,47.363,2.441
1571287087.112,255.859,-433.105,-970.215,69.824,-40.039
1571287087.116,70.801,-455.078,-970.215,-5.371,0.977
1571287087.120,-27.344,-457.031,-970.215,-69.336,-8.789
1571287087.124,89.844,-443.359,-970.215,-48.828,-59.570
1571287087.128,205.566,-438.965,-970.215,0.000,13.672
1571287087.132,75.684,-429.688,-970.215,-57.617,73.730
1571287087.136,-93.262,-413.574,-969.238,-148.438,60.547
1571287087.139,-47.363,-454.102,-971.680,-142.090,42.480
1571287087.143,92.773,-493.652,-965.820,-85.938,67.383
1571287087.147,31.738,-482.910,-962.402,-119.141,51.758
1571287087.151,-153.809,-464.844,-962.891,-207.031,-27.344
1571287087.155,-136.719,-437.012,-984.375,-237.305,-64.453
1571287087.159,50.781,-434.570,-900.879,-144.531,-65.918
1571287087.163,72.266,-436.035,-760.742,-117.188,0.977
1571287087.167,-113.281,-447.266,-711.914,-208.496,46.387
1571287087.171,-166.992,-482.422,-819.824,-235.352,40.527
1571287087.175,-7.812,-495.117,-729.980,-176.270,58.105
1571287087.178,96.191,-482.910,-370.605,-132.812,34.668
1571287087.182,-48.828,-485.352,-284.180,-181.641,14.160
1571287087.186,-178.711,-509.277,-622.559,-220.215,45.410
1571287087.190,-62.988,-479.004,-783.691,-182.129,20.508
1571287087.194,83.496,-441.895,-332.031,-131.348,39.551
1571287087.198,-28.320,-432.129,-215.820,-161.621,21.484
1571287087.202,-187.988,-402.344,-340.332,-233.398,-5.371
1571287087.206,-135.254,-386.230,-289.551,-241.211,49.316
1571287087.210,28.809,-387.207,-183.105,-159.180,52.246
1571287087.214,-21.973,-391.113,-45.898,-155.762,54.688
1571287087.218,-216.797,-391.602,-335.938,-251.953,34.668
1571287087.221,-216.309,-373.047,-545.410,-278.320,-10.254
1571287087.225,-54.199,-363.770,-149.902,-189.453,-37.598
1571287087.229,-32.715,-358.887,64.453,-163.086,11.719
1571287087.233,-209.961,-352.539,-56.152,-237.793,45.410
1571287087.237,-272.461,-368.652,-145.020,-266.602,17.090
1571287087.241,-127.441,-381.348,-12.207,-194.824,20.508
1571287087.245,-27.344,-379.395,103.516,-138.672,5.371
1571287087.249,-164.551,-385.254,45.898,-222.656,-6.348
1571287087.253,-284.668,-395.020,-109.375,-270.020,3.418
1571287087.257,-191.895,-405.273,-182.129,-217.285,0.977
1571287087.261,-56.152,-400.879,-119.141,-151.367,4.395
1571287087.264,-141.602,-390.137,-176.758,-171.875,25.879
1571287087.268,-287.598,-389.160,-149.414,-227.051,29.297
1571287087.272,-225.098,-380.371,-34.180,-207.031,26.855
1571287087.276,-32.715,-355.469,26.855,-116.211,1.465
1571287087.280,-50.293,-344.238,123.535,-111.328,-45.410
1571287087.284,-231.445,-352.051,172.852,-187.500,-12.207
1571287087.288,-241.211,-354.004,127.930,-189.941,68.848
1571287087.292,-82.031,-352.051,136.230,-120.605,58.594
1571287087.296,-24.414,-344.727,268.066,-88.867,11.230
1571287087.300,-168.457,-343.262,261.230,-143.555,-6.348
1571287087.303,-242.676,-341.309,37.109,-178.223,21.973
1571287087.307,-110.352,-339.355,-261.719,-126.465,-2.441
1571287087.311,17.578,-325.684,-67.383,-59.570,-30.273
1571287087.315,-113.770,-319.336,360.840,-116.211,9.277
1571287087.319,-252.930,-328.125,183.594,-187.012,-35.156
1571287087.323,-175.293,-324.219,28.809,-160.156,-67.871
1571287087.327,-58.594,-337.891,433.105,-145.508,52.246
1571287087.331,-145.996,-356.445,662.598,-189.941,33.203
1571287087.335,-312.500,-373.535,442.383,-232.910,-29.785
1571287087.339,-277.344,-362.793,359.375,-220.215,22.949
1571287087.343,-98.145,-335.449,595.215,-174.316,41.992
1571287087.346,-86.914,-296.875,773.926,-172.363,22.949
1571287087.350,-258.789,-244.629,439.453,-235.840,3.418
1571287087.354,-299.805,-223.633,-12.207,-258.789,10.254
1571287087.358,-120.605,-225.098,290.039,-155.273,67.383
1571287087.362,-21.484,-221.191,729.980,-78.125,136.230
1571287087.366,-166.992,-212.891,463.379,-135.254,67.871
1571287087.370,-244.141,-210.449,208.496,-165.039,17.578
1571287087.374,-97.168,-207.520,356.934,-104.980,37.109
1571287087.378,47.852,-214.844,535.156,-38.574,18.066
1571287087.382,-67.871,-210.938,478.516,-80.078,2.441
1571287087.386,-214.355,-197.754,301.758,-144.531,8.789
1571287087.389,-144.531,-207.520,312.988,-136.230,34.668
1571287087.393,25.879,-215.332,440.430,-69.824,23.926
1571287087.397,-32.227,-229.004,404.785,-82.520,55.176
1571287087.401,-203.613,-228.516,107.910,-157.715,17.090
1571287087.405,-176.758,-213.379,127.441,-166.992,10.742
1571287087.409,10.742,-188.965,371.094,-78.125,44.922
1571287087.413,52.246,-145.508,425.781,-27.832,-7.324
1571287087.417,-129.395,-145.996,481.934,-106.445,17.578
1571287087.421,-186.523,-145.508,458.008,-148.926,76.660
1571287087.425,-30.762,-135.742,384.766,-78.613,49.316
1571287087.428,58.105,-100.098,409.668,-37.109,-18.555
1571287087.432,-76.660,2.930,580.078,-88.379,-20.996
1571287087.436,-166.016,61.035,694.336,-108.398,12.695
1571287087.440,-58.105,71.289,633.301,-51.758,17.578
1571287087.444,89.355,73.730,702.148,21.973,0.488
1571287087.448,5.371,103.027,823.730,-20.996,30.762
1571287087.452,-139.648,143.555,841.309,-73.242,-1.465
1571287087.456,-70.801,141.113,788.574,-48.340,29.297
1571287087.460,109.863,150.391,814.941,41.016,84.961
1571287087.464,99.121,168.457,-995.117,68.359,47.852
1571287087.468,-89.844,224.121,-998.535,-15.137,16.113
1571287087.471,-116.211,319.824,993.652,-59.082,12.207
1571287087.475,72.754,372.559,-999.512,7.812,9.766
1571287087.479,158.203,425.781,999.512,87.402,-20.020
1571287087.483,-11.230,478.516,999.512,70.312,-42.480
1571287087.487,-130.859,472.656,999.512,-22.461,3.418
1571287087.491,-23.926,524.414,999.512,-40.527,17.578
1571287087.495,80.566,611.816,999.512,28.320,-16.113
1571287087.499,-51.758,679.688,999.512,-23.926,-44.922
1571287087.503,-208.008,766.602,999.512,-91.797,-15.625
1571287087.507,-162.109,819.824,999.512,-96.191,-9.277
1571287087.511,-48.340,804.688,999.512,-87.402,15.137
1571287087.514,-145.996,796.387,999.512,-123.535,44.922
1571287087.518,-303.711,811.035,999.512,-175.781,-12.695
1571287087.522,-257.324,854.004,999.512,-169.922,18.066
1571287087.526,-81.543,793.945,999.512,-92.773,-29.785
1571287087.530,-74.219,662.598,999.512,-49.316,-43.457
1571287087.534,-262.695,629.883,999.512,-90.820,2.441
1571287087.538,-298.340,612.305,999.512,-88.867,-29.297
1571287087.542,-146.484,550.781,999.512,20.020,-37.598
1571287087.546,-98.145,412.109,999.512,83.984,4.395
1571287087.550,-267.090,320.312,999.512,-49.316,-27.832
1571287087.553,-371.094,468.750,999.512,-137.207,-11.719
1571287087.557,-257.324,803.711,999.512,-72.754,32.227
1571287087.561,-140.625,984.375,999.512,1.465,-44.434
1571287087.565,-256.348,956.543,999.512,-33.691,-43.945
1571287087.569,-377.930,892.578,999.512,-87.891,-7.324
1571287087.573,-288.574,836.914,999.512,-44.922,4.883
1571287087.577,-125.488,816.406,999.512,37.109,-72.754
1571287087.581,-161.621,889.160,999.512,6.348,-84.961
1571287087.585,-313.965,991.211,999.512,-57.129,19.043
1571287087.589,-294.434,-999.512,999.512,-59.082,66.895
1571287087.593,-102.539,996.582,999.512,9.277,66.406
1571287087.596,-65.430,998.535,999.512,26.855,16.602
1571287087.600,-221.191,-999.023,999.512,-36.621,-38.574
1571287087.604,-232.422,987.793,999.512,-33.203,-40.039
1571287087.608,-28.809,953.125,999.512,53.223,-23.438
1571287087.612,67.383,898.926,999.512,81.543,35.645
1571287087.616,-113.281,835.938,999.512,-0.488,4.395
1571287087.620,-197.754,780.762,999.512,-39.062,-2.930
1571287087.624,-50.293,746.094,999.512,14.648,48.828
1571287087.628,62.500,734.863,999.512,58.105,45.898
1571287087.632,-66.406,694.336,999.512,-9.766,20.020
1571287087.636,-191.406,654.297,999.512,-54.199,4.395
1571287087.639,-89.844,657.715,999.512,-11.719,8.301
1571287087.643,77.637,693.848,999.512,57.129,-13.672
1571287087.647,38.086,689.941,999.512,50.293,28.320
1571287087.651,-120.605,648.926,999.512,-6.348,19.531
1571287087.655,-110.352,631.836,999.512,-16.602,7.324
1571287087.659,68.848,625.488,999.512,39.062,79.590
1571287087.663,92.285,634.277,999.512,59.082,41.504
1571287087.667,-91.797,635.742,999.512,1.953,-48.828
1571287087.671,-130.859,644.043,999.512,-15.137,-12.695
1571287087.675,44.922,632.324,980.957,44.434,69.336
1571287087.678,154.297,509.766,-956.055,122.070,81.055
1571287087.682,1.953,368.164,766.602,55.664,6.348
1571287087.686,-124.023,304.688,467.773,-40.039,-31.250
1571287087.690,-25.391,243.652,673.340,-29.297,-41.504
1571287087.694,101.074,215.820,815.430,38.574,-35.156
1571287087.698,-4.395,221.680,775.879,34.180,3.906
1571287087.702,-143.066,198.730,557.129,-16.602,-0.488
1571287087.706,-54.688,186.035,375.488,12.695,-27.832
1571287087.710,128.418,129.883,487.305,69.336,27.832
1571287087.714,98.145,62.500,511.719,36.621,42.480
1571287087.718,-81.543,40.039,360.352,-28.320,23.438
1571287087.721,-98.633,26.855,195.801,-37.598,20.020
1571287087.725,67.383,10.254,44.434,24.414,44.434
1571287087.729,122.559,19.043,65.430,66.406,42.480
1571287087.733,-36.621,65.430,53.223,20.996,-48.828
1571287087.737,-92.285,93.262,-98.633,-13.184,-49.805
1571287087.741,37.109,65.918,-297.363,17.578,15.137
1571287087.745,141.113,49.316,-353.027,48.340,37.109
1571287087.749,7.812,57.617,-207.031,5.859,-16.113
1571287087.753,-137.207,99.609,-350.586,-37.109,-42.969
1571287087.757,-28.809,163.086,-516.602,-2.930,-45.410
1571287087.761,155.273,166.016,-491.211,65.918,-72.266
1571287087.764,81.543,145.508,-417.969,44.922,-38.086
1571287087.768,-85.938,133.789,-485.352,-29.297,22.949
1571287087.772,-43.457,131.836,-726.074,-28.320,53.711
1571287087.776,121.094,113.770,-787.598,23.926,10.254
1571287087.780,115.723,77.148,-520.508,44.434,23.926
1571287087.784,-55.664,80.566,-536.621,15.137,57.617
1571287087.788,-94.727,96.680,-907.227,-41.504,-14.648
1571287087.792,49.805,113.281,-827.148,-2.441,4.395
1571287087.796,98.633,140.137,-447.266,38.086,68.359
1571287087.800,-62.012,141.602,-578.125,-32.715,27.832
1571287087.803,-131.836,155.762,-889.648,-64.941,-19.531
1571287087.807,28.809,184.082,-787.598,-20.020,-22.461
1571287087.811,168.457,207.031,-490.723,49.805,-5.371
1571287087.815,37.598,249.512,-478.516,17.578,39.062
1571287087.819,-114.258,260.742,-774.902,-42.969,37.598
1571287087.823,-20.020,254.883,-896.484,-15.625,2.930
1571287087.827,162.109,246.582,-673.828,75.195,-41.016
1571287087.831,104.980,263.672,-604.492,65.430,-22.461
1571287087.835,-72.266,314.453,-913.574,-11.719,-13.672
1571287087.839,-44.434,341.309,-830.078,20.508,-9.277
1571287087.843,140.625,312.988,-560.059,94.727,-4.883
1571287087.846,138.672,255.859,-552.734,65.918,-22.461
1571287087.850,-62.500,236.328,-682.617,-10.742,0.000
1571287087.854,-109.375,251.465,-734.375,-41.504,40.039
1571287087.858,76.172,218.262,-715.332,21.973,15.137
1571287087.862,163.086,135.742,-653.320,64.453,-6.348
1571287087.866,-25.391,63.477,-839.355,-2.930,-19.043
1571287087.870,-136.230,47.852,-986.328,-35.645,-35.156
1571287087.874,4.883,54.688,-959.961,17.578,-38.574
1571287087.878,154.785,34.180,-975.586,73.730,-18.555
1571287087.882,65.918,22.461,-938.965,36.133,-11.230
1571287087.886,-73.242,-8.301,-874.512,-11.719,13.184
1571287087.889,-16.602,-53.223,-941.406,-3.906,44.434
1571287087.893,148.438,-78.613,-903.320,53.223,20.020
1571287087.897,125.488,-60.547,-757.812,71.289,-8.789
1571287087.901,-46.875,-36.621,-838.867,1.953,-13.184
1571287087.905,-46.875,-46.875,-967.773,-2.441,9.766
1571287087.909,139.160,-67.383,-901.855,72.754,-3.418
1571287087.913,178.711,-112.305,-826.660,85.938,-14.648
1571287087.917,1.953,-139.648,-926.270,21.484,24.902
1571287087.921,-67.871,-125.000,-984.863,-17.090,32.715
1571287087.925,80.566,-83.496,-952.637,38.086,28.320
1571287087.928,196.777,-54.199,-792.969,107.422,59.570
1571287087.932,64.941,-74.219,-850.098,63.965,-15.137
1571287087.936,-39.551,-87.891,-989.746,11.719,-43.945
1571287087.940,63.965,-100.586,-942.383,34.668,17.578
1571287087.944,201.660,-99.609,-762.207,71.777,21.973
1571287087.948,99.609,-91.797,-666.504,50.293,41.992
1571287087.952,-70.312,-107.422,-863.281,-8.789,37.109
1571287087.956,-2.441,-130.371,-989.258,-2.930,-9.277
1571287087.960,188.965,-132.324,-961.426,93.750,-6.836
1571287087.964,170.410,-108.398,-863.770,86.426,-6.348
1571287087.968,-18.555,-100.586,-897.461,-16.602,-16.602
1571287087.971,-26.855,-87.402,-997.559,-29.785,8.789
1571287087.975,137.695,-69.824,-772.949,38.086,28.809
1571287087.979,170.898,-40.039,-599.121,63.477,6.348
1571287087.983,3.418,-1.953,-734.863,-11.719,21.484
1571287087.987,-67.871,-0.977,-873.047,-42.969,74.707
1571287087.991,75.195,-28.809,-849.121,18.066,10.742
1571287087.995,190.918,-41.016,-693.848,70.801,-13.184
1571287087.999,47.852,-52.246,-714.844,26.367,22.461
1571287088.003,-75.684,-59.082,-835.938,-46.387,11.230
1571287088.007,33.691,-59.082,-944.336,-12.207,-22.461
1571287088.011,186.523,-61.035,-948.730,71.777,13.184
1571287088.014,115.234,-63.965,-952.148,44.434,39.551
1571287088.018,-45.410,-48.340,-922.852,-17.090,31.250
1571287088.022,-7.324,-28.320,-858.887,-12.207,69.824
1571287088.026,172.363,-6.836,-861.816,42.480,41.504
1571287088.030,169.922,37.598,-711.914,70.312,56.641
1571287088.034,-23.926,74.219,-695.312,8.301,51.270
1571287088.038,-77.148,42.480,-886.719,-52.734,-8.789
1571287088.042,85.449,37.598,-937.988,0.977,4.883
1571287088.046,173.340,73.730,-784.180,50.293,6.348
1571287088.050,12.695,77.637,-703.613,-0.977,-27.832
1571287088.053,-74.707,78.125,-900.879,-31.250,-101.074
1571287088.057,54.688,118.164,-1000.000,6.836,-109.863
1571287088.061,184.570,125.488,-818.359,63.477,-25.391
1571287088.065,87.891,103.027,-523.926,26.367,9.277
1571287088.069,-58.105,92.285,-708.008,-40.039,-45.410
1571287088.073,19.043,98.145,-856.934,-14.648,-5.371
1571287088.077,187.500,136.719,-577.637,62.012,45.410
1571287088.081,133.301,142.578,-418.457,60.059,1.465
1571287088.085,-31.738,149.902,-642.090,4.883,-5.371
1571287088.089,-15.625,134.766,-835.938,-6.836,22.949
1571287088.093,152.344,70.801,-625.488,58.105,71.289
1571287088.096,155.273,27.344,-501.465,73.730,37.598
1571287088.100,-21.484,12.207,-790.527,3.906,-16.113
1571287088.104,-61.035,19.043,-1000.000,-16.602,-25.391
1571287088.108,88.867,24.414,-850.098,32.227,3.906
1571287088.112,169.434,1.953,-583.984,76.172,12.207
1571287088.116,23.926,-28.809,-713.379,19.531,34.180
1571287088.120,-81.543,-41.504,-977.539,-30.273,22.949
1571287088.124,31.738,-21.973,-956.543,15.137,-22.461
1571287088.128,171.875,-13.184,-816.895,80.566,-48.340
1571287088.132,79.102,-17.090,-846.191,62.988,3.418
1571287088.136,-74.219,-23.438,-982.910,-11.230,46.875
1571287088.139,-21.484,-18.555,-968.262,-20.508,-10.254
1571287088.143,145.508,4.395,-967.285,42.480,-42.969
1571287088.147,116.699,59.570,-970.703,38.574,-11.719
1571287088.151,-68.848,119.141,-970.215,-28.320,30.762
1571287088.155,-80.566,151.367,-970.215,-40.527,15.137
1571287088.159,111.816,192.383,-970.215,32.227,-14.160
1571287088.163,143.066,153.809,-970.215,47.363,25.879
1571287088.167,-31.250,136.719,-970.215,-31.738,37.109
1571287088.171,-100.098,157.227,-970.215,-63.965,67.871
1571287088.175,3.906,78.613,-970.215,-48.340,62.988
1571287088.178,81.543,33.691,-970.215,-45.898,-9.277
1571287088.182,-91.309,-6.836,-970.215,-125.488,-21.973
1571287088.186,-263.672,-125.000,-970.215,-214.355,6.836
1571287088.190,-215.332,-230.957,-970.215,-224.121,4.883
1571287088.194,-123.047,-409.180,-970.215,-203.613,22.461
1571287088.198,-270.508,-495.605,-970.215,-270.508,2.441
1571287088.202,-457.520,-410.156,-970.215,-373.535,-17.090
1571287088.206,-408.691,-407.715,-970.215,-384.766,3.906
1571287088.210,-252.930,-464.355,-970.215,-346.191,45.410
1571287088.214,-262.207,-652.832,-970.215,-353.027,20.020
1571287088.218,-462.891,-895.508,-970.215,-432.617,-38.574
1571287088.221,-532.715,-969.727,-970.215,-498.535,-25.879
1571287088.225,-435.059,-965.820,-970.215,-532.227,-3.418
1571287088.229,-567.383,-969.238,-970.215,-679.199,19.043
1571287088.233,-895.020,-970.703,-970.215,-906.738,-62.012
1571287088.237,-979.980,-970.215,-970.215,-977.051,-86.426
1571287088.241,-960.449,-970.215,-970.215,-963.379,9.766
1571287088.245,-970.703,-970.215,-970.215,-970.703,20.508
1571287088.249,-970.215,-970.215,-970.215,-970.215,-34.668
1571287088.253,-970.215,-971.191,-970.215,-970.215,-61.523
1571287088.257,-970.215,-971.191,-970.215,-970.215,-52.246
1571287088.261,-970.215,-922.852,-970.215,-970.215,-19.043
1571287088.264,-970.215,-1000.000,-970.215,-970.215,-61.523
1571287088.268,-970.215,-437.012,-970.215,-970.215,-83.496
1571287088.272,-970.215,803.223,-970.215,-970.215,-49.316
1571287088.276,-970.215,-984.863,-970.215,-970.215,-4.395
1571287088.280,-970.215,962.891,-970.215,-970.215,2.930
1571287088.284,-970.215,806.152,-970.215,-970.215,6.348
1571287088.288,-970.215,-106.934,-970.215,-970.215,15.625
1571287088.292,-970.215,-934.082,-970.215,-970.215,4.883
1571287088.296,-970.703,-971.191,-970.215,-970.703,14.160
1571287088.300,-966.797,-947.754,-970.215,-967.773,-35.645
1571287088.303,-972.656,-976.562,-970.215,-971.191,-17.090
1571287088.307,-965.820,-970.215,-970.215,-967.285,-0.977
1571287088.311,-861.816,-970.215,-970.215,-884.766,-19.043
1571287088.315,-871.582,-970.215,-970.215,-833.008,47.363
1571287088.319,-987.305,-970.215,-970.215,-872.070,34.180
1571287088.323,-936.035,-970.215,-970.215,-831.543,47.363
1571287088.327,-813.965,-970.215,-970.215,-758.789,1.953
1571287088.331,-897.949,-970.215,-970.215,-874.023,-25.879
1571287088.335,-983.398,-970.215,-970.703,-979.492,11.719
1571287088.339,-965.332,-970.215,-958.008,-966.309,-38.086
1571287088.343,-969.727,-970.215,-991.699,-968.750,-17.578
1571287088.346,-970.215,-970.215,-845.703,-970.703,-11.719
1571287088.350,-970.215,-970.215,-547.852,-970.215,7.812
1571287088.354,-970.215,-970.215,-554.199,-970.215,-14.160
1571287088.358,-970.215,-970.215,-431.152,-970.215,-26.855
1571287088.362,-970.215,-970.215,84.473,-970.215,20.020
1571287088.366,-970.215,-970.215,312.500,-970.215,-5.859
1571287088.370,-970.215,-970.215,237.305,-970.215,43.945
1571287088.374,-970.215,-970.215,225.098,-970.215,-9.766
1571287088.378,-970.215,-970.215,515.137,-970.215,-44.434
1571287088.382,-970.215,-970.215,582.031,-970.215,15.137
1571287088.386,-970.215,-970.215,240.234,-970.215,0.977
1571287088.389,-970.215,-970.215,111.816,-970.215,41.504
1571287088.393,-970.215,-970.215,592.773,-970.215,38.574
1571287088.397,-970.215,-970.215,-989.258,-970.215,9.766
1571287088.401,-970.215,-970.215,858.887,-970.215,5.859
1571287088.405,-970.215,-970.215,819.336,-970.215,-7.812
1571287088.409,-970.215,-976.562,-994.141,-970.215,0.977
1571287088.413,-970.215,-943.359,-998.535,-970.215,18.555
1571287088.417,-970.215,-959.961,995.117,-970.215,82.520
1571287088.421,-970.215,-1000.000,-1000.000,-970.215,65.918
1571287088.425,-970.215,205.566,999.512,-970.215,60.059
1571287088.428,-970.215,-887.695,999.512,-970.215,35.645
1571287088.432,-970.215,947.754,999.512,-970.215,-10.742
1571287088.436,-970.215,995.605,999.512,-970.215,1.953
1571287088.440,-970.215,-999.023,999.512,-970.215,7.812
1571287088.444,-970.215,999.512,999.512,-970.215,17.090
1571287088.448,-970.215,999.512,999.512,-970.215,44.434
1571287088.452,-970.215,999.512,999.512,-970.215,37.109
1571287088.456,-970.215,999.512,999.512,-970.703,13.184
1571287088.460,-970.215,999.512,-1000.000,-967.285,-3.418
1571287088.464,-970.215,999.512,994.629,-975.586,-21.484
1571287088.468,-970.215,999.512,999.023,-953.613,6.348
1571287088.471,-970.215,999.512,977.539,-902.344,31.738
1571287088.475,-970.215,999.512,771.973,-945.312,13.672
1571287088.479,-970.215,999.512,586.914,-976.562,3.418
1571287088.483,-970.215,999.512,700.195,-967.285,-1.953
1571287088.487,-970.215,999.512,767.090,-970.703,33.203
1571287088.491,-970.215,999.512,684.082,-970.215,37.598
1571287088.495,-970.215,999.512,774.902,-970.215,51.758
1571287088.499,-970.215,999.512,873.535,-970.215,99.609
1571287088.503,-970.215,999.512,753.418,-970.215,52.734
1571287088.507,-970.215,999.512,610.352,-970.215,34.180
1571287088.511,-970.215,999.512,718.750,-970.215,41.504
1571287088.514,-970.215,999.512,852.051,-970.215,80.566
1571287088.518,-970.215,999.512,656.738,-970.215,110.840
1571287088.522,-970.215,999.512,220.703,-970.215,21.973
1571287088.526,-970.215,999.512,115.723,-970.215,-27.344
1571287088.530,-970.703,999.512,359.375,-966.309,-11.230
1571287088.534,-967.285,999.512,290.039,-974.609,-5.859
1571287088.538,-977.051,999.512,-203.125,-937.500,6.836
1571287088.542,-948.730,999.512,-194.824,-824.219,36.621
1571287088.546,-925.781,999.512,237.793,-796.875,39.062
1571287088.550,-969.727,999.512,126.953,-896.484,57.129
1571287088.553,-972.168,999.512,-284.180,-965.820,25.391
1571287088.557,-968.262,999.512,-352.539,-952.148,-51.758
1571287088.561,-970.215,999.512,-60.059,-936.523,-31.250
1571287088.565,-969.727,999.512,-43.457,-966.797,20.996
1571287088.569,-970.215,999.512,-292.480,-972.656,64.453
1571287088.573,-970.215,999.512,-320.312,-968.750,42.969
1571287088.577,-970.215,999.512,68.359,-970.703,40.039
1571287088.581,-970.703,999.512,84.961,-970.703,14.648
1571287088.585,-967.285,999.512,-395.996,-968.750,-22.461
1571287088.589,-976.074,999.512,-379.395,-970.703,6.836
1571287088.593,-950.195,999.512,-187.500,-965.820,0.000
1571287088.596,-929.688,999.512,-202.148,-909.668,32.715
1571287088.600,-960.449,999.512,-414.551,-854.004,25.391
1571287088.604,-989.746,999.512,-586.426,-828.613,19.531
1571287088.608,-883.301,999.512,-734.863,-783.691,40.039
1571287088.612,-710.938,999.512,-823.730,-757.812,61.035
1571287088.616,-779.297,999.512,-915.039,-775.391,49.316
1571287088.620,-864.746,999.512,-979.004,-787.109,17.578
1571287088.624,-718.262,999.512,-965.332,-760.254,20.996
1571287088.628,-489.258,999.512,-970.703,-653.320,-47.852
1571287088.632,-485.840,999.512,-970.215,-554.688,-26.855
1571287088.636,-585.938,999.512,-970.215,-530.762,17.090
1571287088.639,-465.332,999.512,-970.215,-460.938,-7.324
1571287088.643,-202.637,999.512,-970.215,-366.699,30.273
1571287088.647,-170.410,999.512,-970.215,-323.242,-1.465
1571287088.651,-329.590,999.512,-970.215,-295.898,-29.297
1571287088.655,-346.191,999.512,-970.215,-321.289,44.922
1571287088.659,-139.648,-996.582,-970.215,-293.457,51.270
1571287088.663,-68.359,974.121,-970.215,-295.898,61.523
1571287088.667,-270.996,-974.609,-970.215,-388.184,19.531
1571287088.671,-326.172,809.570,-970.215,-392.578,-38.574
1571287088.675,-104.492,48.828,-970.215,-325.195,16.602
1571287088.678,59.570,-631.348,-970.215,-277.832,53.711
1571287088.682,-97.656,-982.422,-970.215,-304.199,4.883
1571287088.686,-272.461,-763.672,-970.215,-350.098,-16.113
1571287088.690,-187.500,-645.996,-970.215,-362.305,-3.418
1571287088.694,-24.414,-915.527,-970.215,-366.699,-27.344
1571287088.698,-101.562,-956.543,-970.215,-394.043,-51.270
1571287088.702,-285.645,-969.238,-970.215,-453.613,-58.594
1571287088.706,-258.301,-967.773,-970.215,-479.980,0.000
1571287088.710,-29.785,-971.191,-972.168,-435.059,-20.508
1571287088.714,-17.578,-970.215,-958.496,-438.477,-57.129
1571287088.718,-278.320,-970.215,-962.402,-495.605,-21.484
1571287088.721,-329.590,-970.215,-906.250,-535.645,5.371
1571287088.725,-111.328,-970.215,-290.527,-499.512,0.488
1571287088.729,-11.719,-970.215,670.898,-434.570,80.566
1571287088.733,-209.473,-970.215,-979.492,-491.699,78.125
1571287088.737,-335.938,-970.215,975.586,-561.523,36.133
1571287088.741,-182.617,-970.215,997.559,-547.852,11.719
1571287088.745,-44.922,-970.215,-999.023,-536.133,-14.648
1571287088.749,-180.176,-970.215,999.512,-627.930,33.691
1571287088.753,-640.625,-970.215,999.512,-862.793,-0.488
1571287088.757,-982.910,-970.215,999.512,-982.422,14.648
1571287088.761,-961.914,-970.215,999.512,-962.402,69.824
1571287088.764,-963.867,-970.215,999.512,-969.727,-16.113
1571287088.768,-972.168,-970.215,999.512,-970.215,-111.328
1571287088.772,-970.215,-970.215,999.512,-970.215,-89.355
1571287088.776,-970.215,-970.215,999.512,-970.215,-41.504
1571287088.780,-970.703,-970.215,999.512,-970.215,3.906
1571287088.784,-961.426,-970.215,999.512,-970.215,70.801
1571287088.788,-986.328,-970.215,999.512,-970.215,34.668
1571287088.792,-893.555,-970.215,999.512,-970.703,-21.484
1571287088.796,-692.871,-970.215,999.512,-962.402,9.766
1571287088.800,-715.332,-970.215,999.512,-981.934,19.531
1571287088.803,-714.355,-977.051,999.512,-887.207,38.574
1571287088.807,-465.820,-936.035,999.512,-673.828,46.387
1571287088.811,-217.773,-1000.000,999.512,-552.246,35.645
1571287088.815,-312.012,-856.934,999.512,-538.574,21.973
1571287088.819,-466.309,-8.301,999.512,-547.852,17.578
1571287088.823,-318.359,-251.953,999.512,-500.488,32.715
1571287088.827,-94.238,-1000.000,999.512,-445.801,38.574
1571287088.831,-129.395,-656.738,999.512,-398.926,41.992
1571287088.835,-305.664,-103.027,999.512,-382.812,48.828
1571287088.839,-323.730,591.309,999.512,-386.719,50.781
1571287088.843,-108.887,-912.598,999.512,-299.805,38.086
1571287088.846,5.859,442.383,999.512,-203.125,39.551
1571287088.850,-168.945,-206.055,999.512,-224.609,37.109
1571287088.854,-227.051,-36.621,999.512,-224.609,-3.418
1571287088.858,-33.691,143.555,999.512,-153.320,0.977
1571287088.862,96.680,563.965,999.512,-58.105,34.180
1571287088.866,-164.062,796.875,999.512,-11.230,22.949
1571287088.870,-332.520,679.688,999.512,-41.992,13.184
1571287088.874,-37.598,916.504,999.512,34.180,26.855
1571287088.878,277.832,-974.121,999.512,153.320,9.277
1571287088.882,267.090,935.547,999.512,155.762,-11.719
1571287088.886,-22.461,582.520,999.512,-48.340,-39.551
1571287088.889,-219.727,408.203,999.512,-332.520,-60.547
1571287088.893,-52.246,477.051,999.512,-361.328,-20.508
1571287088.897,6.836,759.277,999.512,-304.688,-0.977
1571287088.901,-103.516,-981.445,999.512,-264.648,-17.090
1571287088.905,-35.645,991.211,999.512,-229.980,0.977
1571287088.909,214.844,995.605,999.512,-166.992,53.711
1571287088.913,366.699,-999.512,999.512,-67.871,29.297
1571287088.917,231.934,999.512,999.512,-8.301,-5.371
1571287088.921,-41.992,999.512,999.512,-43.457,-16.113
1571287088.925,-58.105,999.512,999.512,-94.727,-13.184
1571287088.928,151.367,999.512,999.512,-45.410,48.828
1571287088.932,97.168,999.512,999.512,-2.441,24.902
1571287088.936,15.137,999.512,999.512,17.578,-8.789
1571287088.940,188.965,999.512,999.512,60.059,0.488
1571287088.944,442.383,999.512,999.512,140.625,18.066
1571287088.948,455.078,999.512,999.512,213.867,40.527
1571287088.952,286.621,999.512,999.512,216.309,3.906
1571287088.956,298.828,999.512,999.512,212.891,-25.391
1571287088.960,458.984,999.512,999.512,206.055,-18.555
1571287088.964,400.879,999.512,999.512,140.137,34.180
1571287088.968,186.035,999.512,999.512,103.516,52.734
1571287088.971,183.594,999.512,999.512,122.070,17.578
1571287088.975,434.570,999.512,999.512,214.355,24.902
1571287088.979,538.086,999.512,999.512,262.207,25.879
1571287088.983,344.727,999.512,999.512,206.543,39.062
1571287088.987,264.160,999.512,999.512,204.590,84.473
1571287088.991,457.031,999.512,999.512,268.066,29.785
1571287088.995,616.699,999.512,999.512,310.547,-20.020
1571287088.999,406.250,999.512,999.512,225.098,43.457
1571287089.003,175.781,999.512,999.512,117.188,84.473
1571287089.007,270.508,998.535,999.512,110.352,27.832
1571287089.011,497.070,998.047,999.512,168.945,-22.461
1571287089.014,454.102,998.535,999.512,191.406,-21.973
1571287089.018,279.785,940.430,999.512,188.965,1.465
1571287089.022,321.289,835.938,999.512,205.078,41.504
1571287089.026,527.344,730.469,999.512,254.883,64.941
1571287089.030,552.246,709.473,993.652,257.324,32.227
1571287089.034,333.008,731.934,-980.957,185.059,30.273
1571287089.038,254.395,696.777,914.062,149.414,25.391
1571287089.042,399.902,604.004,907.715,139.648,11.719
1571287089.046,495.117,548.828,948.730,179.688,-5.371
1571287089.050,335.449,493.652,608.398,168.945,-19.043
1571287089.053,230.469,365.234,463.867,132.324,21.973
1571287089.057,381.836,181.152,478.027,192.383,23.438
1571287089.061,542.969,-54.688,365.234,257.324,8.301
1571287089.065,445.801,-401.855,191.406,255.859,-13.184
1571287089.069,289.551,-744.629,-21.973,225.586,4.883
1571287089.073,353.027,-859.375,-203.613,251.465,9.766
1571287089.077,504.395,-789.551,-137.207,273.438,7.812
1571287089.081,441.406,-700.684,3.418,240.234,25.391
1571287089.085,257.324,-594.727,-204.590,198.242,48.828
1571287089.089,258.301,-345.215,-344.238,175.293,35.645
1571287089.093,456.543,2.441,-329.590,230.957,0.488
1571287089.096,512.207,290.527,-120.117,282.715,6.348
1571287089.100,305.664,233.398,144.043,220.215,-14.160
1571287089.104,208.496,93.262,-43.945,141.113,-19.531
1571287089.108,360.352,258.789,-102.051,159.668,-30.762
1571287089.112,499.512,493.164,276.855,214.355,-7.812
1571287089.116,347.656,541.016,420.898,198.242,36.133
1571287089.120,179.688,449.707,39.551,172.363,20.508
1571287089.124,286.621,434.082,-28.809,192.383,35.645
1571287089.128,440.918,556.152,331.543,215.332,23.926
1571287089.132,323.242,674.805,368.164,172.363,22.949
1571287089.136,116.699,844.238,92.285,113.770,68.359
1571287089.139,153.809,-996.094,-108.887,123.047,58.594
1571287089.143,376.953,997.070,260.254,198.242,3.418
1571287089.147,382.812,996.094,653.320,209.473,-20.508
1571287089.151,149.414,-999.512,472.656,122.559,46.875
1571287089.155,93.750,999.512,251.953,88.867,29.297
1571287089.159,304.688,999.512,447.754,149.902,10.254
1571287089.163,393.066,999.512,645.020,195.801,-4.883
1571287089.167,197.266,999.512,465.820,155.273,8.301
1571287089.171,96.191,999.512,223.633,127.441,23.926
1571287089.175,256.348,999.512,124.512,178.711,-45.410
1571287089.178,416.016,999.512,226.074,217.285,-40.039
1571287089.182,255.371,999.512,4.395,144.531,-20.996
1571287089.186,20.508,999.512,-269.531,37.598,-25.879
1571287089.190,62.500,999.512,1.465,-0.488,-10.742
1571287089.194,244.141,999.512,264.648,30.273,-7.324
1571287089.198,185.059,999.512,268.555,43.457,2.930
1571287089.202,18.066,999.512,120.117,36.621,15.137
1571287089.206,74.707,-1000.000,143.066,70.312,33.691
1571287089.210,303.223,996.094,307.129,146.973,66.895
1571287089.214,357.422,-999.512,415.039,182.129,52.246
1571287089.218,131.348,991.699,326.660,120.117,-9.766
1571287089.221,51.270,848.145,209.473,69.336,5.371
1571287089.225,266.602,856.934,140.625,139.648,22.949
1571287089.229,405.762,-995.117,328.125,224.121,5.371
1571287089.233,200.684,-999.512,399.902,163.086,-17.090
1571287089.237,-22.949,993.164,305.664,14.160,-7.812
1571287089.241,65.430,-995.605,263.672,-7.812,28.320
1571287089.245,230.469,989.746,233.887,42.969,16.113
1571287089.249,110.352,957.520,512.207,20.020,49.316
1571287089.253,-34.180,989.258,515.137,18.066,31.250
1571287089.257,78.125,998.535,318.848,56.641,-38.086
1571287089.261,261.230,-997.559,566.406,97.656,8.301
1571287089.264,184.082,895.020,806.641,51.758,41.504
1571287089.268,-0.488,666.504,584.961,-3.906,41.992
1571287089.272,46.387,486.816,231.934,56.152,24.414
1571287089.276,283.203,369.629,168.945,136.719,-33.691
1571287089.280,335.449,384.766,504.883,156.738,-3.906
1571287089.284,143.555,500.000,552.734,116.699,36.133
1571287089.288,112.305,670.410,127.441,118.652,55.176
1571287089.292,300.781,909.668,193.848,188.477,35.645
1571287089.296,396.973,-991.699,738.281,229.004,14.648
1571287089.300,210.449,992.188,621.094,184.082,-36.133
1571287089.303,71.289,999.512,317.871,122.559,-11.719
1571287089.307,196.777,999.512,377.930,129.395,26.367
1571287089.311,358.887,999.512,608.887,175.781,-8.789
1571287089.315,228.027,999.512,588.379,138.184,6.348
1571287089.319,27.344,999.512,213.867,74.707,-2.441
1571287089.323,92.773,999.512,50.781,67.383,-28.809
1571287089.327,294.922,999.512,414.062,112.793,-6.348
1571287089.331,258.301,999.512,529.785,120.117,9.277
1571287089.335,36.133,999.512,110.352,55.176,46.875
1571287089.339,8.789,999.512,90.332,23.438,17.090
1571287089.343,201.172,999.512,258.301,73.242,-34.180
1571287089.346,257.324,999.512,321.777,90.332,36.133
1571287089.350,68.848,999.512,266.602,36.621,33.691
1571287089.354,-4.883,999.512,150.879,21.973,5.371
1571287089.358,158.203,999.512,201.172,59.570,8.301
1571287089.362,291.016,999.512,356.445,123.535,-6.836
1571287089.366,133.301,999.512,278.809,108.398,2.441
1571287089.370,-32.715,999.512,80.078,42.480,20.020
1571287089.374,76.172,999.512,59.570,56.641,-22.949
1571287089.378,274.902,999.512,329.590,104.492,15.137
1571287089.382,198.730,999.512,526.367,85.449,87.402
1571287089.386,18.555,999.512,375.977,46.875,42.969
1571287089.389,71.289,999.512,217.773,68.359,7.324
1571287089.393,268.555,999.512,43.945,124.512,11.719
1571287089.397,256.348,999.512,184.570,104.980,41.992
1571287089.401,57.617,999.512,273.926,50.293,39.551
1571287089.405,38.574,999.512,3.906,55.664,13.184
1571287089.409,236.816,999.512,82.031,104.004,16.113
1571287089.413,322.754,999.512,339.844,141.113,63.965
1571287089.417,136.230,999.512,256.348,106.445,70.312
1571287089.421,34.180,999.512,-75.684,79.102,29.785
1571287089.425,187.988,999.512,-232.422,114.746,54.688
1571287089.428,346.191,999.512,120.117,156.250,5.859
1571287089.432,210.938,999.512,298.828,127.441,-14.160
1571287089.436,37.109,999.512,-35.645,67.383,22.461
1571287089.440,136.719,999.512,-203.125,84.961,-23.438
1571287089.444,341.309,997.559,118.164,157.715,-4.395
1571287089.448,269.531,-996.094,253.906,168.945,17.090
1571287089.452,52.734,979.004,32.227,102.539,57.617
1571287089.456,82.520,942.383,-162.109,86.426,84.473
1571287089.460,277.832,964.844,-177.734,148.438,15.137
1571287089.464,295.898,929.688,41.016,146.484,15.625
1571287089.468,84.961,871.094,-200.684,78.125,64.941
1571287089.471,-0.488,917.969,-459.961,32.227,84.473
1571287089.475,167.969,984.863,-85.449,38.086,32.227
1571287089.479,274.414,-1000.000,179.199,75.195,7.812
1571287089.483,101.562,997.559,75.195,55.664,34.180
1571287089.487,-18.066,999.512,-86.914,34.668,10.742
1571287089.491,134.277,999.512,19.531,64.453,23.926
1571287089.495,307.129,999.512,212.402,115.723,49.805
1571287089.499,173.828,999.512,160.156,89.355,0.000
1571287089.503,-21.973,-1000.000,16.602,17.578,-7.324
1571287089.507,50.781,995.117,-94.238,28.809,19.531
1571287089.511,264.648,-995.605,-87.891,76.172,-1.953
1571287089.514,203.125,963.867,-87.891,58.105,74.707
1571287089.518,-20.020,835.938,-11.719,21.484,157.715
1571287089.522,-3.418,724.609,3.906,19.043,94.727
1571287089.526,195.312,677.246,-14.160,62.500,44.434
1571287089.530,236.816,696.289,177.734,71.777,45.898
1571287089.534,40.039,735.352,215.820,19.531,20.508
1571287089.538,-36.133,715.332,105.957,5.371,46.387
1571287089.542,137.207,665.039,90.332,38.574,37.598
1571287089.546,250.977,568.848,277.832,73.242,10.742
1571287089.550,90.332,176.758,245.605,29.785,-17.090
1571287089.553,-61.523,-318.359,-133.789,-24.902,-1.465
1571287089.557,14.648,-613.770,-552.734,-36.133,-16.113
1571287089.561,170.898,-716.797,-435.547,-21.973,-25.391
1571287089.565,88.867,-658.203,33.691,-18.555,35.645
1571287089.569,-78.125,-601.074,-107.910,-43.945,68.359
1571287089.573,-29.297,-601.074,-339.355,-21.484,50.293
1571287089.577,173.828,-562.012,-92.285,39.551,-11.230
1571287089.581,166.504,-493.164,226.562,38.574,33.203
1571287089.585,-48.828,-552.246,48.340,-28.320,64.453
1571287089.589,-63.965,-621.582,-241.699,-41.504,32.715
1571287089.593,125.000,-592.773,-10.742,3.418,70.801
1571287089.596,175.781,-593.750,232.910,20.508,19.043
1571287089.600,2.441,-581.055,-5.371,8.789,20.996
1571287089.604,-95.215,-592.773,-459.961,-37.598,43.945
1571287089.608,59.570,-610.840,-261.719,-23.438,25.879
1571287089.612,205.078,-600.098,220.703,45.898,6.836
1571287089.616,61.035,-600.586,139.160,10.742,12.207
1571287089.620,-102.051,-561.035,-100.098,-45.898,28.809
1571287089.624,-6.836,-516.602,-46.875,-37.598,54.199
1571287089.628,181.152,-541.992,190.918,21.973,78.125
1571287089.632,96.680,-544.922,225.098,20.996,67.871
1571287089.636,-92.285,-517.090,46.875,-28.320,44.922
1571287089.639,-62.500,-572.266,-18.555,-35.156,10.742
1571287089.643,127.441,-619.629,151.855,10.742,23.926
1571287089.647,125.977,-613.770,178.711,-10.742,15.625
1571287089.651,-104.004,-631.836,-61.035,-89.844,47.852
1571287089.655,-166.016,-656.738,-170.410,-104.492,13.672
1571287089.659,30.762,-574.707,43.945,-44.922,-7.812
1571287089.663,128.418,-526.367,69.336,-27.344,90.820
1571287089.667,-58.594,-536.133,-145.020,-90.332,33.691
1571287089.671,-170.410,-398.926,4.395,-114.258,26.367
1571287089.675,-15.137,-183.105,105.957,-47.363,64.941
1571287089.678,159.668,-47.852,284.668,13.184,36.621
1571287089.682,53.223,-40.527,313.965,-23.438,18.066
1571287089.686,-105.469,-57.129,85.449,-36.621,6.348
1571287089.690,-13.184,-59.570,8.301,-1.953,-16.602
1571287089.694,180.176,-32.227,101.074,39.062,-22.949
1571287089.698,118.164,5.371,269.531,26.367,49.316
1571287089.702,-70.312,-88.379,226.562,-11.719,26.855
1571287089.706,-34.180,-234.863,-32.227,6.348,-29.785
1571287089.710,188.965,-308.105,-159.668,58.105,-27.344
1571287089.714,222.168,-342.773,237.793,55.664,1.465
1571287089.718,12.207,-410.156,327.148,20.508,27.344
1571287089.721,-47.852,-439.941,-18.555,-2.930,27.344
1571287089.725,134.277,-401.367,14.648,40.527,40.039
1571287089.729,250.000,-356.934,303.711,93.750,7.812
1571287089.733,78.613,-381.348,217.773,60.547,-27.344
1571287089.737,-52.734,-434.082,-92.773,14.648,-13.184
1571287089.741,85.938,-478.516,-206.055,33.203,28.320
1571287089.745,261.719,-494.629,-21.484,92.285,42.480
1571287089.749,145.996,-512.695,25.879,75.195,1.953
1571287089.753,-35.645,-504.395,-394.531,42.480,-30.762
1571287089.757,28.320,-466.309,-478.027,52.734,-26.855
1571287089.761,229.980,-502.441,88.867,92.773,-26.367
1571287089.764,215.820,-545.898,283.691,95.215,-31.738
1571287089.768,13.184,-522.461,73.730,67.383,0.000
1571287089.772,-10.742,-549.316,11.719,44.434,20.996
1571287089.776,178.711,-615.723,131.348,62.988,-40.527
1571287089.780,247.559,-608.398,254.395,99.121,-29.297
1571287089.784,65.430,-576.172,190.430,67.871,54.688
1571287089.788,-37.109,-604.980,-53.711,42.969,31.738
1571287089.792,104.980,-639.648,-91.309,61.035,-22.949
1571287089.796,229.980,-644.531,126.953,87.402,-5.859
1571287089.800,55.176,-642.090,-36.133,48.340,14.160
1571287089.803,-98.633,-629.883,-46.875,-6.348,28.809
1571287089.807,17.090,-638.672,168.457,5.371,51.270
1571287089.811,178.223,-612.305,229.492,32.227,14.160
1571287089.815,81.543,-504.395,249.512,9.766,-17.578
1571287089.819,-99.609,-431.152,178.223,-31.738,-25.391
1571287089.823,-67.871,-423.340,94.238,-44.922,-11.719
1571287089.827,111.816,-439.941,196.777,-0.977,-4.395
1571287089.831,98.145,-449.219,369.629,-9.766,28.320
1571287089.835,-100.098,-395.508,187.500,-63.477,66.406
1571287089.839,-119.141,-267.578,-22.461,-61.523,6.348
1571287089.843,70.801,-95.215,-20.996,-11.719,18.066
1571287089.846,158.203,80.566,178.223,24.902,44.922
1571287089.850,-18.555,207.031,439.941,-11.230,2.930
1571287089.854,-122.070,244.141,189.941,-33.691,-14.648
1571287089.858,42.480,304.688,145.508,4.883,-2.441
1571287089.862,190.430,428.223,535.156,43.457,-3.906
1571287089.866,36.133,461.426,668.457,14.648,25.879
1571287089.870,-121.582,532.227,397.461,-22.461,44.434
1571287089.874,-9.277,683.105,263.184,-0.488,18.066
1571287089.878,184.570,741.211,542.480,41.504,-11.230
1571287089.882,109.863,700.195,554.199,18.555,-22.949
1571287089.886,-89.355,671.387,238.281,-17.090,37.598
1571287089.889,-71.777,687.012,-25.391,-17.090,85.938
1571287089.893,133.789,836.426,313.965,12.207,74.219
1571287089.897,161.621,960.449,735.352,36.133,47.852
1571287089.901,-32.715,919.922,465.332,7.812,11.719
1571287089.905,-67.383,809.082,187.012,-6.836,-44.434
1571287089.909,125.977,700.195,266.113,22.461,-42.969
1571287089.913,233.887,601.074,467.773,56.641,20.996
1571287089.917,64.453,509.277,390.137,29.297,3.418
1571287089.921,-50.781,434.570,190.430,2.930,18.555
1571287089.925,100.098,441.406,239.258,39.551,22.949
1571287089.928,262.207,499.023,333.984,85.449,-37.598
1571287089.932,130.371,538.574,109.375,61.035,-16.602
1571287089.936,-43.457,522.949,-76.660,20.508,38.086
1571287089.940,48.340,453.125,135.742,33.691,-14.160
1571287089.944,233.398,396.973,345.703,66.895,-47.852
1571287089.948,164.062,334.961,371.094,36.133,-27.344
1571287089.952,-40.527,239.258,295.898,-26.367,39.062
1571287089.956,-37.598,96.191,211.914,-28.320,17.090
1571287089.960,148.438,-16.602,284.180,18.555,2.930
1571287089.964,193.848,-59.570,452.637,22.461,43.945
1571287089.968,8.789,-89.844,287.598,-28.320,-9.277
1571287089.971,-73.242,-93.750,181.152,-41.504,10.254
1571287089.975,87.891,-107.910,108.887,8.301,1.953
1571287089.979,192.383,-102.051,114.746,47.852,-13.672
1571287089.983,29.785,-87.402,296.387,-0.488,16.113
1571287089.987,-87.402,-68.359,236.816,-45.410,3.418
1571287089.991,37.598,-19.043,69.336,-12.207,13.184
1571287089.995,225.586,18.066,240.234,40.039,40.527
1571287089.999,131.348,-2.930,467.285,19.531,-3.906
1571287090.003,-81.055,-50.781,336.914,-21.973,7.324
1571287090.007,-40.039,-105.469,198.242,-44.434,58.105
1571287090.011,157.715,-181.641,327.637,-11.719,1.953
1571287090.014,141.113,-214.355,620.117,10.254,27.832
1571287090.018,-63.477,-186.523,510.742,-44.434,59.082
1571287090.022,-80.566,-134.277,144.531,-61.523,1.953
1571287090.026,122.559,-153.320,105.957,-14.648,-23.926
1571287090.030,213.867,-171.875,426.270,14.648,-18.066
1571287090.034,15.625,-132.812,505.859,-28.320,27.344
1571287090.038,-113.281,-117.188,38.574,-76.172,21.484
1571287090.042,56.152,-100.586,-23.926,-47.363,-0.977
1571287090.046,205.566,-114.258,437.500,14.648,19.531
1571287090.050,60.547,-148.438,400.879,2.441,-23.926
1571287090.053,-58.594,-192.383,153.809,-27.832,-60.547
1571287090.057,47.363,-150.391,316.406,-16.113,35.156
1571287090.061,210.938,-23.926,627.441,34.180,-4.883
1571287090.065,155.273,40.039,649.902,40.039,-47.363
1571287090.069,-18.555,59.570,344.727,-4.883,-3.906
1571287090.073,18.555,49.316,194.824,-12.695,12.695
1571287090.077,225.586,26.367,504.883,46.875,17.090
1571287090.081,221.191,18.066,548.340,50.781,-16.602
1571287090.085,-6.836,62.012,199.707,-28.809,-12.207
1571287090.089,-42.969,102.051,299.316,-45.410,29.297
1571287090.093,155.273,91.797,627.930,0.488,59.570
1571287090.096,237.793,45.410,591.309,26.367,-6.836
1571287090.100,40.039,8.789,458.496,-14.648,20.508
1571287090.104,-67.383,29.297,452.637,-55.176,42.480
1571287090.108,91.309,81.543,481.445,-19.531,14.648
1571287090.112,231.445,102.539,644.531,24.902,27.344
1571287090.116,74.219,108.887,541.504,-27.832,25.391
1571287090.120,-90.820,162.598,306.152,-85.449,31.250
1571287090.124,12.207,203.613,396.973,-60.547,46.875
1571287090.128,190.430,177.246,449.219,-4.883,34.668
1571287090.132,113.281,105.469,433.594,-17.578,-21.973
1571287090.136,-79.590,38.086,519.531,-53.711,1.953
1571287090.139,-66.895,22.949,391.113,-40.527,59.570
1571287090.143,121.094,-21.484,505.371,-13.672,42.480
1571287090.147,116.211,-100.098,708.984,-11.230,-6.836
1571287090.151,-126.465,-171.387,658.691,-60.059,36.133
1571287090.155,-203.613,-262.695,416.504,-72.754,80.566
1571287090.159,-49.316,-344.727,354.492,-23.438,13.184
1571287090.163,48.828,-383.789,509.277,2.441,-6.836
1571287090.167,-121.094,-369.629,483.887,-21.973,40.527
1571287090.171,-253.906,-292.480,252.930,-50.293,18.066
1571287090.175,-131.348,-194.824,53.223,-40.039,-14.160
1571287090.178,16.113,-186.035,494.629,2.930,16.113
1571287090.182,-114.746,-216.309,737.305,-17.578,-26.855
1571287090.186,-316.406,-186.035,474.609,-57.129,19.043
1571287090.190,-246.094,-154.785,424.805,-52.734,73.730
1571287090.194,-37.598,-185.059,605.957,-16.602,20.508
1571287090.198,-80.078,-215.332,764.648,-14.648,49.316
1571287090.202,-263.672,-223.633,509.766,-46.387,-0.488
1571287090.206,-235.840,-248.047,371.582,-35.645,49.316
1571287090.210,-31.738,-337.891,438.965,21.973,84.473
1571287090.214,20.996,-409.668,527.344,55.176,-6.836
1571287090.218,-151.855,-436.523,281.250,-4.883,19.531
1571287090.221,-203.613,-553.711,-55.664,-31.250,32.227
1571287090.225,-13.184,-605.957,269.043,21.973,14.648
1571287090.229,138.672,-604.492,515.625,47.852,14.648
1571287090.233,-17.578,-679.199,351.074,7.812,1.465
1571287090.237,-172.363,-708.984,184.082,-32.715,16.113
1571287090.241,-29.297,-682.129,285.156,-7.812,57.129
1571287090.245,162.109,-706.543,421.387,42.480,13.672
1571287090.249,70.312,-754.883,362.793,20.508,30.762
1571287090.253,-96.191,-728.027,236.328,-26.855,96.191
1571287090.257,-46.875,-644.531,173.828,-25.879,74.219
1571287090.261,145.508,-595.215,239.746,37.598,63.965
1571287090.264,135.254,-580.078,181.152,19.043,31.738
1571287090.268,-66.895,-576.172,151.367,-58.594,-32.227
1571287090.272,-104.980,-621.094,166.016,-81.055,-82.031
1571287090.276,72.754,-684.082,139.160,-50.781,-74.219
1571287090.280,144.531,-684.570,322.754,-4.395,-26.367
1571287090.284,-27.344,-667.969,385.742,-30.273,13.672
1571287090.288,-122.070,-639.648,211.426,-55.664,21.973
1571287090.292,12.695,-499.512,159.180,-39.062,-2.441
1571287090.296,178.711,-360.352,402.344,-7.324,0.488
1571287090.300,31.738,-323.242,469.727,-33.691,-18.555
1571287090.303,-144.531,-346.680,167.969,-87.402,27.832
1571287090.307,-33.203,-298.828,-99.609,-74.707,20.020
1571287090.311,155.273,-246.094,167.480,-25.879,-21.484
1571287090.315,92.285,-282.227,436.035,-15.625,-50.781
1571287090.319,-119.629,-304.199,315.430,-65.430,6.836
1571287090.323,-98.145,-232.910,11.719,-99.121,29.785
1571287090.327,132.812,-119.141,165.039,-31.738,-18.066
1571287090.331,144.043,-70.801,609.375,5.859,6.836
1571287090.335,-47.852,-47.363,414.062,-45.410,-21.973
1571287090.339,-77.637,10.742,177.734,-71.777,-6.836
1571287090.343,92.285,84.961,381.836,-34.668,19.043
1571287090.346,165.527,74.707,650.879,-11.230,-11.230
1571287090.350,-14.160,-5.859,455.078,-57.617,16.113
1571287090.354,-137.207,-33.203,-20.020,-85.449,32.227
1571287090.358,0.977,-40.527,157.227,-57.617,4.883
1571287090.362,168.457,-64.453,575.195,-6.348,4.395
1571287090.366,39.062,-75.195,472.656,-20.996,39.062
1571287090.370,-121.582,-96.680,292.480,-73.730,31.738
1571287090.374,-20.996,-136.230,368.652,-50.293,36.133
1571287090.378,158.203,-192.871,557.129,5.859,18.066
1571287090.382,89.355,-182.617,572.266,-13.672,14.648
1571287090.386,-117.188,-108.887,392.578,-41.016,26.855
1571287090.389,-101.074,-75.684,341.309,-57.617,22.949
1571287090.393,92.285,-103.027,555.664,-51.270,88.867
1571287090.397,74.707,-112.793,586.426,-44.434,71.777
1571287090.401,-133.301,-139.160,405.762,-104.980,83.008
1571287090.405,-179.199,-231.445,340.332,-96.680,76.172
1571287090.409,-40.039,-277.832,381.836,-35.645,-3.418
1571287090.413,16.602,-312.500,492.188,-49.805,12.695
1571287090.417,-198.730,-385.742,402.832,-120.117,35.645
1571287090.421,-350.586,-470.215,167.969,-150.391,-6.836
1571287090.425,-224.121,-513.672,202.637,-126.953,6.836
1571287090.428,-103.516,-524.414,286.133,-75.195,19.531
1571287090.432,-267.090,-561.035,373.535,-108.887,11.230
1571287090.436,-486.328,-612.793,384.277,-173.340,52.734
1571287090.440,-453.125,-629.395,235.840,-143.066,52.734
1571287090.444,-232.422,-637.207,266.602,-79.590,30.273
1571287090.448,-207.031,-635.254,347.168,-83.984,0.977
1571287090.452,-364.746,-624.512,305.664,-129.395,-16.602
1571287090.456,-338.867,-632.324,75.195,-127.441,-34.180
1571287090.460,-125.488,-628.418,-92.285,-78.613,-57.617
1571287090.464,-35.645,-688.965,348.633,-68.359,38.574
1571287090.468,-207.520,-775.391,395.020,-116.699,48.340
1571287090.471,-271.973,-805.176,80.566,-148.438,29.297
1571287090.475,-92.773,-813.965,132.324,-101.074,81.543
1571287090.479,51.758,-791.504,435.547,-35.156,48.340
1571287090.483,-85.938,-821.289,470.215,-90.820,12.207
1571287090.487,-204.590,-891.113,111.328,-138.184,-2.930
1571287090.491,-59.082,-945.801,-85.449,-105.469,-27.344
1571287090.495,141.602,-937.988,156.738,-43.945,-17.090
1571287090.499,76.660,-919.434,411.133,-35.645,0.977
1571287090.503,-101.562,-907.715,59.570,-73.242,35.156
1571287090.507,-58.594,-858.398,-212.891,-83.984,1.953
1571287090.511,158.691,-825.684,378.418,-25.879,70.312
1571287090.514,166.504,-848.145,562.500,-10.742,47.852
1571287090.518,-67.383,-834.961,241.211,-89.355,-25.391
1571287090.522,-124.512,-755.859,208.984,-128.418,49.805
1571287090.526,77.148,-732.910,326.172,-89.844,-38.086
1571287090.530,149.414,-736.816,451.660,-65.430,-38.086
1571287090.534,-45.898,-722.168,386.719,-119.141,64.941
1571287090.538,-128.418,-709.961,135.742,-138.672,15.625
1571287090.542,50.293,-689.941,146.484,-111.816,0.000
1571287090.546,207.520,-676.758,382.324,-51.270,55.176
1571287090.550,37.598,-643.066,272.461,-66.406,46.875
1571287090.553,-108.398,-591.309,229.980,-117.676,0.488
1571287090.557,18.066,-574.219,357.910,-88.867,-17.578
1571287090.561,211.426,-559.570,476.562,-20.996,16.113
1571287090.565,161.133,-531.250,542.480,-27.832,39.062
1571287090.569,-24.414,-484.863,424.316,-75.195,10.742
1571287090.573,0.977,-383.301,272.949,-60.547,-34.180
1571287090.577,209.961,-281.738,421.875,12.207,18.555
1571287090.581,232.910,-262.207,591.797,30.762,19.531
1571287090.585,33.203,-273.926,379.395,-26.367,8.301
1571287090.589,-8.789,-246.582,136.230,-36.621,15.137
1571287090.593,167.969,-211.426,85.449,6.836,24.414
1571287090.596,264.160,-191.895,371.094,34.180,93.750
1571287090.600,102.539,-152.832,671.387,0.488,72.754
1571287090.604,0.977,-106.445,533.203,-10.742,56.152
1571287090.608,144.043,-86.426,444.336,27.344,43.457
1571287090.612,293.457,-70.801,697.754,78.613,4.883
1571287090.616,170.898,-57.129,795.898,54.688,-19.043
1571287090.620,9.766,-77.637,551.758,2.441,32.227
1571287090.624,90.332,-119.629,362.305,1.465,38.574
1571287090.628,278.809,-138.672,538.086,59.082,0.977
1571287090.632,217.773,-166.992,571.289,62.988,22.461
1571287090.636,28.809,-192.871,209.961,16.113,28.809
1571287090.639,42.969,-190.918,-180.664,-8.301,-35.645
1571287090.643,245.605,-184.082,63.965,43.457,-35.645
1571287090.647,292.969,-187.500,518.066,91.309,31.738
1571287090.651,89.355,-190.430,404.785,30.273,52.734
1571287090.655,27.344,-211.914,254.883,-4.883,71.289
1571287090.659,210.938,-236.328,468.262,49.805,83.984
1571287090.663,317.871,-245.605,678.223,88.867,26.855
1571287090.667,131.348,-270.508,555.664,17.578,16.602
1571287090.671,-17.578,-270.020,372.559,-39.062,59.082
1571287090.675,110.840,-263.672,390.137,-17.578,22.949
1571287090.678,277.344,-248.047,469.238,39.551,-36.621
1571287090.682,172.852,-202.637,291.504,28.320,6.348
1571287090.686,3.906,-174.316,70.801,-11.230,30.273
1571287090.690,73.730,-138.672,258.789,-5.859,-21.973
1571287090.694,276.855,-103.516,548.828,21.484,13.184
1571287090.698,248.047,-93.262,586.426,12.207,4.883
1571287090.702,46.875,-91.309,367.676,-17.578,-15.137
1571287090.706,26.855,-87.891,286.133,-10.742,-18.555
1571287090.710,212.402,-86.914,402.832,46.875,-29.785
1571287090.714,280.273,-104.980,537.598,77.148,-1.953
1571287090.718,92.773,-135.742,468.750,12.207,-4.883
1571287090.721,10.254,-166.016,322.266,-22.461,33.691
1571287090.725,184.570,-195.801,159.180,18.555,38.086
1571287090.729,305.664,-218.750,256.836,53.711,12.695
1571287090.733,136.719,-239.746,420.410,18.066,9.766
1571287090.737,0.000,-218.262,315.918,-22.461,27.832
1571287090.741,103.516,-181.641,141.602,5.859,21.484
1571287090.745,282.715,-163.086,31.738,52.734,-49.316
1571287090.749,201.660,-159.668,351.074,18.555,4.395
1571287090.753,2.441,-186.035,377.930,-28.320,1.465
1571287090.757,42.969,-221.680,148.438,-7.812,-1.465
1571287090.761,249.512,-245.605,241.211,57.129,27.832
1571287090.764,251.953,-262.695,510.742,54.199,-9.766
1571287090.768,46.875,-293.457,480.469,-4.883,21.973
1571287090.772,6.348,-316.895,169.434,-13.672,48.828
1571287090.776,199.707,-317.871,96.680,27.832,-9.277
1571287090.780,284.668,-316.406,403.809,61.523,-42.969
1571287090.784,89.355,-333.496,546.387,21.484,38.086
1571287090.788,-27.832,-334.961,63.965,-35.156,33.691
1571287090.792,117.676,-295.898,-35.156,-27.344,-2.441
1571287090.796,263.672,-282.715,470.703,20.020,-6.348
1571287090.800,99.609,-299.805,507.812,-2.930,32.227
1571287090.803,-76.660,-296.875,193.848,-59.570,19.531
1571287090.807,24.902,-268.066,144.043,-28.320,-4.883
1571287090.811,227.051,-239.746,434.082,30.273,46.875
1571287090.815,173.828,-236.328,393.066,21.973,40.527
1571287090.819,-21.484,-232.422,15.137,-11.230,-13.672
1571287090.823,4.395,-227.051,-115.723,-17.578,-11.230
1571287090.827,216.309,-218.750,143.555,31.250,-31.250
1571287090.831,233.398,-200.684,255.859,42.480,-39.062
1571287090.835,24.902,-206.543,-152.832,-25.391,-3.906
1571287090.839,-25.879,-190.430,-168.457,-43.457,32.715
1571287090.843,155.762,-157.715,127.441,28.809,38.574
1571287090.846,261.230,-143.555,210.938,81.055,23.438
1571287090.850,89.844,-78.613,157.715,21.973,50.293
1571287090.854,-28.320,23.926,43.457,-20.508,22.461
1571287090.858,123.535,69.824,39.551,24.902,2.441
1571287090.862,291.992,104.004,193.848,81.055,12.207
1571287090.866,166.504,149.902,112.793,46.875,9.766
1571287090.870,-8.789,197.754,-106.445,9.766,65.918
1571287090.874,62.988,289.062,-145.020,24.902,7.324
1571287090.878,246.094,336.914,-170.410,48.340,-42.480
1571287090.882,202.148,368.652,-108.398,35.645,8.301
1571287090.886,0.488,437.012,85.938,-7.324,48.340
1571287090.889,-0.977,420.898,-76.660,8.301,38.086
1571287090.893,194.824,366.211,-43.945,70.801,15.625
1571287090.897,242.188,360.352,185.547,74.707,-32.227
1571287090.901,52.246,352.539,132.324,12.695,-47.363
1571287090.905,-19.043,300.293,-87.402,-15.137,23.926
1571287090.909,145.508,248.535,-147.461,34.668,9.766
1571287090.913,250.000,242.188,-20.508,83.008,2.441
1571287090.917,85.938,303.223,-31.738,18.066,11.230
1571287090.921,-60.547,396.973,-221.680,-35.156,1.953
1571287090.925,49.316,459.473,-433.105,-10.742,47.852
1571287090.928,228.516,466.797,-147.461,41.504,39.062
1571287090.932,136.230,422.852,169.434,10.742,27.344
1571287090.936,-42.480,378.906,-24.902,-37.598,57.617
1571287090.940,7.324,354.004,-181.641,-3.906,27.344
1571287090.944,192.871,333.008,83.496,43.457,0.000
1571287090.948,176.270,330.566,264.160,36.133,16.602
1571287090.952,-16.113,327.148,24.902,-1.953,0.488
1571287090.956,-41.016,334.473,-205.566,-18.555,-51.270
1571287090.960,135.742,408.691,-184.082,25.391,-70.312
1571287090.964,197.754,499.023,150.879,48.828,27.832
1571287090.968,12.695,544.922,-43.945,-7.812,3.418
1571287090.971,-74.707,662.598,-375.488,-25.391,-46.387
1571287090.975,83.008,880.859,101.562,20.508,16.113
1571287090.979,198.242,949.707,447.266,63.477,-4.395
1571287090.983,45.898,873.535,262.695,2.930,-51.270
1571287090.987,-84.473,815.918,45.410,-38.086,-34.668
1571287090.991,21.973,809.082,222.168,5.371,31.250
1571287090.995,196.289,837.402,435.059,61.035,36.133
1571287090.999,126.465,835.938,428.223,41.504,-4.395
1571287091.003,-55.664,770.508,316.895,-35.645,7.324
1571287091.007,-46.387,648.926,143.066,-38.086,38.574
1571287091.011,141.602,550.781,77.637,31.738,-14.160
1571287091.014,170.410,521.973,40.039,31.250,3.906
1571287091.018,-29.785,465.820,41.504,-40.039,85.938
1571287091.022,-75.195,355.957,-76.660,-66.406,41.504
1571287091.026,90.820,314.453,-261.719,-3.418,41.016
1571287091.030,150.391,299.316,-311.035,26.855,32.715
1571287091.034,-28.809,229.492,-602.539,-46.875,-45.898
1571287091.038,-150.391,114.746,-944.824,-108.887,2.930
1571287091.042,-59.082,49.805,-968.750,-103.516,26.367
1571287091.046,71.777,44.922,-963.379,-69.336,-44.922
1571287091.050,-49.805,26.855,-971.191,-121.094,-9.766
1571287091.053,-236.328,-4.883,-970.215,-188.477,32.227
1571287091.057,-182.617,-30.762,-970.215,-175.293,-31.738
1571287091.061,8.789,-41.504,-970.215,-105.469,-27.832
1571287091.065,-59.570,-32.715,-970.215,-141.113,-9.277
1571287091.069,-274.902,-39.062,-970.215,-227.539,-36.621
1571287091.073,-245.117,-72.266,-970.215,-219.238,13.184
1571287091.077,-36.621,-83.496,-970.215,-156.738,40.039
1571287091.081,-4.883,-78.613,-970.215,-138.672,111.328
1571287091.085,-208.496,-67.383,-970.215,-209.961,45.410
1571287091.089,-258.301,-85.449,-970.215,-219.727,-20.996
1571287091.093,-75.684,-153.320,-970.215,-156.250,3.418
1571287091.096,13.672,-222.656,-971.680,-140.137,-19.531
1571287091.100,-143.555,-268.555,-954.590,-191.406,56.152
1571287091.104,-251.465,-337.402,-984.375,-220.215,56.152
1571287091.108,-96.191,-382.324,-863.770,-157.715,-21.973
1571287091.112,78.613,-368.164,-300.781,-78.125,16.602
1571287091.116,-38.086,-379.395,-130.371,-116.699,53.223
1571287091.120,-190.430,-418.457,-358.887,-164.551,36.133
1571287091.124,-95.215,-431.152,-105.957,-120.117,26.855
1571287091.128,105.957,-425.781,367.676,-27.832,27.832
1571287091.132,82.520,-408.691,432.129,-12.695,-2.930
1571287091.136,-84.473,-409.180,295.898,-70.801,-13.672
1571287091.139,-59.082,-393.066,443.848,-72.266,4.883
1571287091.143,154.297,-328.613,692.871,3.418,13.184
1571287091.147,225.098,-291.016,840.820,57.129,29.297
1571287091.151,54.688,-299.316,682.129,13.184,5.859
1571287091.155,-15.625,-316.895,603.516,-21.973,12.207
1571287091.159,144.531,-328.613,811.035,26.367,-19.531
1571287091.163,273.926,-360.840,904.297,91.797,11.719
1571287091.167,137.207,-395.996,910.156,72.754,76.172
1571287091.171,14.648,-415.039,998.535,39.551,61.523
1571287091.175,127.441,-451.660,973.633,87.891,62.012
1571287091.178,302.246,-464.355,996.094,164.551,62.500
1571287091.182,218.262,-483.398,-1000.000,136.230,13.672
1571287091.186,52.246,-541.016,993.652,67.383,-28.320
1571287091.190,106.445,-605.469,887.207,66.406,-26.855
1571287091.194,298.828,-630.371,883.789,142.578,19.531
1571287091.198,276.855,-619.629,989.746,142.578,8.789
1571287091.202,69.336,-643.555,974.121,61.523,-47.363
1571287091.206,53.711,-640.625,792.480,42.969,15.625
1571287091.210,250.488,-619.629,634.277,115.723,54.688
1571287091.214,313.477,-580.566,884.766,137.207,-13.184
1571287091.218,129.395,-594.727,-950.195,54.688,45.410
1571287091.221,40.527,-644.531,867.676,20.020,52.246
1571287091.225,191.895,-613.281,852.051,66.406,21.973
1571287091.229,332.520,-695.312,-991.699,133.789,35.645
1571287091.233,185.547,-787.109,-985.352,104.980,13.184
1571287091.237,26.855,-741.211,918.945,41.992,7.812
1571287091.241,116.699,-710.938,840.332,58.594,19.531
1571287091.245,273.926,-594.727,949.707,94.727,24.902
1571287091.249,189.941,-395.020,-962.402,49.805,48.340
1571287091.253,-2.930,-174.316,865.234,-2.930,44.434
1571287091.257,7.812,56.152,818.359,-4.395,37.109
1571287091.261,201.660,347.168,-986.816,72.266,19.043
1571287091.264,226.074,525.391,-999.512,74.707,31.738
1571287091.268,20.020,148.438,993.164,-20.020,6.836
1571287091.272,-38.574,-529.785,-1000.000,-26.367,-17.578
1571287091.276,137.695,-932.129,999.512,35.156,-16.113
1571287091.280,223.145,-966.797,999.512,67.383,-57.129
1571287091.284,51.270,-960.449,999.512,-6.836,-27.344
1571287091.288,-58.105,-972.656,997.070,-55.176,3.418
1571287091.292,81.055,-972.656,-1000.000,4.395,-30.762
1571287091.296,227.539,-945.801,-999.023,81.055,-10.742
1571287091.300,80.566,-994.629,959.473,13.672,7.324
1571287091.303,-90.332,-752.441,978.516,-83.984,23.926
1571287091.307,-12.695,58.594,-993.652,-50.781,17.578
1571287091.311,146.484,808.105,996.582,9.766,-34.668
1571287091.315,86.426,-999.023,-1000.000,-35.645,-5.859
1571287091.319,-96.191,988.770,999.512,-111.328,35.156
1571287091.323,-80.078,764.648,-1000.000,-96.191,52.246
1571287091.327,61.523,196.777,995.117,-44.434,-12.695
1571287091.331,59.082,-146.973,-993.164,-56.641,0.488
1571287091.335,-118.164,-321.289,957.520,-110.352,37.598
1571287091.339,-171.875,-578.125,901.367,-129.883,28.320
1571287091.343,1.953,-804.688,731.934,-79.102,26.855
1571287091.346,112.793,-964.355,766.113,-33.691,42.969
1571287091.350,-48.828,-955.078,-979.004,-78.613,28.809
1571287091.354,-174.316,-650.391,906.250,-130.859,-13.184
1571287091.358,-38.574,-415.039,870.117,-81.543,4.883
1571287091.362,127.441,-381.836,981.934,18.555,31.250
1571287091.366,30.273,-311.035,-970.215,-20.508,71.777
1571287091.370,-125.977,-320.801,911.133,-94.727,30.273
1571287091.374,-63.965,-241.699,815.430,-59.082,8.301
1571287091.378,119.629,-184.082,973.145,6.348,63.477
1571287091.382,107.422,-246.094,-980.469,0.000,21.973
1571287091.386,-86.914,-162.598,792.969,-58.594,-0.977
1571287091.389,-98.145,-52.246,615.723,-65.918,12.207
1571287091.393,105.957,-140.137,857.910,21.484,12.695
1571287091.397,166.016,-108.398,-944.336,44.922,84.961
1571287091.401,-29.785,88.867,883.789,-22.949,13.184
1571287091.405,-110.840,108.887,718.750,-40.527,-38.574
1571287091.409,48.340,252.441,956.543,9.277,50.781
1571287091.413,173.828,797.852,-980.957,66.406,38.086
1571287091.417,41.992,-976.074,986.816,31.250,11.719
1571287091.421,-93.262,981.934,-998.047,-24.414,24.902
1571287091.425,19.043,-999.512,994.141,0.977,-15.137
1571287091.428,203.613,997.070,-991.211,81.543,-22.461
1571287091.432,117.188,986.328,970.215,57.617,40.527
1571287091.436,-65.918,-997.070,879.395,-13.672,-13.672
1571287091.440,-17.090,729.492,942.383,11.719,-31.738
1571287091.444,158.691,46.387,-992.676,69.824,17.090
1571287091.448,141.602,-337.402,978.516,67.871,-32.227
1571287091.452,-42.480,-386.230,810.059,5.859,-27.832
1571287091.456,-67.871,-362.305,644.531,-18.066,11.719
1571287091.460,111.816,-165.039,736.328,47.852,55.176
1571287091.464,204.102,-25.879,856.445,85.449,50.293
1571287091.468,37.598,-168.945,808.105,11.719,37.109
1571287091.471,-72.266,-495.117,637.695,-44.434,78.125
1571287091.475,68.359,-686.523,437.012,9.766,75.684
1571287091.479,214.844,-632.812,298.828,101.074,13.184
1571287091.483,94.727,-707.031,467.773,52.734,-9.277
1571287091.487,-49.316,-678.223,563.965,-3.418,16.113
1571287091.491,37.598,-735.352,324.707,43.457,-19.531
1571287091.495,232.422,-989.746,337.891,119.629,-11.230
1571287091.499,192.383,-966.797,598.633,94.238,29.297
1571287091.503,-13.184,-965.332,448.242,0.977,-27.832
1571287091.507,0.977,-971.191,204.102,4.883,-19.531
1571287091.511,199.707,-970.215,370.605,77.637,40.527
1571287091.514,211.426,-970.215,650.879,76.172,55.664
1571287091.518,10.742,-969.727,537.109,3.906,52.734
1571287091.522,-14.648,-970.703,156.250,9.277,-1.953
1571287091.526,204.590,-966.797,143.555,119.141,33.691
1571287091.530,310.059,-959.961,445.801,174.805,34.180
1571287091.534,116.699,-916.992,488.281,92.773,29.785
1571287091.538,41.504,-786.621,161.621,61.035,19.043
1571287091.542,223.633,-654.785,74.219,164.062,3.906
1571287091.546,377.930,-477.051,369.141,248.535,50.781
1571287091.550,264.160,-330.566,278.320,212.402,35.156
1571287091.553,113.281,-270.508,-289.551,146.973,8.789
1571287091.557,208.008,-164.551,-358.398,177.246,2.441
1571287091.561,432.617,-68.359,126.953,280.273,44.922
1571287091.565,391.602,-48.340,229.492,270.996,75.684
1571287091.569,172.363,0.000,-159.668,176.270,26.855
1571287091.573,157.715,76.660,-403.320,155.762,-8.789
1571287091.577,311.035,77.148,-183.105,202.637,-55.176
1571287091.581,346.191,70.801,-28.809,222.168,-73.242
1571287091.585,169.434,74.219,-360.840,148.438,-37.598
1571287091.589,97.168,113.770,-335.938,92.773,8.301
1571287091.593,250.000,138.184,-12.695,138.184,32.715
1571287091.596,364.746,104.004,33.203,187.988,16.113
1571287091.600,197.754,64.941,-62.012,122.559,40.527
1571287091.604,44.434,90.332,-219.238,66.406,33.691
1571287091.608,164.062,149.902,-331.055,110.840,57.129
1571287091.612,326.660,163.086,-286.621,180.176,28.320
1571287091.616,219.727,152.832,-350.098,127.930,-25.391
1571287091.620,42.969,155.273,-583.496,41.504,-24.414
1571287091.624,90.332,173.340,-626.465,68.848,-48.828
1571287091.628,238.281,232.422,-627.930,134.766,-67.383
1571287091.632,227.051,409.180,-508.789,114.746,3.418
1571287091.636,65.918,408.691,-271.973,59.082,13.184
1571287091.639,24.414,298.828,-377.441,44.434,-2.930
1571287091.643,198.730,354.004,-333.984,105.957,45.410
1571287091.647,278.320,541.504,-43.457,165.039,25.879
1571287091.651,93.750,736.328,42.480,97.656,26.367
1571287091.655,-4.395,592.285,-243.164,18.555,2.441
1571287091.659,154.785,295.410,-405.762,66.406,-39.062
1571287091.663,251.953,259.766,-225.098,132.324,-12.207
1571287091.667,97.656,267.090,-203.125,80.078,1.953
1571287091.671,-33.203,62.012,-407.715,30.273,56.152
1571287091.675,52.734,-170.410,-473.633,67.383,29.785
1571287091.678,209.473,-386.230,-158.691,138.672,13.184
1571287091.682,128.418,-574.219,54.688,96.680,72.754
1571287091.686,-54.688,-763.184,-329.102,-12.207,41.504
1571287091.690,-23.926,-959.473,-803.223,-9.766,-7.812
1571287091.694,173.340,-689.941,-410.645,77.148,4.395
1571287091.698,179.688,-106.445,109.863,85.938,27.832
1571287091.702,-24.414,308.594,-3.418,-17.578,-9.277
1571287091.706,-59.082,425.781,-112.793,-38.086,-11.719
1571287091.710,122.559,467.285,18.555,46.387,38.086
1571287091.714,184.082,640.137,290.039,78.125,25.879
1571287091.718,29.785,779.297,188.965,-6.836,32.715
1571287091.721,-71.289,917.480,-79.102,-55.664,49.316
1571287091.725,48.828,922.363,292.969,-7.812,35.156
1571287091.729,199.707,825.195,653.320,65.430,42.480
1571287091.733,93.262,915.527,547.852,33.691,24.902
1571287091.737,-54.688,-990.234,391.113,-25.391,4.395
1571287091.741,4.883,995.605,510.742,7.324,32.227
1571287091.745,186.523,998.047,610.352,84.961,-18.555
1571287091.749,157.715,999.512,681.152,82.031,0.488
1571287091.753,-24.414,999.512,651.855,-1.953,64.453
1571287091.757,-0.977,999.512,472.168,-11.719,74.219
1571287091.761,194.824,999.512,426.270,53.711,43.945
1571287091.764,198.242,999.512,417.480,57.617,39.062
1571287091.768,9.766,999.512,456.055,-9.766,23.438
1571287091.772,-47.852,999.512,510.254,-9.766,2.441
1571287091.776,96.191,999.512,440.430,38.086,33.203
1571287091.780,219.238,999.512,571.289,92.773,31.250
1571287091.784,92.285,999.512,679.199,65.430,42.480
1571287091.788,-24.902,999.512,505.859,-1.465,68.359
1571287091.792,96.191,999.512,347.168,2.930,43.945
1571287091.796,266.113,999.512,543.457,64.941,62.500
1571287091.800,165.527,999.512,717.285,40.039,96.191
1571287091.803,-17.578,999.512,393.066,-20.020,33.203
1571287091.807,41.504,999.512,-31.738,7.324,-24.902
1571287091.811,236.816,999.512,118.164,82.031,18.555
1571287091.815,209.473,999.512,568.359,65.918,1.465
1571287091.819,15.137,999.512,505.371,8.301,-10.254
1571287091.823,4.395,999.512,250.488,-0.488,14.648
1571287091.827,195.801,999.512,342.773,62.500,4.883
1571287091.831,257.324,998.047,567.383,81.543,-2.930
1571287091.835,98.633,-1000.000,323.242,17.090,5.859
1571287091.839,20.996,997.070,20.996,-17.578,4.395
1571287091.843,161.133,959.473,160.645,33.691,-15.137
1571287091.846,272.949,925.293,517.090,116.211,44.922
1571287091.850,133.301,905.762,393.066,87.402,46.875
1571287091.854,2.930,908.691,-124.023,17.090,-8.789
1571287091.858,97.656,902.832,18.555,23.438,11.719
1571287091.862,248.535,882.324,539.551,77.148,36.621
1571287091.866,162.598,921.387,495.605,57.129,7.812
1571287091.870,-2.441,902.344,212.891,0.488,-17.090
1571287091.874,46.875,795.898,230.957,15.625,13.672
1571287091.878,236.328,679.688,381.836,96.191,24.414
1571287091.882,229.492,575.684,341.797,111.328,17.578
1571287091.886,35.156,490.723,109.863,34.668,7.812
1571287091.889,26.855,401.855,-74.707,3.906,11.230
1571287091.893,235.352,316.406,14.648,89.844,46.387
1571287091.897,302.246,199.707,134.277,134.277,62.500
1571287091.901,105.469,-26.855,-108.398,55.664,32.227
1571287091.905,-0.488,-260.254,-255.371,17.090,29.297
1571287091.909,150.391,-349.609,-216.309,79.590,31.738
1571287091.913,275.879,-671.875,-216.797,128.906,19.043
1571287091.917,129.395,-976.562,-302.246,61.523,33.203
1571287091.921,-2.441,-964.844,-438.477,10.742,34.668
1571287091.925,78.125,-964.355,-579.102,50.293,-14.648
1571287091.928,232.910,-971.680,-619.629,130.371,-25.879
1571287091.932,169.922,-970.215,-443.359,94.238,20.996
1571287091.936,1.465,-970.215,-426.758,12.207,5.371
1571287091.940,38.574,-970.215,-618.164,28.809,-19.043
1571287091.944,224.609,-970.215,-558.105,111.816,15.137
1571287091.948,239.258,-970.215,-351.074,124.512,20.020
1571287091.952,54.199,-970.215,-353.027,45.410,25.879
1571287091.956,17.090,-970.215,-525.879,23.926,37.109
1571287091.960,185.547,-970.215,-574.707,98.145,55.176
1571287091.964,267.578,-970.215,-216.309,126.465,-7.324
1571287091.968,108.887,-970.215,-31.250,37.109,-51.758
1571287091.971,5.371,-970.215,-262.695,-2.441,-1.953
1571287091.975,139.160,-970.215,-235.840,60.547,37.598
1571287091.979,285.156,-970.215,85.449,135.742,5.859
1571287091.983,169.922,-970.215,112.793,83.984,-47.852
1571287091.987,16.602,-970.215,-175.293,2.930,-62.500
1571287091.991,102.539,-970.215,-361.328,27.344,-49.316
1571287091.995,271.973,-970.703,-208.008,110.840,-27.832
1571287091.999,219.727,-964.844,34.180,98.633,-16.113
1571287092.003,34.668,-976.074,-199.707,17.578,59.082
1571287092.007,48.828,-928.223,-420.898,9.766,84.473
1571287092.011,229.492,-762.695,66.406,80.566,70.312
1571287092.014,252.441,-637.207,320.312,113.770,34.180
1571287092.018,74.707,-557.129,118.164,39.062,13.672
1571287092.022,4.395,-458.496,-40.039,-3.906,-20.996
1571287092.026,157.715,-366.699,113.281,62.012,-18.066
1571287092.030,265.137,-271.973,316.895,130.371,25.879
1571287092.034,111.816,-164.062,224.609,64.941,15.137
1571287092.038,6.348,-68.359,-56.641,-12.207,10.254
1571287092.042,135.254,16.113,-38.086,40.039,51.270
1571287092.046,274.902,66.895,171.387,119.629,35.156
1571287092.050,190.430,133.301,-19.043,70.801,0.000
1571287092.053,35.156,182.129,-62.988,6.836,-2.930
1571287092.057,70.312,159.668,37.109,36.621,19.531
1571287092.061,233.887,202.148,-71.289,106.445,-11.230
1571287092.065,202.637,300.293,-3.418,86.426,-19.531
1571287092.069,32.227,376.953,147.461,8.301,4.395
1571287092.073,25.879,485.840,71.777,-20.508,-7.812
1571287092.077,187.012,676.758,126.465,18.066,14.160
1571287092.081,257.812,843.750,393.555,51.758,56.152
1571287092.085,79.102,944.336,265.625,-6.348,43.457
1571287092.089,-24.414,997.070,55.664,-46.387,5.859
1571287092.093,123.047,998.535,-53.711,14.648,3.906
1571287092.096,233.887,999.023,28.320,71.289,30.762
1571287092.100,96.680,994.141,337.402,15.137,14.648
1571287092.104,-36.133,-995.117,204.590,-57.129,1.953
1571287092.108,65.430,953.125,8.301,-11.719,6.348
1571287092.112,229.004,781.738,236.816,74.707,49.316
1571287092.116,139.160,625.977,352.539,39.062,95.703
1571287092.120,-24.902,523.926,-69.336,-28.809,-0.977
1571287092.124,14.648,464.355,-238.281,-17.578,-13.672
1571287092.128,170.898,418.457,19.043,61.523,16.113
1571287092.132,160.156,397.461,106.445,53.711,8.301
1571287092.136,-11.719,440.430,-132.324,-23.926,16.113
1571287092.139,-40.039,575.684,-490.723,-23.438,-9.277
1571287092.143,123.047,727.051,-271.484,42.480,-22.949
1571287092.147,204.102,854.004,282.227,80.566,36.621
1571287092.151,51.270,973.633,129.395,19.043,20.020
1571287092.155,-57.129,-999.023,-172.852,-16.113,-8.789
1571287092.159,82.520,996.582,-0.977,44.922,6.836
1571287092.163,241.699,999.512,231.934,110.840,-38.574
1571287092.167,117.676,999.512,248.535,66.406,8.789
1571287092.171,-22.461,992.676,-21.484,-20.020,4.883
1571287092.175,46.387,-990.234,-62.500,6.836,7.324
1571287092.178,186.035,938.477,179.199,97.656,65.918
1571287092.182,134.766,741.211,-39.062,66.406,13.184
1571287092.186,-26.367,752.930,-260.742,-19.043,42.969
1571287092.190,-4.883,937.500,-71.777,-33.203,42.480
1571287092.194,170.898,-996.582,131.348,55.176,21.973
1571287092.198,197.266,995.117,195.312,87.891,21.484
1571287092.202,12.207,998.535,95.703,17.578,16.602
1571287092.206,-43.457,999.512,7.812,-6.348,23.926
1571287092.210,129.883,999.512,24.902,64.941,19.043
1571287092.214,223.633,999.512,198.730,125.977,53.223
1571287092.218,62.012,999.512,218.262,56.152,31.738
1571287092.221,-36.133,999.512,43.457,24.414,-18.555
1571287092.225,78.613,999.512,-128.906,85.449,-20.996
1571287092.229,213.379,999.512,-229.004,138.672,-7.812
1571287092.233,132.812,999.512,-54.688,107.422,-25.391
1571287092.237,7.324,999.512,59.570,9.277,-17.090
1571287092.241,53.711,999.512,-179.199,0.488,-49.316
1571287092.245,212.891,999.512,-70.801,96.191,-23.438
1571287092.249,209.473,999.512,214.844,109.863,0.000
1571287092.253,22.461,999.512,115.234,28.809,-0.977
1571287092.257,-13.184,999.512,-143.066,0.488,-10.254
1571287092.261,149.414,999.512,-71.777,75.684,2.930
1571287092.264,210.449,999.512,253.418,95.703,80.078
1571287092.268,36.621,999.512,203.613,16.602,86.426
1571287092.272,-56.641,999.023,-208.008,-31.738,61.523
1571287092.276,67.383,-999.512,-349.609,12.695,27.344
1571287092.280,166.504,993.652,50.293,85.938,12.207
1571287092.284,41.992,993.164,134.766,32.227,32.715
1571287092.288,-95.703,-999.512,-310.547,-35.156,1.953
1571287092.292,10.254,999.023,-286.133,10.742,9.766
1571287092.296,179.199,999.512,136.719,97.168,-16.113
1571287092.300,86.426,999.512,177.734,61.035,-45.898
1571287092.303,-62.012,999.512,-80.566,-29.297,-56.641
1571287092.307,-20.508,999.512,-78.125,-6.836,-3.906
1571287092.311,143.555,999.512,208.496,84.961,44.434
1571287092.315,132.324,999.512,319.336,95.215,32.715
1571287092.319,-47.363,998.535,58.594,42.969,22.949
1571287092.323,-60.059,-999.512,-117.188,-8.301,43.945
1571287092.327,120.117,996.094,127.930,5.371,47.852
1571287092.331,191.406,965.820,249.023,49.805,-3.418
1571287092.335,27.344,951.660,-83.496,-20.020,25.391
1571287092.339,-46.387,818.848,-148.438,-56.152,24.902
1571287092.343,93.262,579.590,-21.973,41.504,-10.742
1571287092.346,202.148,431.152,86.914,89.355,15.137
1571287092.350,88.379,367.676,169.922,20.020,48.340
1571287092.354,-37.109,273.926,102.051,-22.949,37.598
1571287092.358,45.898,191.406,112.305,5.371,85.449
1571287092.362,223.145,243.164,219.727,99.609,71.289
1571287092.366,150.879,266.602,170.410,98.633,9.766
1571287092.370,-44.922,123.535,4.395,18.066,40.039
1571287092.374,-4.883,-62.012,-132.324,16.602,37.109
1571287092.378,181.641,-87.402,-227.539,97.168,17.578
1571287092.382,194.336,-18.555,-115.723,117.676,-11.230
1571287092.386,7.812,-20.020,137.207,15.137,-2.930
1571287092.389,-10.254,-9.277,75.195,-5.859,35.156
1571287092.393,172.363,71.777,60.059,85.938,7.324
1571287092.397,217.773,189.453,318.359,123.047,42.969
1571287092.401,54.688,258.789,330.566,54.688,26.855
1571287092.405,-17.578,324.219,185.547,14.160,1.465
1571287092.409,112.305,434.570,252.930,75.684,72.266
1571287092.413,255.371,586.914,456.543,142.578,104.492
1571287092.417,143.555,748.047,501.953,93.750,116.211
1571287092.421,-35.645,725.586,269.043,38.086,39.062
1571287092.425,31.738,640.137,-58.105,56.641,20.508
1571287092.428,239.746,704.102,213.379,147.461,21.484
1571287092.432,211.426,777.344,589.844,151.367,2.930
1571287092.436,-5.371,833.496,365.723,43.945,46.875
1571287092.440,-8.789,880.371,141.113,32.227,29.297
1571287092.444,199.219,935.547,306.152,116.211,1.953
1571287092.448,247.070,997.559,422.852,124.023,-25.391
1571287092.452,32.227,-1000.000,171.875,21.973,-56.641
1571287092.456,-41.504,997.559,-105.469,-9.277,-45.410
1571287092.460,147.461,-1000.000,-47.852,76.660,2.930
1571287092.464,236.816,999.512,313.965,135.742,57.617
1571287092.468,54.688,999.512,130.371,68.359,14.160
1571287092.471,-62.500,999.512,-229.004,-3.418,14.160
1571287092.475,74.219,999.512,69.336,36.621,35.645
1571287092.479,230.469,999.512,318.359,97.656,-6.836
1571287092.483,132.324,999.512,289.551,60.547,-0.977
1571287092.487,-13.184,999.512,193.848,4.883,42.480
1571287092.491,52.734,999.512,128.906,22.949,-16.113
1571287092.495,225.098,999.512,235.352,111.816,-20.020
1571287092.499,203.125,999.512,353.027,123.047,19.531
1571287092.503,25.391,999.512,250.000,64.453,-12.695
1571287092.507,15.625,999.512,53.223,57.129,5.371
1571287092.511,180.176,999.512,18.555,107.910,3.906
1571287092.514,216.309,999.512,60.547,115.234,22.461
1571287092.518,31.738,-1000.000,125.000,43.945,-19.531
1571287092.522,-36.133,995.117,251.465,29.297,-39.062
1571287092.526,148.438,-992.676,325.684,96.191,48.828
1571287092.530,264.648,963.379,447.266,154.297,-0.977
1571287092.534,109.863,902.832,526.367,112.305,-10.254
1571287092.538,-29.297,893.066,372.559,71.289,31.250
1571287092.542,67.871,939.941,224.609,97.168,5.859
1571287092.546,230.469,-995.117,512.695,150.879,66.895
1571287092.550,160.645,997.559,761.230,124.512,53.711
1571287092.553,-23.926,998.535,471.680,54.688,-11.719
1571287092.557,-3.418,999.512,357.910,56.641,18.066
1571287092.561,195.801,999.512,735.352,141.602,42.480
1571287092.565,207.031,999.512,971.680,140.625,15.625
1571287092.569,17.578,999.512,863.281,57.129,26.855
1571287092.573,-9.766,999.512,465.332,44.434,32.227
1571287092.577,162.598,999.512,496.094,111.328,83.008
1571287092.581,207.031,999.512,999.512,135.742,63.477
1571287092.585,25.879,999.512,975.586,47.852,16.113
1571287092.589,-42.480,999.512,674.805,-1.953,-13.184
1571287092.593,105.469,999.512,746.094,39.551,-14.648
1571287092.596,196.289,999.512,-966.309,109.863,50.781
1571287092.600,72.266,999.512,891.602,83.984,26.855
1571287092.604,-68.359,999.512,386.719,23.926,3.906
1571287092.608,23.926,999.512,429.199,33.203,49.316
1571287092.612,198.730,999.512,870.605,96.191,62.012
1571287092.616,121.094,999.512,753.906,55.664,2.930
1571287092.620,-57.617,999.512,477.051,-27.832,-6.836
1571287092.624,-27.344,999.512,432.129,-6.348,53.223
1571287092.628,163.574,999.512,544.434,75.684,73.242
1571287092.632,174.805,999.512,689.941,78.613,52.246
1571287092.636,-5.371,999.512,569.824,-3.418,39.551
1571287092.639,-28.809,999.512,495.605,-13.184,58.594
1571287092.643,163.086,999.512,575.195,72.266,20.996
1571287092.647,237.305,999.512,646.973,123.047,27.832
1571287092.651,48.828,999.512,603.027,58.105,37.598
1571287092.655,-48.340,999.512,560.059,-14.160,-15.137
1571287092.659,81.543,999.512,681.641,12.695,-0.977
1571287092.663,229.980,999.512,667.480,94.238,34.668
1571287092.667,113.770,999.512,536.621,68.848,-4.883
1571287092.671,-41.992,999.512,666.504,-9.766,-4.883
1571287092.675,54.199,-999.512,656.738,7.812,31.738
1571287092.678,226.074,996.582,727.539,80.566,58.105
1571287092.682,166.016,985.352,806.152,62.500,57.617
1571287092.686,-7.324,-995.605,665.527,-7.324,-7.324
1571287092.690,19.531,709.961,486.328,3.418,6.348
1571287092.694,184.570,28.809,356.934,68.848,40.527
1571287092.698,206.055,-627.441,277.832,70.801,3.418
1571287092.702,41.016,-945.801,141.602,-6.836,-46.875
1571287092.706,-2.441,-961.914,-83.984,-33.203,-16.113
1571287092.710,160.645,-965.332,-112.305,37.598,17.090
1571287092.714,264.160,-971.680,224.121,96.191,44.434
1571287092.718,97.656,-970.215,273.926,30.762,45.898
1571287092.721,-27.832,-970.215,-122.559,-22.461,18.066
1571287092.725,83.984,-970.215,-437.988,-0.977,-5.859
1571287092.729,239.746,-970.215,-70.801,50.293,-33.203
1571287092.733,157.227,-970.215,185.547,35.156,-36.133
1571287092.737,-12.207,-970.215,-86.914,-20.508,-20.996
1571287092.741,60.059,-970.215,-297.363,-1.465,-9.766
1571287092.745,241.211,-970.215,-60.547,87.402,-21.973
1571287092.749,210.449,-970.215,296.387,66.406,-23.438
1571287092.753,38.086,-970.215,-9.277,-22.461,14.160
1571287092.757,25.879,-970.215,-337.402,-36.621,7.324
1571287092.761,187.500,-970.215,98.633,48.340,-0.977
1571287092.764,231.934,-970.215,401.367,90.332,19.531
1571287092.768,58.105,-970.215,230.469,20.996,12.207
1571287092.772,0.000,-970.215,84.961,-29.785,13.184
1571287092.776,140.137,-970.215,237.305,5.371,42.969
1571287092.780,232.910,-970.215,384.277,71.777,9.277
1571287092.784,106.934,-970.215,335.449,32.227,5.859
1571287092.788,-14.648,-970.215,82.031,-54.199,1.465
1571287092.792,87.402,-970.215,25.879,-50.781,4.883
1571287092.796,250.488,-970.215,243.164,33.691,19.531
1571287092.800,176.758,-970.215,36.621,11.719,-29.785
1571287092.803,0.000,-970.215,-50.293,-47.363,-58.594
1571287092.807,34.668,-970.215,182.617,-25.391,-21.973
1571287092.811,231.445,-967.773,287.598,47.852,35.645
1571287092.815,241.211,-968.750,422.363,68.848,58.594
1571287092.819,41.504,-951.660,431.152,6.836,57.129
1571287092.823,-13.672,-802.246,265.137,-14.160,18.555
1571287092.827,170.410,-578.613,289.062,32.715,18.066
1571287092.831,257.812,-394.043,498.047,74.219,14.160
1571287092.835,75.684,-334.961,422.363,0.488,32.227
1571287092.839,-27.344,-442.383,212.402,-32.227,11.230
1571287092.843,113.770,-515.137,98.145,42.969,30.762
1571287092.846,232.910,-572.266,152.344,78.613,22.949
1571287092.850,105.469,-554.199,363.770,26.367,-16.113
1571287092.854,-37.598,-510.742,194.336,-19.043,-6.836
1571287092.858,51.758,-559.082,104.004,-13.184,4.395
1571287092.862,229.980,-634.277,375.977,49.316,59.082
1571287092.866,162.598,-568.848,541.016,42.969,41.504
1571287092.870,-16.113,-383.301,363.770,-49.316,57.617
1571287092.874,7.812,-354.004,179.199,-50.781,73.730
1571287092.878,195.801,-329.590,301.758,36.133,19.531
1571287092.882,205.078,-223.145,413.574,77.637,22.949
1571287092.886,29.297,-133.301,223.145,10.742,67.383
1571287092.889,-17.090,-119.629,-212.891,-39.062,9.766
1571287092.893,140.137,-128.418,-52.246,24.414,19.043
1571287092.897,243.164,-111.816,431.152,64.453,55.176
1571287092.901,76.172,-80.078,294.922,-2.441,74.707
1571287092.905,-22.949,-82.031,39.062,-38.574,99.121
1571287092.909,122.559,-51.758,-15.137,9.277,25.879
1571287092.913,261.719,-13.672,148.438,86.426,-49.805
1571287092.917,151.367,-21.484,223.145,35.156,9.277
1571287092.921,2.441,72.754,54.688,-9.277,45.410
1571287092.925,78.613,185.059,44.922,30.762,28.809
1571287092.928,251.953,169.922,125.488,97.656,20.996
1571287092.932,205.566,84.961,-17.578,92.773,32.715
1571287092.936,32.227,5.859,-247.070,37.109,48.340
1571287092.940,53.223,86.426,-165.039,27.344,-20.508
1571287092.944,237.793,186.523,95.703,93.262,3.418
1571287092.948,253.418,251.953,227.539,123.047,26.367
1571287092.952,41.992,206.543,127.441,33.691,-11.230
1571287092.956,-11.230,67.871,23.926,31.250,-7.324
1571287092.960,144.043,64.941,57.129,92.285,23.926
1571287092.964,231.934,202.637,147.461,122.559,71.289
1571287092.968,86.914,373.047,119.141,54.688,23.926
1571287092.971,-31.250,267.090,94.727,-10.742,19.043
1571287092.975,93.750,125.977,-28.809,38.086,39.551
1571287092.979,235.352,279.297,-115.723,92.773,39.062
1571287092.983,134.766,404.785,79.590,60.059,9.766
1571287092.987,-14.160,463.867,190.918,15.625,-16.602
1571287092.991,34.180,376.465,56.641,20.020,49.316
1571287092.995,205.566,95.703,110.352,100.586,70.801
1571287092.999,186.035,-5.859,236.328,84.961,15.625
1571287093.003,18.066,112.793,127.441,-9.766,-16.113
1571287093.007,10.254,297.363,-63.965,-6.348,-13.184
1571287093.011,163.574,485.840,37.109,87.891,-11.230
1571287093.014,226.074,627.930,408.203,113.281,31.250
1571287093.018,71.289,564.941,362.305,25.391,77.148
1571287093.022,-15.137,275.879,-129.395,-26.367,-18.555
1571287093.026,124.512,111.328,-296.387,33.691,-72.754
1571287093.030,237.793,180.176,46.875,87.891,-7.324
1571287093.034,105.957,161.133,279.297,15.137,6.836
1571287093.038,-23.926,-17.578,-138.184,-40.527,9.766
1571287093.042,57.617,22.949,-354.492,4.395,-18.066
1571287093.046,223.145,-165.527,187.500,79.590,-22.461
1571287093.050,156.738,-671.387,279.785,45.410,-14.648
1571287093.053,-28.320,-831.055,-98.633,-41.504,-48.340
1571287093.057,15.625,-750.977,-155.762,-35.156,-37.598
1571287093.061,204.102,-804.688,158.203,58.105,11.230
1571287093.065,194.824,-929.688,294.434,72.754,20.996
1571287093.069,1.465,-919.434,-19.531,-1.953,-13.184
1571287093.073,-26.367,-559.082,-117.676,-31.738,49.805
1571287093.077,150.879,-57.129,189.941,1.953,84.473
1571287093.081,213.379,206.543,337.402,41.992,40.039
1571287093.085,57.129,354.980,219.727,2.930,2.441
1571287093.089,-29.297,446.289,208.008,-38.574,-6.348
1571287093.093,94.238,392.090,339.355,10.742,19.043
1571287093.096,226.074,162.109,319.336,74.219,1.953
1571287093.100,107.910,-88.379,72.754,33.691,-10.742
1571287093.104,-35.645,-271.973,44.922,-13.672,0.000
1571287093.108,42.969,-385.254,19.043,12.207,-36.621
1571287093.112,214.844,-363.770,137.207,73.730,8.789
1571287093.116,162.598,-432.129,140.137,61.523,32.227
1571287093.120,-12.207,-499.023,-111.816,1.953,10.254
1571287093.124,17.090,-580.078,-149.414,7.812,29.297
1571287093.128,192.871,-578.613,-103.516,88.379,53.711
1571287093.132,195.312,-398.926,11.230,97.168,55.664
1571287093.136,5.859,-124.023,72.754,30.273,47.363
1571287093.139,-33.691,45.898,40.039,9.766,24.902
1571287093.143,125.000,-127.441,-133.301,65.430,-12.207
1571287093.147,216.797,-309.082,-7.324,114.746,-12.695
1571287093.151,76.660,-541.992,255.859,61.035,29.297
1571287093.155,-27.344,-869.141,-25.391,20.020,17.578
1571287093.159,88.867,-979.004,-176.758,66.895,-20.996
1571287093.163,222.656,-960.938,-13.184,152.832,-17.090
1571287093.167,132.324,-970.215,92.773,111.816,-18.066
1571287093.171,-2.930,-970.215,39.551,27.344,-4.395
1571287093.175,67.383,-970.215,-331.055,71.289,-18.555
1571287093.178,228.516,-970.215,-62.012,149.414,-8.789
1571287093.182,195.801,-970.215,459.473,134.277,7.812
1571287093.186,6.836,-970.215,229.980,60.547,-23.438
1571287093.190,-5.371,-970.215,0.488,50.293,-21.484
1571287093.194,173.340,-970.215,255.859,133.789,5.859
1571287093.198,203.613,-970.215,608.887,152.344,8.301
1571287093.202,31.250,-970.215,524.902,79.102,13.672
1571287093.206,-31.250,-970.215,384.766,49.805,41.016
1571287093.210,133.301,-970.215,400.391,111.816,25.879
1571287093.214,259.766,-970.215,494.629,169.434,-59.570
1571287093.218,125.488,-970.215,380.859,98.145,-28.809
1571287093.221,-13.672,-970.215,196.777,28.320,38.086
1571287093.225,60.059,-970.215,475.586,58.594,-10.254
1571287093.229,194.824,-970.215,832.520,145.996,-2.441
1571287093.233,129.883,-970.215,875.977,128.418,4.883
1571287093.237,-39.551,-970.215,731.934,57.617,-34.180
1571287093.241,17.578,-970.215,851.562,96.680,70.801
1571287093.245,222.656,-970.215,-993.652,194.824,140.137
1571287093.249,180.664,-970.215,998.535,166.016,7.812
1571287093.253,-33.691,-970.215,995.117,53.711,4.395
1571287093.257,-78.613,-970.215,-999.512,7.324,10.254
1571287093.261,85.938,-970.215,999.512,45.410,16.113
1571287093.264,136.719,-970.215,999.512,64.453,43.457
1571287093.268,-64.941,-970.215,999.512,-49.805,-40.527
1571287093.272,-168.457,-970.215,999.512,-112.305,-36.133
1571287093.276,-22.949,-970.215,999.512,-39.551,-9.277
1571287093.280,84.473,-970.215,999.512,16.602,-0.977
1571287093.284,-67.383,-970.215,999.512,-60.547,16.113
1571287093.288,-194.824,-970.215,999.512,-137.207,6.836
1571287093.292,-92.285,-970.215,999.512,-106.934,-3.906
1571287093.296,53.711,-970.215,999.512,-22.461,16.113
1571287093.300,-9.766,-970.215,999.512,-3.906,53.223
1571287093.303,-153.320,-970.215,999.512,-57.129,52.246
1571287093.307,-99.609,-970.215,999.512,-51.758,32.227
1571287093.311,88.379,-970.215,999.512,29.785,-1.953
1571287093.315,103.516,-970.215,999.512,29.297,36.621
1571287093.319,-63.965,-970.215,999.512,-49.805,61.523
1571287093.323,-82.031,-970.215,999.512,-32.715,19.043
1571287093.327,94.727,-970.215,999.512,56.152,-21.973
1571287093.331,177.734,-975.098,999.512,117.188,23.926
1571287093.335,20.508,-902.832,999.512,81.543,37.109
1571287093.339,-56.641,-1000.000,999.512,59.570,-4.883
1571287093.343,87.891,-277.344,999.512,101.562,7.324
1571287093.346,212.891,-964.355,999.512,154.297,25.391
1571287093.350,106.445,998.047,999.512,128.418,25.879
1571287093.354,-29.297,964.844,999.512,77.148,-3.418
1571287093.358,56.641,-991.699,999.512,121.094,42.480
1571287093.362,232.910,999.512,999.512,166.504,43.945
1571287093.366,176.270,999.512,999.512,135.254,25.879
1571287093.370,-3.418,999.512,999.512,82.520,48.340
1571287093.374,4.883,999.512,999.512,69.824,32.227
1571287093.378,180.664,999.512,999.512,133.301,30.762
1571287093.382,210.449,999.512,999.512,158.203,-9.277
1571287093.386,23.926,999.512,999.512,84.473,1.465
1571287093.389,-43.457,999.512,999.512,60.547,60.059
1571287093.393,104.492,999.512,999.512,118.164,72.754
1571287093.397,183.594,999.512,999.512,141.602,52.734
1571287093.401,35.156,999.512,999.512,81.055,73.242
1571287093.405,-62.988,999.512,999.512,31.738,89.355
1571287093.409,53.223,999.512,999.512,62.988,31.250
1571287093.413,172.852,999.512,999.512,83.984,2.930
1571287093.417,50.293,999.512,999.512,9.766,-7.812
1571287093.421,-95.703,999.512,999.512,-19.043,-38.086
1571287093.425,-28.320,-999.023,999.512,10.254,5.859
1571287093.428,131.836,982.422,999.512,67.383,17.578
1571287093.432,94.727,-979.492,999.512,47.852,1.465
1571287093.436,-79.102,844.727,999.512,-49.805,10.254
1571287093.440,-78.125,313.965,999.512,-54.688,18.555
1571287093.444,96.191,-55.664,999.512,21.973,25.879
1571287093.448,155.273,-553.711,999.023,48.828,66.406
1571287093.452,4.395,-983.398,-1000.000,-16.113,38.574
1571287093.456,-64.453,-953.613,999.023,-31.738,-34.180
1571287093.460,88.867,-972.656,993.652,34.180,8.301
1571287093.464,231.445,-910.645,997.559,91.309,40.527
1571287093.468,97.656,-649.414,-1000.000,49.805,8.789
1571287093.471,-49.316,-225.586,999.023,-8.301,3.418
1571287093.475,72.754,628.906,999.512,38.086,72.266
1571287093.479,257.324,-962.891,999.512,133.301,79.590
1571287093.483,176.270,972.656,999.512,116.699,37.598
1571287093.487,-0.488,998.047,999.512,28.320,46.387
1571287093.491,35.156,-999.023,999.512,9.766,30.273
1571287093.495,204.590,-998.047,999.512,74.707,42.969
1571287093.499,186.523,974.121,999.512,100.098,41.504
1571287093.503,10.742,-956.055,999.512,26.855,0.000
1571287093.507,3.906,785.156,999.512,-7.812,10.742
1571287093.511,174.316,230.469,999.512,53.223,-13.184
1571287093.514,230.469,148.438,999.512,87.891,63.477
1571287093.518,62.988,-27.832,999.512,40.039,74.707
1571287093.522,-29.785,-47.363,999.512,-6.348,2.930
1571287093.526,114.746,-132.812,997.559,34.180,12.207
1571287093.530,236.328,-779.297,996.094,99.121,44.922
1571287093.534,90.332,-1000.000,-986.816,53.711,78.613
1571287093.538,-51.758,-946.289,899.414,-24.902,33.203
1571287093.542,38.574,-972.168,874.512,-9.766,12.695
1571287093.546,198.730,-970.215,-991.211,56.641,19.043
1571287093.550,133.301,-970.215,903.809,35.645,26.855
1571287093.553,-32.227,-970.215,905.273,-21.973,16.113
1571287093.557,-0.977,-970.215,-989.258,-17.578,27.832
1571287093.561,179.688,-970.215,986.328,52.246,23.438
1571287093.565,186.523,-970.215,999.023,64.453,25.879
1571287093.569,12.207,-970.215,956.543,13.184,-1.465
1571287093.573,-4.883,-970.215,818.848,0.000,18.066
1571287093.577,170.898,-970.215,733.398,49.316,5.371
1571287093.581,253.418,-970.215,910.645,108.398,28.320
1571287093.585,88.867,-970.215,807.617,56.641,46.875
1571287093.589,-14.648,-970.215,488.770,20.020,3.418
1571287093.593,125.977,-970.215,347.168,67.871,37.598
1571287093.596,253.418,-970.215,441.895,80.078,41.504
1571287093.600,133.789,-970.703,751.465,44.922,10.742
1571287093.604,-9.766,-969.727,661.133,6.348,26.367
1571287093.608,63.965,-955.078,487.305,29.297,20.996
1571287093.612,238.281,-1000.000,673.340,103.027,7.812
1571287093.616,199.707,-753.418,917.969,97.168,28.809
1571287093.620,22.461,-400.879,763.184,36.133,11.719
1571287093.624,26.855,-296.875,530.762,21.484,-16.602
1571287093.628,207.520,229.492,785.645,70.801,35.156
1571287093.632,241.211,742.188,-951.660,101.562,69.824
1571287093.636,58.105,686.035,812.012,51.270,45.410
1571287093.639,0.977,717.773,518.555,5.371,37.109
1571287093.643,161.621,986.328,736.816,48.828,112.305
1571287093.647,268.066,-992.676,-963.867,108.887,112.793
1571287093.651,123.047,990.234,894.531,73.242,64.941
1571287093.655,-11.719,-998.535,602.051,16.113,18.555
1571287093.659,81.055,999.512,675.781,10.254,39.062
1571287093.663,219.238,999.512,897.949,63.477,36.621
1571287093.667,115.234,999.512,780.273,49.316,11.230
1571287093.671,-31.250,999.512,558.105,-9.277,44.434
1571287093.675,45.898,999.512,587.891,13.672,57.129
1571287093.678,207.520,999.512,655.762,83.008,53.223
1571287093.682,157.715,999.512,494.629,70.801,3.906
1571287093.686,-19.531,999.512,204.590,-6.836,0.977
1571287093.690,-6.836,999.512,285.156,-11.719,-30.273
1571287093.694,174.316,999.512,598.633,57.617,-24.902
1571287093.698,212.891,999.512,616.699,73.730,46.875
1571287093.702,44.922,999.512,430.664,39.062,20.996
1571287093.706,-26.367,999.512,491.211,-11.230,20.508
1571287093.710,126.953,999.512,519.043,26.367,5.371
1571287093.714,261.719,999.512,687.012,122.559,46.875
1571287093.718,130.371,999.512,770.020,85.449,60.547
1571287093.721,-24.414,999.512,629.883,24.414,20.996
1571287093.725,71.289,999.512,500.488,40.039,40.527
1571287093.729,261.230,999.512,369.629,111.328,-0.977
1571287093.733,194.824,999.512,580.566,95.703,-0.488
1571287093.737,28.320,999.512,747.559,30.273,19.043
1571287093.741,65.918,999.512,569.336,28.809,30.762
1571287093.745,242.188,999.512,647.461,98.145,35.645
1571287093.749,250.000,999.512,889.648,130.859,-0.977
1571287093.753,74.707,999.512,776.367,58.594,-5.859
1571287093.757,47.363,999.512,451.660,41.016,-3.906
1571287093.761,205.566,999.512,506.348,101.074,-3.906
1571287093.764,269.531,999.512,795.410,139.160,-22.949
1571287093.768,107.422,999.512,779.297,90.820,-11.230
1571287093.772,2.930,999.512,363.770,23.926,41.504
1571287093.776,130.859,999.512,209.961,56.641,61.523
1571287093.780,272.461,999.512,647.461,127.930,33.203
1571287093.784,154.785,999.512,722.168,93.750,-31.738
1571287093.788,3.906,999.512,392.578,39.551,-16.113
1571287093.792,88.867,999.512,348.633,75.195,21.973
1571287093.796,250.488,999.512,706.055,135.254,42.480
1571287093.800,189.453,999.512,765.137,121.094,12.207
1571287093.803,21.973,999.512,483.398,59.082,6.348
1571287093.807,45.410,999.512,354.492,41.992,0.977
1571287093.811,227.539,999.512,462.402,113.281,16.113
1571287093.815,261.230,999.023,587.891,154.785,96.680
1571287093.819,85.449,994.629,315.430,85.449,37.598
1571287093.823,26.855,-994.629,54.688,31.738,2.930
1571287093.827,184.570,937.988,302.734,79.590,54.688
1571287093.831,269.043,792.969,520.996,121.582,83.008
1571287093.835,107.422,822.754,150.391,71.289,77.637
1571287093.839,-3.418,775.391,23.438,27.832,75.684
1571287093.843,126.953,550.293,213.379,70.312,57.129
1571287093.846,281.738,371.094,332.520,139.160,96.191
1571287093.850,176.270,132.324,288.574,118.652,61.035
1571287093.854,19.043,-38.086,80.566,60.059,-34.180
1571287093.858,83.008,-138.184,-7.324,65.918,-20.508
1571287093.862,250.488,-213.867,59.082,130.859,0.488
1571287093.866,224.609,-215.820,87.891,131.836,18.066
1571287093.870,41.504,-260.254,-72.266,55.664,32.227
1571287093.874,18.066,-310.059,-190.918,24.902,19.043
1571287093.878,184.082,-398.438,-215.332,80.566,44.434
1571287093.882,230.957,-490.234,-125.977,111.328,49.316
1571287093.886,71.777,-562.988,25.879,56.152,14.160
1571287093.889,7.812,-740.234,-141.602,33.203,9.277
1571287093.893,155.762,-846.680,-312.500,75.195,17.090
1571287093.897,269.043,-861.816,-157.227,111.816,5.859
1571287093.901,133.789,-843.750,-73.242,76.660,-3.418
1571287093.905,3.906,-838.867,-344.238,38.574,-8.789
1571287093.909,98.145,-852.051,-468.750,69.336,-3.906
1571287093.913,253.906,-789.551,-329.102,145.020,24.414
1571287093.917,177.734,-810.547,-283.203,116.699,19.531
1571287093.921,24.414,-885.742,-448.242,39.551,12.207
1571287093.925,55.664,-928.223,-826.172,35.645,35.645
1571287093.928,226.074,-961.914,-635.742,82.520,36.621
1571287093.932,209.473,-970.703,-243.652,92.773,3.418
1571287093.936,12.695,-969.238,-467.773,39.062,15.625
1571287093.940,-0.488,-970.215,-691.406,25.391,14.160
1571287093.944,191.895,-970.215,-513.672,82.031,-22.461
1571287093.948,263.672,-970.215,-288.574,116.699,-35.645
1571287093.952,91.797,-970.215,-400.879,49.316,-8.301
1571287093.956,14.160,-970.215,-611.328,11.230,-15.625
1571287093.960,154.785,-970.215,-654.785,60.059,-30.273
1571287093.964,269.531,-970.215,-395.020,104.004,-3.906
1571287093.968,138.672,-970.215,-534.668,58.594,-48.828
1571287093.971,10.254,-970.215,-895.996,4.395,-37.598
1571287093.975,111.816,-970.215,-649.902,34.180,4.395
1571287093.979,268.555,-970.215,-380.859,91.797,0.977
1571287093.983,197.754,-970.215,-402.832,75.195,27.832
1571287093.987,31.250,-970.215,-576.172,27.344,34.180
1571287093.991,53.223,-970.215,-622.070,34.668,28.320
1571287093.995,213.867,-970.215,-571.777,90.820,5.859
1571287093.999,197.754,-970.215,-497.559,84.473,32.227
1571287094.003,13.184,-970.215,-527.832,15.137,79.590
1571287094.007,-11.230,-970.215,-763.672,5.371,50.781
1571287094.011,151.367,-970.215,-855.469,70.801,-28.320
1571287094.014,226.562,-970.215,-845.703,98.145,-47.363
1571287094.018,74.219,-970.215,-729.492,43.457,12.207
1571287094.022,-20.996,-970.215,-623.047,24.414,3.418
1571287094.026,117.676,-970.215,-732.910,53.223,-8.789
1571287094.030,255.371,-970.215,-560.547,97.168,56.152
1571287094.034,126.953,-970.215,-407.227,59.082,54.688
1571287094.038,-8.301,-970.215,-634.766,-10.254,84.961
1571287094.042,75.684,-970.215,-931.152,7.812,32.227
1571287094.046,248.047,-970.215,-808.105,88.867,-85.449
1571287094.050,194.336,-970.215,-488.281,85.449,8.789
1571287094.053,0.000,-970.215,-671.387,19.531,54.688
1571287094.057,9.766,-970.215,-960.938,15.137,19.531
1571287094.061,185.547,-970.215,-873.047,79.590,20.508
1571287094.065,219.727,-970.215,-511.230,95.703,39.551
1571287094.069,41.992,-970.215,-524.414,36.621,28.809
1571287094.073,-10.254,-970.215,-872.559,7.812,-14.648
1571287094.077,154.297,-970.215,-854.004,57.617,-38.086
1571287094.081,245.117,-970.215,-540.039,100.098,-15.625
1571287094.085,98.633,-970.215,-597.656,62.012,-6.836
1571287094.089,-8.301,-966.797,-868.652,44.922,2.930
1571287094.093,104.980,-976.074,-833.984,67.871,21.973
1571287094.096,248.047,-941.895,-643.066,113.770,4.883
1571287094.100,152.832,-865.723,-626.953,99.121,47.363
1571287094.104,-6.836,-844.727,-904.297,40.039,59.082
1571287094.108,51.270,-735.840,-908.203,40.039,8.789
1571287094.112,220.215,-567.383,-424.316,86.914,57.129
1571287094.116,184.570,-480.957,-274.414,80.078,81.543
1571287094.120,-2.930,-472.168,-493.164,12.207,48.340
1571287094.124,-16.113,-524.414,-557.129,-9.766,16.602
1571287094.128,155.762,-527.344,-409.180,45.898,20.508
1571287094.132,194.336,-508.789,-275.879,81.543,55.176
1571287094.136,27.832,-443.359,-410.645,21.484,15.137
1571287094.139,-44.434,-276.367,-508.301,-4.395,-13.184
1571287094.143,103.516,-166.016,-422.852,45.898,-30.762
1571287094.147,209.473,-132.324,-394.531,90.820,21.973
1571287094.151,70.801,-141.602,-587.402,65.918,38.574
1571287094.155,-31.738,-222.656,-612.305,40.039,37.109
1571287094.159,62.988,-420.410,-508.301,52.246,81.055
1571287094.163,211.426,-559.570,-522.949,75.684,72.754
1571287094.167,130.371,-420.410,-595.703,43.457,-6.348
1571287094.171,-31.738,-130.371,-645.508,5.371,-44.434
1571287094.175,4.395,12.695,-758.789,29.785,-51.758
1571287094.178,169.434,104.980,-636.719,105.469,-2.441
1571287094.182,174.316,278.320,-399.902,135.742,39.551
1571287094.186,-1.465,418.945,-467.773,77.148,27.832
1571287094.190,-21.484,470.703,-670.898,27.344,46.875
1571287094.194,166.992,498.535,-791.504,93.262,-9.766
1571287094.198,222.656,482.422,-700.684,138.672,-11.719
1571287094.202,13.672,442.383,-712.891,62.500,36.621
1571287094.206,-82.520,385.254,-864.746,43.457,54.688
1571287094.210,69.336,348.145,-981.934,87.402,49.316
1571287094.214,190.918,428.223,-811.035,119.141,-15.625
1571287094.218,42.969,440.430,-597.168,91.309,17.090
1571287094.221,-104.980,391.602,-799.316,59.082,53.711
1571287094.225,-1.465,363.281,-929.199,75.684,18.066
1571287094.229,168.945,371.582,-588.867,144.531,46.387
1571287094.233,110.352,392.578,-367.188,140.625,59.570
1571287094.237,-68.848,406.250,-561.523,76.660,58.594
1571287094.241,-36.621,450.684,-717.285,73.730,92.285
1571287094.245,172.852,488.770,-613.770,152.344,59.082
1571287094.249,197.266,545.410,-337.891,180.176,47.852
1571287094.253,15.137,538.086,-538.086,152.344,81.055
1571287094.257,-21.484,552.734,-914.062,128.906,46.875
1571287094.261,161.133,618.164,-630.371,115.723,34.668
1571287094.264,250.488,572.754,-520.996,143.066,45.898
1571287094.268,82.520,541.016,-757.324,86.914,62.012
1571287094.272,-21.973,481.445,-930.176,41.016,13.184
1571287094.276,106.445,397.461,-970.215,90.820,-86.914
1571287094.280,249.023,341.309,-949.219,148.926,-47.852
1571287094.284,135.254,248.535,-957.520,120.605,20.020
1571287094.288,-30.762,137.695,-974.121,83.008,-9.766
1571287094.292,39.551,149.414,-969.238,98.145,24.902
1571287094.296,229.492,294.434,-963.867,148.926,37.109
1571287094.300,185.059,378.418,-967.285,137.695,46.387
1571287094.303,-12.695,209.473,-971.191,89.355,0.000
1571287094.307,-3.906,-134.766,-969.727,93.262,-51.270
1571287094.311,190.918,-277.832,-970.215,139.160,9.766
1571287094.315,224.121,-268.066,-970.215,158.203,-20.020
1571287094.319,40.527,-229.980,-970.215,118.164,-1.953
1571287094.323,-16.602,-117.676,-970.215,99.121,42.480
1571287094.327,138.184,42.969,-970.215,145.508,19.043
1571287094.331,254.883,189.453,-970.215,158.691,30.762
1571287094.335,101.074,298.340,-970.215,128.418,58.105
1571287094.339,-32.227,376.953,-970.215,108.398,50.293
1571287094.343,94.238,393.555,-970.215,112.793,27.344
1571287094.346,252.930,434.570,-970.215,143.555,47.363
1571287094.350,161.621,486.328,-970.215,125.000,-3.418
1571287094.354,-4.883,493.652,-970.215,97.168,-20.996
1571287094.358,50.293,500.977,-970.215,98.633,50.781
1571287094.362,225.586,558.594,-970.215,124.023,60.547
1571287094.366,189.453,580.078,-970.215,118.652,18.066
1571287094.370,-16.602,518.066,-970.215,70.312,8.301
1571287094.374,-34.668,526.367,-970.215,54.199,-15.137
1571287094.378,160.645,590.820,-970.215,99.121,12.207
1571287094.382,220.215,599.609,-970.215,128.906,20.020
1571287094.386,26.367,577.148,-970.215,72.754,-45.410
1571287094.389,-55.176,566.895,-970.215,27.344,-18.066
1571287094.393,112.793,569.824,-970.215,55.176,5.859
1571287094.397,233.887,557.617,-970.215,87.891,9.766
1571287094.401,91.309,483.887,-970.215,55.176,-16.602
1571287094.405,-40.039,420.898,-969.238,17.578,-75.195
1571287094.409,68.359,429.688,-972.168,51.270,-51.758
1571287094.413,244.141,441.406,-964.355,108.887,3.906
1571287094.417,173.340,426.270,-958.984,109.375,-9.277
1571287094.421,3.906,410.645,-970.703,87.402,-22.949
1571287094.425,53.711,441.406,-970.703,85.938,9.277
1571287094.428,252.930,479.492,-969.727,121.582,41.992
1571287094.432,262.695,500.488,-970.215,137.695,24.414
1571287094.436,60.059,532.227,-962.891,99.609,-20.996
1571287094.440,28.320,535.645,-983.398,91.797,-17.578
1571287094.444,222.168,462.891,-849.121,132.812,38.086
1571287094.448,296.387,415.527,-714.355,142.090,52.246
1571287094.452,123.047,395.020,-778.809,96.680,22.461
1571287094.456,26.367,354.004,-834.961,68.359,24.414
1571287094.460,167.480,307.617,-811.035,102.539,31.738
1571287094.464,307.129,297.363,-655.762,144.043,29.297
1571287094.468,173.828,232.422,-575.195,103.516,11.719
1571287094.471,17.090,89.355,-706.543,57.129,-2.441
1571287094.475,106.934,23.438,-878.906,83.008,0.977
1571287094.479,281.738,-15.137,-944.824,120.605,52.734
1571287094.483,211.914,-28.320,-705.566,101.562,79.102
1571287094.487,30.762,2.441,-516.602,54.688,70.312
1571287094.491,49.316,63.477,-690.918,48.828,104.492
1571287094.495,236.328,146.484,-638.184,100.586,90.820
1571287094.499,263.184,201.660,-309.082,103.516,58.594
1571287094.503,74.707,219.727,-336.426,63.965,41.016
1571287094.507,26.367,270.996,-608.398,73.730,0.000
1571287094.511,202.148,335.449,-570.801,108.887,-18.555
1571287094.514,297.363,384.766,-208.008,107.422,25.391
1571287094.518,135.254,438.477,-110.352,62.012,75.195
1571287094.522,36.621,488.281,-543.945,52.734,58.594
1571287094.526,162.598,504.883,-770.508,67.383,-22.949
1571287094.530,302.734,476.562,-311.523,89.355,-26.367
1571287094.534,199.707,437.988,-99.121,84.961,31.250
1571287094.538,20.996,431.152,-439.941,48.828,23.926
1571287094.542,83.008,467.773,-533.691,38.574,18.066
1571287094.546,274.902,510.254,-231.934,83.496,30.273
1571287094.550,237.793,520.508,-142.090,84.961,54.688
1571287094.553,41.016,480.469,-332.031,46.387,12.207
1571287094.557,26.367,448.730,-447.754,46.875,0.000
1571287094.561,221.680,474.121,-218.750,85.938,68.848
1571287094.565,284.180,468.750,-28.809,116.211,103.027
1571287094.569,91.309,431.641,-291.504,72.266,50.293
1571287094.573,4.395,443.359,-600.098,41.504,-5.371
1571287094.577,166.016,447.266,-464.355,64.941,-1.465
1571287094.581,278.809,425.293,-131.836,84.473,62.988
1571287094.585,111.816,449.219,-359.863,64.941,63.965
1571287094.589,-28.809,508.301,-451.172,27.832,10.254
1571287094.593,119.141,547.363,-174.316,41.992,-0.977
1571287094.596,289.062,579.590,-45.410,83.496,13.184
1571287094.600,153.809,610.352,18.066,51.758,21.973
1571287094.604,-27.832,654.297,-78.613,28.809,35.645
1571287094.608,35.156,727.051,-209.473,43.945,31.738
1571287094.612,227.051,776.855,-20.508,66.406,65.918
1571287094.616,208.008,760.254,9.766,74.219,24.414
1571287094.620,4.395,687.500,-212.891,36.621,-42.480
1571287094.624,-12.207,630.859,-242.188,5.859,-43.457
1571287094.628,164.551,705.566,-200.195,61.035,-4.395
1571287094.632,223.145,800.781,-48.828,62.500,38.574
1571287094.636,56.152,796.875,228.516,-1.465,12.207
1571287094.639,-31.738,700.684,163.086,-9.766,-0.977
1571287094.643,110.352,566.406,25.391,4.395,-60.547
1571287094.647,241.211,509.277,268.555,38.574,-37.109
1571287094.651,89.355,498.535,475.586,21.484,59.570
1571287094.655,-59.570,463.379,201.660,-16.602,2.441
1571287094.659,63.477,423.340,2.441,-3.906,-47.363
1571287094.663,228.027,376.465,81.055,54.199,-65.430
1571287094.667,142.578,309.570,141.113,51.758,-33.203
1571287094.671,-23.926,234.375,23.926,13.184,0.488
1571287094.675,9.277,196.289,-328.125,18.066,-25.391
1571287094.678,193.359,186.035,-96.191,56.152,25.391
1571287094.682,198.730,102.539,276.367,84.473,28.809
1571287094.686,4.883,16.602,-35.156,58.594,26.855
1571287094.690,-28.320,-35.645,-248.047,21.484,50.781
1571287094.694,150.391,-80.566,-33.203,41.992,56.152
1571287094.698,232.910,-143.555,161.621,65.918,38.574
1571287094.702,66.406,-187.012,72.266,41.504,67.383
1571287094.706,-32.715,-214.844,-153.809,36.133,25.879
1571287094.710,105.957,-344.238,-262.695,88.379,-12.207
1571287094.714,242.188,-429.199,-30.762,107.910,33.203
1571287094.718,126.465,-414.551,-135.254,56.641,20.508
1571287094.721,-23.926,-450.684,-504.395,46.875,8.301
1571287094.725,51.758,-518.555,-261.230,65.918,45.410
1571287094.729,230.957,-462.402,72.754,103.027,92.773
1571287094.733,184.570,-348.633,61.523,94.727,57.617
1571287094.737,17.578,-289.551,-117.676,39.551,19.531
1571287094.741,31.738,-250.488,-156.738,24.902,19.043
1571287094.745,197.754,-187.988,-17.578,90.332,56.641
1571287094.749,212.891,-128.418,111.328,76.660,77.637
1571287094.753,42.969,-118.652,-0.977,18.066,19.531
1571287094.757,13.672,-175.293,-278.809,40.039,-15.625
1571287094.761,174.805,-240.723,-400.391,77.148,-1.465
1571287094.764,250.488,-277.832,-195.312,94.238,31.738
1571287094.768,77.637,-296.387,-82.520,74.219,38.574
1571287094.772,-20.508,-315.918,-234.375,38.574,36.621
1571287094.776,114.258,-354.492,-476.074,55.664,42.969
1571287094.780,265.625,-392.578,-490.723,104.492,65.430
1571287094.784,157.715,-404.297,-269.043,73.242,42.969
1571287094.788,-14.648,-390.625,-283.691,22.461,38.574
1571287094.792,39.551,-387.207,-540.039,32.227,-24.414
1571287094.796,229.004,-401.855,-415.527,93.262,-33.691
1571287094.800,194.336,-449.219,-116.699,90.820,41.016
1571287094.803,-10.254,-487.305,-370.605,40.039,-0.977
1571287094.807,-8.789,-479.492,-747.070,33.203,4.395
1571287094.811,185.547,-469.727,-675.781,72.754,29.785
1571287094.815,235.840,-443.848,-183.594,86.914,27.344
1571287094.819,44.434,-416.992,-65.918,55.176,80.078
1571287094.823,-25.879,-392.578,-379.395,45.410,53.223
1571287094.827,138.184,-372.559,-397.949,76.172,25.391
1571287094.831,244.629,-353.516,-195.312,96.680,29.785
1571287094.835,96.680,-321.289,-232.910,59.570,19.531
1571287094.839,-28.809,-292.480,-460.938,9.277,0.488
1571287094.843,76.660,-279.297,-506.348,28.320,-17.090
1571287094.846,230.469,-298.828,-187.012,87.402,43.945
1571287094.850,126.465,-318.848,-193.848,64.453,53.223
1571287094.854,-35.645,-276.855,-702.148,35.645,11.719
1571287094.858,37.598,-259.277,-741.699,30.762,-10.742
1571287094.862,219.238,-308.105,-300.781,56.641,-13.672
1571287094.866,199.219,-359.375,-218.262,84.961,17.578
1571287094.870,-5.859,-386.719,-464.844,43.945,-18.555
1571287094.874,-23.926,-390.137,-498.535,1.953,-7.812
1571287094.878,162.598,-396.484,-344.727,51.270,20.996
1571287094.882,215.820,-414.062,-223.633,79.590,38.574
1571287094.886,16.113,-451.660,-359.375,9.277,13.184
1571287094.889,-77.637,-476.562,-637.207,-31.250,-49.316
1571287094.893,79.102,-475.586,-509.766,17.578,-1.465
1571287094.897,208.496,-494.629,-385.742,54.199,54.688
1571287094.901,71.777,-517.578,-504.395,16.113,68.848
1571287094.905,-68.848,-594.727,-470.703,-23.926,14.648
1571287094.909,6.348,-704.590,-460.449,-6.836,-50.293
1571287094.913,166.016,-752.930,-372.559,26.367,17.090
1571287094.917,103.516,-694.336,-301.270,27.344,-3.906
1571287094.921,-70.801,-615.723,-258.301,-3.906,8.789
1571287094.925,-41.992,-607.910,-326.172,-7.812,51.270
1571287094.928,165.527,-577.637,-307.129,46.875,30.273
1571287094.932,192.871,-504.395,-132.812,58.105,0.000
1571287094.936,-22.949,-468.262,-145.508,14.648,-25.391
1571287094.940,-83.496,-480.469,-240.723,-28.320,78.613
1571287094.944,137.207,-481.445,-267.578,29.297,110.840
1571287094.948,244.629,-472.656,-208.496,72.266,3.906
1571287094.952,40.039,-460.938,-230.957,25.391,-25.391
1571287094.956,-69.336,-442.383,-415.039,22.949,-6.348
1571287094.960,78.613,-400.391,-569.336,27.832,32.227
1571287094.964,257.812,-362.305,-202.148,58.594,50.781
1571287094.968,137.207,-365.723,108.887,71.777,16.602
1571287094.971,-43.945,-370.117,-204.590,25.879,-9.277
1571287094.975,57.129,-400.879,-366.211,18.066,-5.859
1571287094.979,229.492,-442.871,-83.496,77.148,14.648
1571287094.983,165.527,-460.938,73.242,68.359,32.227
1571287094.987,18.066,-472.656,-170.898,20.996,37.109
1571287094.991,5.371,-524.414,-484.375,19.531,8.301
1571287094.995,154.785,-537.109,-386.719,72.754,23.926
1571287094.999,216.797,-533.691,-130.371,99.609,46.387
1571287095.003,30.762,-566.895,-384.766,57.129,36.133
1571287095.007,-48.828,-535.156,-647.949,12.207,22.461
1571287095.011,114.746,-535.156,-303.711,12.695,0.977
1571287095.014,230.957,-585.938,55.176,50.293,51.758
1571287095.018,77.637,-610.840,-62.012,23.926,45.898
1571287095.022,-58.594,-642.578,-253.418,-3.906,24.902
1571287095.026,45.410,-676.758,-181.641,40.527,39.062
1571287095.030,195.312,-702.637,-56.641,78.125,5.371
1571287095.034,113.281,-643.066,-64.941,35.645,8.789
1571287095.038,-41.504,-559.570,-282.715,-20.508,12.695
1571287095.042,-8.301,-521.484,-420.898,-17.578,-7.812
1571287095.046,150.391,-531.250,-229.492,12.695,41.992
1571287095.050,121.582,-591.797,-303.223,-3.906,24.414
1571287095.053,-50.781,-611.816,-377.930,-53.223,-2.930
1571287095.057,-61.523,-554.199,-292.969,-59.082,23.926
1571287095.061,119.141,-429.199,-293.945,5.371,-0.488
1571287095.065,147.949,-327.148,-129.883,35.156,-33.203
1571287095.069,-29.297,-246.582,-34.668,-16.113,2.930
1571287095.073,-50.781,-157.715,-100.586,-56.152,77.148
1571287095.077,63.965,-125.488,-169.922,-29.785,61.035
1571287095.081,148.438,-119.141,12.207,24.414,43.945
1571287095.085,32.227,-117.188,-30.762,11.719,46.875
1571287095.089,-94.727,-100.098,-236.328,-10.254,24.414
1571287095.093,16.602,-49.316,-425.293,-0.488,-2.441
1571287095.096,176.270,-4.883,-430.176,28.809,1.953
1571287095.100,105.957,43.945,-11.719,27.832,42.480
1571287095.104,-59.082,73.730,-94.727,-4.395,21.484
1571287095.108,-36.133,130.371,-347.656,-21.973,-3.418
1571287095.112,151.367,220.703,-209.961,12.207,40.527
1571287095.116,150.879,281.738,29.785,16.602,57.129
1571287095.120,-29.297,271.973,-38.574,-20.996,21.973
