timestamps,TP9,AF7,AF8,TP10,Right AUX
1571286333.721,200.684,-633.301,-970.215,265.137,-473.145
1571286333.725,137.207,-635.742,-970.215,234.375,-480.469
1571286333.729,31.250,-535.156,-970.215,154.297,-529.297
1571286333.733,66.895,-431.641,-970.215,100.098,-526.367
1571286333.737,192.871,-458.984,-970.215,164.551,-466.797
1571286333.741,187.500,-480.469,-970.215,210.938,-441.895
1571286333.745,83.496,-395.508,-970.215,192.871,-516.113
1571286333.749,90.332,-325.195,-970.215,218.750,-545.410
1571286333.753,208.984,-301.270,-970.215,208.008,-498.047
1571286333.757,223.633,-259.766,-970.215,194.824,-442.383
1571286333.761,45.410,-228.027,-970.215,186.035,-485.352
1571286333.764,-13.184,-188.477,-970.215,113.281,-546.875
1571286333.768,110.352,-105.469,-970.215,114.258,-488.770
1571286333.772,172.363,-21.973,-970.215,184.570,-395.020
1571286333.776,58.594,52.246,-970.215,113.281,-419.922
1571286333.780,-116.211,47.852,-970.215,-42.969,-508.789
1571286333.784,-113.770,73.242,-970.215,-81.055,-498.535
1571286333.788,5.371,126.465,-973.633,-38.574,-404.785
1571286333.792,-56.152,153.809,-956.055,-57.129,-386.230
1571286333.796,-211.426,181.152,-956.055,-63.965,-465.332
1571286333.800,-170.898,203.125,-955.078,-27.832,-495.605
1571286333.804,-51.758,391.602,-179.688,-36.133,-394.531
1571286333.807,-156.738,441.406,826.660,-100.098,-319.336
1571286333.811,-345.215,156.738,-992.188,-188.477,-374.023
1571286333.815,-323.242,-159.180,975.586,-201.172,-438.477
1571286333.819,-157.715,-517.578,-998.535,-117.188,-381.348
1571286333.823,-84.961,-686.035,-1000.000,3.418,-314.941
1571286333.827,-135.254,-578.125,999.512,21.484,-364.258
1571286333.831,-184.082,-385.254,999.512,-5.371,-397.461
1571286333.835,-191.895,-21.484,999.512,-117.676,-375.488
1571286333.839,-191.895,473.145,999.512,-244.629,-312.500
1571286333.843,-193.359,807.617,999.512,-102.051,-335.938
1571286333.846,-253.418,977.051,999.512,-100.098,-395.020
1571286333.850,-280.273,964.844,999.512,-233.887,-336.426
1571286333.854,-236.328,684.082,999.512,-217.285,-216.309
1571286333.858,-389.160,643.066,999.512,-275.879,-141.113
1571286333.862,-535.645,-30.273,999.512,-344.727,-139.648
1571286333.866,-419.922,-975.098,999.512,-292.969,-158.691
1571286333.870,-259.766,-968.750,999.512,-216.797,-40.527
1571286333.874,-284.180,-946.777,999.512,-261.230,46.875
1571286333.878,-416.016,-976.074,999.512,-315.430,-34.180
1571286333.882,-446.289,-970.215,999.512,-274.902,-56.152
1571286333.886,-372.070,-970.215,999.512,-288.086,22.461
1571286333.889,-368.652,-970.215,999.512,-348.633,77.148
1571286333.893,-503.418,-970.215,999.512,-372.559,51.270
1571286333.897,-590.332,-970.215,999.512,-369.141,3.906
1571286333.901,-456.055,-970.215,999.512,-375.977,16.602
1571286333.905,-313.477,-970.215,999.512,-367.676,76.660
1571286333.909,-384.277,-970.215,999.512,-346.191,57.129
1571286333.913,-460.449,-970.215,999.512,-329.102,-31.738
1571286333.917,-420.410,-970.215,999.512,-359.375,-51.270
1571286333.921,-360.352,-972.168,999.512,-378.418,23.926
1571286333.925,-426.270,-958.984,999.512,-358.398,42.969
1571286333.929,-534.180,-977.051,999.512,-363.281,-32.715
1571286333.932,-482.422,-918.945,999.512,-367.676,-89.844
1571286333.936,-395.508,-520.996,999.512,-366.699,-11.230
1571286333.940,-413.086,-273.438,999.512,-341.309,65.430
1571286333.944,-562.012,-405.762,999.512,-384.277,-24.902
1571286333.948,-573.242,-624.023,999.512,-429.199,-98.633
1571286333.952,-462.402,-777.832,999.512,-428.711,-87.891
1571286333.956,-402.832,-767.578,999.512,-400.391,-30.273
1571286333.960,-486.328,-729.492,999.512,-373.535,-83.008
1571286333.964,-527.832,-701.172,999.512,-385.742,-198.730
1571286333.968,-393.066,-591.797,999.512,-373.047,-200.195
1571286333.971,-270.996,-483.398,999.512,-312.988,-133.789
1571286333.975,-351.562,-406.738,999.512,-279.785,-169.434
1571286333.979,-436.035,-290.039,999.512,-274.902,-274.414
1571286333.983,-377.441,-127.930,999.512,-256.348,-296.387
1571286333.987,-258.789,-51.270,999.512,-225.098,-210.938
1571286333.991,-222.656,33.691,999.512,-250.488,-198.730
1571286333.995,-339.355,92.285,999.512,-276.367,-298.828
1571286333.999,-323.242,45.898,999.512,-205.566,-357.422
1571286334.003,-156.250,75.195,999.512,-123.535,-321.289
1571286334.007,-126.465,119.141,999.512,-83.496,-274.414
1571286334.011,-258.789,152.832,999.512,-112.793,-355.957
1571286334.014,-306.641,236.816,999.512,-86.914,-386.719
1571286334.018,-196.289,232.422,999.512,-83.984,-374.512
1571286334.022,-120.117,200.684,999.512,-97.168,-362.793
1571286334.026,-177.734,133.789,999.512,-56.641,-388.672
1571286334.030,-229.004,-10.254,999.512,-65.430,-493.652
1571286334.034,-152.344,-77.637,999.512,-33.691,-519.531
1571286334.038,-71.777,-62.500,-999.023,6.836,-446.289
1571286334.042,-115.234,-37.109,990.723,23.438,-448.242
1571286334.046,-216.309,-56.641,-992.676,15.625,-532.715
1571286334.050,-180.176,-61.035,934.082,-1.465,-572.754
1571286334.054,-58.594,16.602,678.223,35.156,-502.930
1571286334.057,-83.008,100.098,246.094,37.598,-463.867
1571286334.061,-195.801,120.117,-553.223,52.246,-554.688
1571286334.065,-200.195,113.281,-994.629,66.406,-637.695
1571286334.069,-91.797,72.266,-951.172,82.520,-597.656
1571286334.073,-19.531,31.250,-964.844,123.047,-556.641
1571286334.077,-138.672,38.574,-972.168,92.285,-627.930
1571286334.081,-245.117,30.762,-970.215,97.656,-696.289
1571286334.085,-125.000,70.312,-970.215,163.574,-683.105
1571286334.089,-43.457,127.930,-970.215,145.508,-588.867
1571286334.093,-166.504,104.004,-970.215,76.172,-604.492
1571286334.096,-284.180,52.734,-970.215,45.410,-699.707
1571286334.100,-276.367,44.922,-970.215,88.379,-712.402
1571286334.104,-210.938,53.711,-970.215,125.000,-647.949
1571286334.108,-276.367,37.598,-970.215,52.246,-637.207
1571286334.112,-411.133,3.906,-970.215,11.230,-719.727
1571286334.116,-373.047,-7.324,-970.215,60.059,-741.699
1571286334.120,-268.555,44.434,-970.215,84.961,-661.133
1571286334.124,-353.516,75.684,-970.215,59.082,-636.719
1571286334.128,-521.973,67.871,-970.215,27.832,-762.695
1571286334.132,-566.895,83.984,-970.215,37.598,-838.379
1571286334.136,-502.441,60.059,-970.215,89.844,-746.582
1571286334.139,-498.047,4.395,-970.215,101.562,-686.523
1571286334.143,-607.422,50.781,-970.215,48.340,-741.699
1571286334.147,-706.055,239.746,-970.215,62.012,-810.059
1571286334.151,-752.930,468.262,-970.215,115.234,-796.875
1571286334.155,-802.246,706.543,-970.215,120.605,-719.238
1571286334.159,-918.945,872.559,-970.215,122.559,-745.605
1571286334.163,-975.586,864.258,-970.215,129.395,-877.441
1571286334.167,-966.309,746.094,-970.215,148.926,-909.180
1571286334.171,-969.727,822.266,-970.215,227.539,-821.777
1571286334.175,-970.215,997.070,-970.215,245.117,-866.699
1571286334.179,-970.215,-999.512,-970.215,168.945,-957.031
1571286334.182,-970.215,994.629,-970.215,166.992,-975.586
1571286334.186,-970.215,-999.512,-970.215,254.395,-923.828
1571286334.190,-970.215,999.512,-970.215,297.852,-862.305
1571286334.194,-960.938,999.512,-970.215,291.016,-910.645
1571286334.198,-987.793,993.652,-970.215,318.848,-975.098
1571286334.202,-870.117,-990.234,-970.215,397.461,-946.777
1571286334.206,-664.062,938.477,-970.215,402.832,-816.406
1571286334.210,-671.387,800.781,-970.215,314.941,-815.430
1571286334.214,-661.133,772.949,-970.215,314.453,-890.625
1571286334.218,-483.398,729.004,-970.215,399.902,-867.188
1571286334.221,-300.781,703.613,-970.215,445.312,-772.461
1571286334.225,-341.797,725.098,-970.215,397.949,-769.043
1571286334.229,-429.688,714.355,-970.215,369.629,-840.332
1571286334.233,-299.316,732.422,-970.215,461.914,-854.980
1571286334.237,-119.141,766.602,-970.215,455.078,-804.688
1571286334.241,-171.387,706.055,-970.215,375.977,-755.371
1571286334.245,-305.176,611.328,-970.215,380.859,-827.637
1571286334.249,-263.184,597.168,-970.215,376.953,-870.605
1571286334.253,-92.773,584.961,-970.215,409.180,-788.086
1571286334.257,-79.590,487.305,-970.215,393.066,-724.121
1571286334.261,-204.102,414.062,-970.215,375.977,-756.836
1571286334.264,-195.801,375.000,-969.727,394.531,-845.215
1571286334.268,-37.598,384.766,-970.215,383.789,-795.410
1571286334.272,70.801,414.551,-970.215,419.434,-655.273
1571286334.276,-55.664,370.605,-970.215,390.625,-674.805
1571286334.280,-171.387,373.047,-970.215,373.047,-761.230
1571286334.284,-40.527,387.207,-970.215,407.227,-754.395
1571286334.288,94.238,335.938,-970.215,418.457,-654.297
1571286334.292,14.648,304.199,-970.215,395.508,-634.277
1571286334.296,-114.746,268.555,-970.215,322.754,-692.383
1571286334.300,-107.910,202.637,-970.215,327.148,-715.332
1571286334.304,27.344,142.090,-970.215,411.621,-655.762
1571286334.307,32.227,115.723,-970.215,408.203,-656.250
1571286334.311,-102.539,122.559,-970.215,339.355,-726.562
1571286334.315,-130.859,133.789,-970.215,327.637,-723.633
1571286334.319,-18.555,141.113,-970.215,346.680,-689.941
1571286334.323,25.879,145.508,-970.215,386.719,-646.973
1571286334.327,-106.445,172.852,-970.215,354.492,-682.129
1571286334.331,-137.695,211.426,-970.215,312.500,-752.930
1571286334.335,20.996,196.777,-970.215,382.324,-720.703
1571286334.339,105.469,167.969,-970.215,389.648,-646.484
1571286334.343,-26.367,198.730,-970.215,338.867,-649.902
1571286334.346,-124.512,240.723,-970.215,297.852,-705.566
1571286334.350,-30.273,265.625,-970.215,318.359,-737.793
1571286334.354,83.984,262.695,-970.215,343.262,-655.762
1571286334.358,2.930,222.656,-970.215,345.703,-597.168
1571286334.362,-100.586,245.605,-970.215,375.977,-641.602
1571286334.366,-41.992,321.289,-970.215,352.539,-704.102
1571286334.370,89.844,389.160,-970.215,337.402,-656.250
1571286334.374,76.660,396.484,-970.215,341.309,-570.801
1571286334.378,-69.824,341.797,-970.215,307.617,-640.137
1571286334.382,-92.773,352.539,-970.215,305.664,-695.801
1571286334.386,75.684,386.719,-970.215,310.059,-622.070
1571286334.389,146.484,403.809,-970.215,303.223,-562.012
1571286334.393,-3.906,466.309,-970.215,276.855,-600.586
1571286334.397,-43.457,503.906,-970.215,274.902,-683.105
1571286334.401,87.402,513.672,-970.215,291.992,-667.969
1571286334.405,165.039,543.945,-970.215,295.898,-583.008
1571286334.409,53.711,582.031,-970.215,278.320,-612.793
1571286334.413,-50.293,639.648,-970.215,254.395,-710.938
1571286334.417,62.012,648.926,-970.215,263.672,-739.258
1571286334.421,249.023,612.793,-970.215,306.641,-634.277
1571286334.425,144.043,585.938,-970.215,289.551,-612.793
1571286334.429,-35.645,588.379,-970.215,221.680,-683.594
1571286334.432,6.836,621.094,-970.215,231.445,-724.121
1571286334.436,179.688,680.664,-970.215,270.996,-666.992
1571286334.440,200.684,780.762,-970.215,236.816,-602.539
1571286334.444,42.480,821.777,-970.215,208.008,-645.508
1571286334.448,-1.465,808.594,-970.215,260.254,-692.871
1571286334.452,139.648,848.145,-970.215,301.758,-648.438
1571286334.456,234.375,918.457,-970.215,280.762,-569.824
1571286334.460,108.887,876.953,-970.215,230.469,-623.047
1571286334.464,-14.160,780.762,-970.215,198.242,-684.082
1571286334.468,73.242,717.285,-970.215,236.328,-645.996
1571286334.471,197.266,646.484,-970.215,284.668,-599.121
1571286334.475,123.047,593.750,-970.215,281.250,-622.070
1571286334.479,24.902,551.758,-970.215,257.324,-646.484
1571286334.483,84.473,476.074,-970.215,226.562,-651.367
1571286334.487,220.703,416.504,-970.215,265.625,-614.258
1571286334.491,210.938,410.156,-970.215,285.156,-611.816
1571286334.495,82.520,367.676,-970.215,219.238,-695.312
1571286334.499,67.383,293.457,-970.215,185.547,-726.562
1571286334.503,199.707,247.070,-970.215,237.305,-668.945
1571286334.507,235.840,228.516,-970.215,257.812,-643.066
1571286334.511,107.422,219.727,-970.215,223.633,-692.383
1571286334.514,84.473,195.801,-970.215,220.703,-745.117
1571286334.518,234.863,211.914,-970.215,251.465,-724.121
1571286334.522,273.438,226.562,-970.215,267.578,-654.785
1571286334.526,144.531,202.148,-970.215,223.145,-669.922
1571286334.530,55.664,176.270,-970.215,139.648,-759.766
1571286334.534,106.445,135.254,-970.215,131.836,-760.254
1571286334.538,249.512,77.637,-970.215,230.957,-651.855
1571286334.542,195.801,4.883,-970.215,234.375,-628.418
1571286334.546,34.180,-76.660,-970.215,128.906,-728.027
1571286334.550,57.129,-106.934,-970.215,118.164,-778.809
1571286334.554,208.984,-121.582,-970.215,168.457,-681.641
1571286334.557,230.957,-180.664,-970.215,196.289,-654.297
1571286334.561,81.055,-241.211,-970.215,175.293,-735.840
1571286334.565,42.969,-299.316,-970.215,170.898,-778.320
1571286334.569,173.828,-360.352,-970.215,163.574,-714.844
1571286334.573,215.820,-426.270,-970.215,180.176,-662.109
1571286334.577,85.938,-436.523,-970.215,174.316,-710.938
1571286334.581,39.062,-438.477,-970.215,149.414,-770.996
1571286334.585,126.465,-469.727,-970.215,173.828,-736.328
1571286334.589,207.031,-448.242,-970.215,189.941,-658.691
1571286334.593,123.047,-422.363,-970.215,127.441,-702.148
1571286334.596,3.418,-405.762,-970.215,87.891,-769.043
1571286334.600,46.875,-384.766,-970.215,105.957,-760.254
1571286334.604,164.062,-362.793,-970.215,143.066,-701.172
1571286334.608,124.023,-365.234,-970.215,126.465,-685.059
1571286334.612,8.789,-381.836,-970.215,106.445,-748.047
1571286334.616,53.711,-345.703,-970.215,144.531,-773.438
1571286334.620,174.316,-296.875,-970.215,158.203,-722.168
1571286334.624,161.133,-259.277,-970.215,152.832,-681.152
1571286334.628,-0.488,-219.727,-970.215,128.906,-733.887
1571286334.632,-25.879,-208.496,-970.215,137.207,-803.711
1571286334.636,119.629,-191.406,-970.215,140.625,-761.719
1571286334.639,148.438,-162.598,-970.215,103.027,-690.430
1571286334.643,17.578,-155.762,-970.215,86.914,-720.703
1571286334.647,-69.336,-155.762,-970.215,64.453,-769.531
1571286334.651,32.715,-109.375,-970.215,62.988,-760.742
1571286334.655,164.551,-61.035,-970.215,103.027,-681.152
1571286334.659,59.570,-28.320,-970.215,102.539,-671.875
1571286334.663,-62.500,1.953,-970.215,90.820,-762.695
1571286334.667,3.906,4.883,-970.215,116.211,-787.598
1571286334.671,113.770,17.578,-970.215,131.348,-697.754
1571286334.675,87.402,32.227,-970.215,129.395,-655.762
1571286334.679,-20.996,40.039,-970.215,122.070,-737.305
1571286334.682,-17.090,47.363,-970.215,110.352,-796.875
1571286334.686,119.141,81.543,-970.215,139.160,-729.980
1571286334.690,104.004,89.355,-970.215,113.770,-659.180
1571286334.694,-73.730,61.523,-970.215,62.012,-701.172
1571286334.698,-92.773,76.660,-970.215,64.453,-765.137
1571286334.702,15.625,95.215,-970.215,89.844,-729.980
1571286334.706,64.453,133.301,-970.215,137.207,-631.836
1571286334.710,-32.715,143.066,-970.215,102.539,-688.477
1571286334.714,-135.742,117.676,-970.215,19.043,-779.785
1571286334.718,-47.852,140.625,-970.215,43.457,-755.371
1571286334.721,72.754,144.531,-970.215,139.648,-674.316
1571286334.725,-2.930,152.344,-970.215,156.250,-684.570
1571286334.729,-138.184,209.961,-970.215,87.402,-781.738
1571286334.733,-94.727,250.488,-970.215,68.848,-764.648
1571286334.737,59.082,255.859,-970.215,105.469,-667.969
1571286334.741,36.621,259.766,-970.215,114.258,-651.367
1571286334.745,-83.984,254.883,-970.215,77.148,-726.562
1571286334.749,-81.543,261.719,-970.215,111.328,-756.348
1571286334.753,19.043,268.066,-970.215,160.645,-678.711
1571286334.757,78.613,264.160,-970.215,134.766,-624.512
1571286334.761,-52.734,278.320,-970.215,70.801,-659.180
1571286334.764,-134.277,294.434,-970.215,76.660,-695.312
1571286334.768,10.254,307.129,-970.215,124.023,-663.086
1571286334.772,92.285,333.008,-970.215,112.793,-611.816
1571286334.776,-37.598,325.684,-970.215,92.773,-657.715
1571286334.780,-117.188,306.641,-970.215,64.453,-743.164
1571286334.784,-3.418,320.801,-970.215,94.727,-730.469
1571286334.788,105.469,318.848,-970.215,135.742,-656.738
1571286334.792,-1.953,342.285,-970.215,126.465,-657.227
1571286334.796,-129.395,361.816,-970.215,121.094,-708.984
1571286334.800,-89.355,362.793,-970.215,93.750,-718.262
1571286334.804,64.453,385.254,-970.215,111.328,-637.207
1571286334.807,44.922,394.043,-970.215,120.117,-598.633
1571286334.811,-104.980,374.023,-970.215,87.402,-680.176
1571286334.815,-95.703,371.582,-970.215,66.895,-722.168
1571286334.819,39.551,385.742,-970.215,95.703,-678.711
1571286334.823,122.559,404.297,-970.215,185.059,-633.789
1571286334.827,-3.906,438.477,-970.215,146.973,-658.691
1571286334.831,-138.672,442.871,-970.215,53.223,-713.379
1571286334.835,-71.777,442.871,-970.215,54.199,-692.383
1571286334.839,30.273,462.891,-970.215,87.891,-573.242
1571286334.843,-40.039,445.801,-970.215,78.613,-581.055
1571286334.846,-144.531,410.645,-970.215,46.875,-698.242
1571286334.850,-81.543,410.156,-970.215,77.148,-700.684
1571286334.854,38.574,429.688,-970.215,109.863,-588.379
1571286334.858,-1.465,437.988,-970.215,118.652,-582.520
1571286334.862,-108.398,436.035,-970.215,107.910,-674.316
1571286334.866,-96.680,426.758,-970.215,111.328,-696.777
1571286334.870,37.109,425.781,-970.215,115.723,-615.723
1571286334.874,63.477,427.246,-970.215,83.008,-561.035
1571286334.878,-80.566,408.691,-970.215,39.062,-649.902
1571286334.882,-130.859,402.832,-970.215,67.871,-701.660
1571286334.886,1.465,411.621,-970.215,121.094,-644.531
1571286334.889,63.477,404.785,-970.215,116.211,-562.988
1571286334.893,-70.801,401.367,-970.215,97.168,-603.027
1571286334.897,-127.930,423.340,-970.215,118.164,-683.594
1571286334.901,-8.301,443.359,-970.215,143.555,-638.672
1571286334.905,70.312,411.133,-970.215,147.461,-557.129
1571286334.909,-72.266,376.953,-970.215,116.699,-600.586
1571286334.913,-222.168,399.414,-970.215,61.523,-706.543
1571286334.917,-178.223,427.734,-970.215,63.965,-693.359
1571286334.921,-73.730,418.945,-970.215,90.332,-603.516
1571286334.925,-121.582,402.832,-970.215,89.844,-597.656
1571286334.929,-234.863,414.551,-970.215,76.172,-667.480
1571286334.932,-209.473,416.016,-970.215,104.004,-689.941
1571286334.936,-78.613,405.273,-970.215,158.203,-633.789
1571286334.940,-93.262,416.016,-970.215,117.188,-571.289
1571286334.944,-233.398,434.570,-970.215,47.363,-613.281
1571286334.948,-269.531,427.734,-970.215,91.309,-670.898
1571286334.952,-172.363,422.852,-970.215,116.211,-632.812
1571286334.956,-106.934,431.641,-970.215,119.629,-541.992
1571286334.960,-221.191,408.691,-970.215,90.332,-581.055
1571286334.964,-285.645,364.746,-970.215,37.109,-659.180
1571286334.968,-177.734,354.492,-970.215,66.895,-647.461
1571286334.971,-73.730,371.094,-970.215,132.324,-598.145
1571286334.975,-160.645,372.559,-970.215,105.469,-567.871
1571286334.979,-237.793,353.516,-970.215,83.008,-612.793
1571286334.983,-194.824,325.684,-970.215,127.441,-645.508
1571286334.987,-93.750,324.707,-970.215,119.629,-558.594
1571286334.991,-105.957,357.422,-970.215,77.637,-540.039
1571286334.995,-229.980,397.461,-970.215,65.430,-629.883
1571286334.999,-260.742,413.086,-970.215,100.098,-660.645
1571286335.003,-154.785,415.527,-970.215,105.957,-587.402
1571286335.007,-119.141,415.039,-970.215,93.750,-510.742
1571286335.011,-256.836,400.391,-970.215,75.195,-611.328
1571286335.014,-333.496,399.902,-970.215,38.086,-693.359
1571286335.018,-251.953,407.715,-970.215,71.289,-646.484
1571286335.022,-153.809,398.926,-970.215,130.859,-567.383
1571286335.026,-250.488,404.785,-970.215,113.770,-585.938
1571286335.030,-324.219,422.852,-970.215,83.984,-658.691
1571286335.034,-226.074,422.852,-970.215,108.887,-639.160
1571286335.038,-151.855,422.852,-970.215,89.844,-570.801
1571286335.042,-243.652,440.430,-970.215,62.012,-585.938
1571286335.046,-361.328,440.918,-970.215,97.168,-666.016
1571286335.050,-293.945,428.223,-970.215,110.840,-676.270
1571286335.054,-172.363,406.250,-970.215,110.840,-615.723
1571286335.057,-237.305,365.234,-970.215,87.891,-595.215
1571286335.061,-380.859,351.074,-970.215,34.668,-651.855
1571286335.065,-368.652,375.977,-970.215,14.160,-688.965
1571286335.069,-238.770,383.301,-970.215,64.941,-638.184
1571286335.073,-217.285,386.719,-970.215,94.238,-551.758
1571286335.077,-348.145,396.973,-970.215,70.312,-601.562
1571286335.081,-428.711,376.953,-970.215,36.621,-683.105
1571286335.085,-363.770,363.770,-970.215,51.270,-679.199
1571286335.089,-309.082,366.211,-970.215,82.520,-597.168
1571286335.093,-423.828,326.660,-970.215,47.852,-621.094
1571286335.096,-531.250,303.223,-970.215,19.043,-700.195
1571286335.100,-470.215,312.988,-970.215,86.426,-675.781
1571286335.104,-359.863,328.613,-970.215,115.723,-616.211
1571286335.108,-409.180,326.172,-970.215,88.379,-586.426
1571286335.112,-536.133,343.750,-970.215,49.805,-648.438
1571286335.116,-466.797,444.824,-970.215,33.203,-696.289
1571286335.120,-295.410,552.246,-970.215,87.891,-613.770
1571286335.124,-294.922,610.840,-970.215,56.641,-572.754
1571286335.128,-437.012,719.238,-970.215,3.906,-645.508
1571286335.132,-461.426,913.574,-970.215,-13.672,-699.219
1571286335.136,-275.391,-998.047,-970.215,25.391,-671.387
1571286335.139,-170.898,995.605,-970.215,72.266,-590.332
1571286335.143,-234.375,998.047,-970.215,32.715,-628.906
1571286335.147,-210.449,-1000.000,-970.215,-3.906,-707.031
1571286335.151,-40.039,999.512,-970.215,7.324,-673.828
1571286335.155,127.930,999.512,-970.215,50.781,-587.891
1571286335.159,94.727,-999.512,-970.215,49.316,-598.145
1571286335.163,7.324,990.234,-970.215,20.996,-705.078
1571286335.167,101.562,-990.234,-970.215,76.172,-728.516
1571286335.171,258.789,935.059,-970.215,83.984,-630.859
1571286335.175,218.262,653.809,-970.215,6.348,-598.145
1571286335.179,101.074,486.816,-970.215,-28.809,-645.508
1571286335.182,149.414,446.289,-970.215,-14.648,-675.293
1571286335.186,303.711,447.754,-970.215,31.738,-623.047
1571286335.190,323.730,470.703,-970.215,44.434,-556.641
1571286335.194,206.543,480.957,-970.215,4.395,-604.492
1571286335.198,187.500,545.898,-970.215,32.227,-704.102
1571286335.202,322.754,623.047,-970.215,76.660,-686.035
1571286335.206,373.047,639.648,-970.215,20.020,-625.000
1571286335.210,235.352,652.832,-970.215,-19.531,-677.734
1571286335.214,162.109,756.836,-970.215,-48.340,-708.008
1571286335.218,271.484,906.738,-970.215,-4.395,-683.105
1571286335.221,388.672,-999.023,-970.215,38.086,-604.980
1571286335.225,310.059,997.070,-970.215,14.648,-584.473
1571286335.229,203.125,997.070,-970.215,-14.648,-645.508
1571286335.233,216.797,-998.047,-970.215,20.020,-657.227
1571286335.237,319.336,986.816,-970.215,55.176,-592.773
1571286335.241,300.781,981.934,-970.215,37.109,-553.711
1571286335.245,174.316,-996.094,-970.215,8.789,-627.930
1571286335.249,166.016,976.074,-970.215,-30.273,-657.227
1571286335.253,281.250,863.281,-970.215,21.484,-592.285
1571286335.257,297.363,822.754,-970.215,48.340,-561.523
1571286335.261,166.992,838.379,-970.215,9.766,-607.422
1571286335.264,130.371,846.191,-970.215,-0.488,-656.250
1571286335.268,253.906,872.559,-970.215,27.344,-627.930
1571286335.272,343.750,871.582,-970.215,39.062,-547.363
1571286335.276,231.445,871.582,-970.215,8.301,-561.035
1571286335.280,124.023,830.078,-970.215,17.578,-648.438
1571286335.284,202.148,800.781,-970.215,49.805,-645.020
1571286335.288,315.430,826.660,-970.215,38.086,-535.156
1571286335.292,249.512,734.863,-970.215,-2.930,-535.645
1571286335.296,122.559,648.438,-970.215,2.441,-649.414
1571286335.300,169.434,639.648,-970.215,45.410,-670.898
1571286335.304,314.941,531.738,-970.215,46.875,-556.152
1571286335.307,287.109,401.367,-970.215,39.062,-514.648
1571286335.311,132.812,414.551,-970.215,18.555,-597.656
1571286335.315,122.070,406.738,-970.215,14.160,-640.137
1571286335.319,274.902,375.488,-970.215,60.547,-589.844
1571286335.323,297.363,395.020,-970.215,62.988,-525.391
1571286335.327,139.160,228.027,-970.215,26.367,-572.266
1571286335.331,70.801,-130.859,-970.215,-20.996,-659.668
1571286335.335,174.316,-408.203,-970.215,3.906,-639.648
1571286335.339,249.023,-520.508,-970.215,31.250,-550.781
1571286335.343,89.844,-558.594,-970.215,-51.270,-606.934
1571286335.346,-49.805,-519.531,-970.215,-97.168,-690.918
1571286335.350,26.367,-348.145,-970.215,-108.398,-663.574
1571286335.354,147.461,-122.559,-970.215,-94.727,-591.309
1571286335.358,36.133,94.727,-970.215,-99.121,-615.723
1571286335.362,-100.098,366.211,-970.215,-116.699,-706.543
1571286335.366,-53.223,585.938,-970.215,-113.770,-729.980
1571286335.370,20.996,742.676,-970.215,-130.859,-680.176
1571286335.374,-23.438,860.840,-970.215,-158.203,-660.645
1571286335.378,-176.758,929.199,-970.215,-185.547,-742.188
1571286335.382,-197.754,987.793,-970.215,-209.961,-807.617
1571286335.386,-36.621,-1000.000,-970.215,-216.309,-776.367
1571286335.389,-38.574,998.047,-970.215,-172.852,-726.074
1571286335.393,-210.938,999.512,-970.215,-194.336,-747.070
1571286335.397,-246.094,999.512,-970.215,-264.648,-826.172
1571286335.401,-135.742,999.512,-970.215,-263.672,-847.656
1571286335.405,-5.859,999.512,-970.215,-187.012,-773.438
1571286335.409,-75.195,999.512,-970.215,-149.414,-771.973
1571286335.413,-194.824,999.512,-970.215,-218.262,-857.910
1571286335.417,-57.617,999.512,-970.215,-220.215,-851.074
1571286335.421,107.422,999.512,-970.215,-137.695,-761.719
1571286335.425,38.574,999.512,-970.215,-108.887,-725.586
1571286335.429,-57.617,999.512,-970.215,-95.703,-806.641
1571286335.432,28.320,999.512,-970.215,-46.875,-876.953
1571286335.436,184.570,999.512,-970.215,12.207,-796.387
1571286335.440,185.059,999.512,-970.215,37.598,-724.121
1571286335.444,94.727,999.512,-970.215,47.852,-767.090
1571286335.448,96.191,999.512,-970.215,82.520,-851.562
1571286335.452,257.324,999.512,-970.215,123.535,-833.008
1571286335.456,339.844,999.512,-970.215,166.992,-712.402
1571286335.460,222.656,999.512,-970.215,166.016,-740.723
1571286335.464,189.941,999.512,-970.215,164.551,-833.496
1571286335.468,321.777,999.512,-970.215,229.004,-797.852
1571286335.471,451.172,999.512,-970.215,251.465,-707.031
1571286335.475,359.375,999.512,-970.215,248.047,-729.980
1571286335.479,229.004,-1000.000,-970.215,225.098,-810.547
1571286335.483,318.848,994.141,-970.215,189.453,-818.848
1571286335.487,465.820,-998.535,-970.215,258.789,-744.629
1571286335.491,428.223,959.473,-970.215,286.621,-742.676
1571286335.495,289.062,751.953,-970.215,210.938,-820.312
1571286335.499,267.090,466.309,-970.215,152.832,-857.910
1571286335.503,428.711,224.121,-970.215,195.801,-775.879
1571286335.507,485.352,7.324,-970.215,233.398,-696.289
1571286335.511,311.035,-154.785,-970.215,175.781,-753.906
1571286335.514,231.445,-244.141,-970.215,147.461,-796.387
1571286335.518,337.402,-299.805,-970.215,209.473,-757.324
1571286335.522,418.457,-328.125,-970.215,245.117,-701.172
1571286335.526,291.992,-358.398,-970.215,162.598,-728.516
1571286335.530,209.961,-364.746,-970.215,128.906,-779.785
1571286335.534,293.945,-363.281,-970.215,168.945,-783.691
1571286335.538,376.465,-368.652,-970.215,167.480,-734.863
1571286335.542,283.203,-337.891,-970.215,137.207,-714.844
1571286335.546,150.879,-354.004,-970.215,116.211,-770.508
1571286335.550,185.547,-368.652,-970.215,94.727,-778.320
1571286335.554,300.293,-334.473,-970.215,93.750,-720.215
1571286335.557,259.277,-306.152,-970.215,99.609,-691.895
1571286335.561,115.723,-302.734,-970.215,70.801,-725.098
1571286335.565,106.445,-255.859,-970.215,38.574,-785.645
1571286335.569,239.258,-157.227,-970.215,83.984,-730.469
1571286335.573,287.109,-96.680,-970.215,101.562,-654.785
1571286335.577,158.691,-77.637,-970.215,68.359,-716.309
1571286335.581,68.848,-97.168,-970.215,90.820,-783.691
1571286335.585,218.750,-105.957,-970.215,48.828,-765.137
1571286335.589,323.242,-115.723,-970.215,37.109,-663.086
1571286335.593,170.898,-231.445,-970.215,62.012,-674.805
1571286335.596,70.801,-328.613,-970.215,45.898,-780.273
1571286335.600,144.531,-362.793,-970.215,33.691,-772.949
1571286335.604,276.367,-403.809,-970.215,63.477,-678.223
1571286335.608,211.914,-478.516,-970.215,65.430,-660.645
1571286335.612,60.547,-548.828,-970.215,20.508,-765.625
1571286335.616,135.254,-514.160,-970.215,22.461,-814.941
1571286335.620,253.418,-426.758,-970.215,86.914,-728.516
1571286335.624,185.059,-340.820,-970.215,114.258,-661.133
1571286335.628,38.574,-260.254,-970.215,69.336,-761.230
1571286335.632,35.645,-164.062,-970.215,19.043,-851.074
1571286335.636,162.109,-20.996,-970.215,37.109,-774.902
1571286335.639,184.570,77.148,-970.215,42.480,-692.871
1571286335.643,32.227,168.457,-970.215,0.000,-739.258
1571286335.647,-27.832,213.867,-970.215,-14.160,-821.777
1571286335.651,113.770,288.086,-970.215,25.391,-815.430
1571286335.655,201.660,418.457,-970.215,85.449,-738.281
1571286335.659,49.805,448.242,-970.215,51.758,-740.234
1571286335.663,-85.938,480.957,-970.215,-23.438,-814.941
1571286335.667,5.371,632.812,-970.215,-37.109,-797.852
1571286335.671,151.367,770.020,-970.215,32.715,-733.398
1571286335.675,76.660,812.012,-970.215,41.504,-750.977
1571286335.679,-82.031,796.875,-970.215,13.184,-813.477
1571286335.682,-56.641,696.289,-970.215,5.859,-833.496
1571286335.686,90.332,612.793,-970.215,21.973,-751.465
1571286335.690,116.211,543.457,-970.215,45.898,-692.383
1571286335.694,-8.301,375.000,-970.215,47.363,-766.602
1571286335.698,-20.508,212.891,-970.215,61.035,-814.941
1571286335.702,127.441,188.965,-970.215,68.359,-760.742
1571286335.706,185.547,199.707,-970.215,81.055,-701.172
1571286335.710,47.363,204.590,-970.215,96.680,-750.977
1571286335.714,-8.789,249.512,-970.215,84.473,-813.965
1571286335.718,110.352,313.965,-970.215,62.988,-831.055
1571286335.721,198.242,413.086,-970.215,74.707,-752.930
1571286335.725,89.844,483.887,-970.215,79.590,-713.867
1571286335.729,9.277,531.738,-970.215,59.082,-804.688
1571286335.733,99.609,641.602,-970.215,78.125,-808.594
1571286335.737,182.129,730.469,-970.215,125.488,-725.586
1571286335.741,107.910,757.324,-970.215,98.633,-689.453
1571286335.745,-47.852,763.184,-970.215,49.316,-772.949
1571286335.749,-35.645,789.551,-970.215,63.477,-820.312
1571286335.753,75.684,776.855,-970.215,94.727,-748.535
1571286335.757,91.797,712.402,-970.215,119.141,-688.477
1571286335.761,-30.762,626.953,-970.215,69.824,-745.605
1571286335.764,-127.441,562.012,-970.215,31.250,-818.848
1571286335.768,-35.645,546.387,-970.215,107.910,-752.441
1571286335.772,45.898,476.074,-970.215,126.465,-663.574
1571286335.776,-115.723,348.145,-970.215,70.312,-703.613
1571286335.780,-244.629,257.324,-970.215,55.176,-776.855
1571286335.784,-150.391,229.492,-970.215,54.199,-748.047
1571286335.788,-41.992,174.316,-970.215,84.961,-634.277
1571286335.792,-133.301,60.059,-970.215,120.605,-642.578
1571286335.796,-250.000,-16.602,-970.215,107.910,-725.098
1571286335.800,-180.664,-86.426,-970.215,51.758,-706.543
1571286335.804,-38.574,-181.641,-970.215,50.781,-648.926
1571286335.807,-34.668,-284.180,-970.215,88.379,-625.977
1571286335.811,-144.531,-456.055,-970.215,99.121,-685.059
1571286335.815,-145.020,-654.297,-970.215,103.027,-742.188
1571286335.819,46.875,-765.137,-970.215,80.566,-702.637
1571286335.823,116.211,-821.777,-970.215,92.773,-662.598
1571286335.827,-31.250,-903.809,-970.215,73.242,-701.172
1571286335.831,-54.199,-906.738,-970.215,4.395,-736.328
1571286335.835,106.445,-902.344,-970.215,37.109,-710.449
1571286335.839,203.613,-947.754,-970.215,112.793,-636.230
1571286335.843,110.352,-948.242,-970.215,88.379,-619.141
1571286335.846,29.785,-958.496,-970.215,8.789,-702.148
1571286335.850,128.418,-972.656,-970.215,19.531,-720.703
1571286335.854,258.789,-969.238,-970.215,85.938,-643.555
1571286335.858,192.871,-970.215,-970.215,93.750,-644.043
1571286335.862,66.895,-970.215,-970.215,54.199,-703.125
1571286335.866,119.629,-970.703,-970.215,21.484,-733.398
1571286335.870,251.953,-970.703,-970.215,58.594,-666.016
1571286335.874,224.609,-961.426,-970.215,96.680,-572.754
1571286335.878,96.680,-970.215,-970.215,55.176,-633.789
1571286335.882,118.164,-882.324,-970.215,1.465,-736.328
1571286335.886,255.859,-471.191,-970.215,39.551,-686.035
1571286335.889,282.227,-75.684,-970.215,78.613,-573.730
1571286335.893,142.090,117.188,-970.215,32.227,-607.422
1571286335.897,46.875,225.586,-970.215,-4.395,-684.082
1571286335.901,161.621,141.602,-970.215,26.367,-643.066
1571286335.905,278.809,-31.250,-970.215,74.219,-567.871
1571286335.909,168.945,-212.402,-970.215,12.207,-595.215
1571286335.913,48.340,-271.973,-970.215,-10.254,-698.730
1571286335.917,113.281,-105.469,-970.215,-5.859,-677.246
1571286335.921,260.742,40.039,-970.215,21.484,-581.543
1571286335.925,200.195,56.641,-970.215,47.852,-583.008
1571286335.929,57.129,-59.570,-970.215,19.043,-661.133
1571286335.932,83.984,-125.977,-970.215,16.602,-699.707
1571286335.936,243.164,-97.656,-970.215,39.062,-638.672
1571286335.940,264.160,-149.414,-970.215,14.648,-586.426
1571286335.944,59.082,-190.918,-970.215,-8.301,-629.883
1571286335.948,14.648,-150.879,-970.215,-11.719,-698.242
1571286335.952,197.754,-55.664,-970.215,-21.973,-646.484
1571286335.956,292.480,-99.609,-970.215,-4.883,-576.172
1571286335.960,138.184,-181.152,-970.215,-4.883,-644.531
1571286335.964,45.898,-3.906,-970.215,-8.789,-713.867
1571286335.968,177.246,91.797,-970.215,-2.441,-676.758
1571286335.971,263.672,144.531,-970.215,34.180,-581.543
1571286335.975,122.559,313.477,-970.215,-1.465,-581.055
1571286335.979,45.898,458.008,-970.215,-33.691,-668.945
1571286335.983,128.418,597.656,-970.215,-7.812,-673.828
1571286335.987,229.004,593.262,-970.215,18.066,-619.141
1571286335.991,202.148,586.914,-970.215,17.578,-599.609
1571286335.995,32.227,692.871,-970.215,2.441,-648.438
1571286335.999,10.742,850.098,-970.215,-57.617,-707.031
1571286336.003,163.086,-998.535,-970.215,-48.828,-664.062
1571286336.007,186.523,997.559,-970.215,-24.902,-592.773
1571286336.011,26.367,996.582,-970.215,-82.031,-616.699
1571286336.014,-59.570,999.512,-970.215,-76.172,-673.828
1571286336.018,48.340,988.281,-970.215,-51.758,-636.719
1571286336.022,140.137,-978.516,-970.215,-67.383,-576.660
1571286336.026,-0.488,838.867,-970.215,-136.719,-608.887
1571286336.030,-191.895,542.969,-970.215,-193.359,-667.480
1571286336.034,-108.398,556.152,-970.215,-167.969,-660.645
1571286336.038,3.906,511.719,-970.215,-163.574,-603.027
1571286336.042,-141.602,295.410,-970.215,-245.605,-612.793
1571286336.046,-305.176,47.852,-970.215,-284.668,-680.176
1571286336.050,-252.930,73.730,-970.215,-311.523,-716.309
1571286336.054,-108.398,415.039,-970.215,-295.410,-658.691
1571286336.057,-176.270,171.387,-970.215,-282.227,-595.703
1571286336.061,-353.027,-708.008,-970.215,-370.605,-652.344
1571286336.065,-366.699,-1000.000,-970.215,-434.082,-706.055
1571286336.069,-208.984,-938.965,-970.215,-398.438,-656.250
1571286336.073,-182.617,-973.633,-970.215,-391.602,-589.844
1571286336.077,-357.910,-966.309,-969.727,-432.129,-635.742
1571286336.081,-416.016,-970.215,-970.215,-462.891,-730.469
1571286336.085,-284.180,-966.309,-970.215,-459.961,-708.984
1571286336.089,-187.012,-758.301,-970.215,-406.250,-613.770
1571286336.093,-274.902,-668.457,-970.215,-399.414,-641.602
1571286336.096,-370.605,-539.062,-970.215,-414.062,-720.703
1571286336.100,-280.273,-263.184,-970.215,-405.273,-707.520
1571286336.104,-120.117,-138.184,-970.215,-355.469,-604.980
1571286336.108,-170.898,-58.594,-970.215,-346.680,-585.449
1571286336.112,-301.758,-15.625,-970.215,-354.492,-654.297
1571286336.116,-242.188,136.230,-970.215,-308.594,-668.457
1571286336.120,-51.270,316.895,-970.215,-276.855,-591.309
1571286336.124,-56.152,396.484,-970.215,-281.250,-539.551
1571286336.128,-192.383,350.586,-970.215,-268.555,-630.859
1571286336.132,-188.965,371.582,-970.215,-262.695,-688.477
1571286336.136,-44.922,542.480,-970.215,-225.586,-591.309
1571286336.139,35.156,627.930,-970.215,-191.895,-555.664
1571286336.143,-78.613,830.078,-970.215,-208.008,-610.840
1571286336.147,-145.996,977.539,-961.426,-188.965,-643.066
1571286336.151,5.371,963.379,-989.258,-164.062,-636.719
1571286336.155,150.391,977.539,-862.305,-136.230,-561.035
1571286336.159,20.996,-997.559,-698.730,-127.930,-550.293
1571286336.163,-117.188,998.535,-691.406,-145.508,-608.887
1571286336.167,-17.578,999.023,-729.004,-120.117,-619.629
1571286336.171,169.922,999.512,-499.512,-62.012,-515.625
1571286336.175,99.121,999.512,-288.086,-67.871,-496.094
1571286336.179,-66.895,999.512,-498.047,-92.773,-611.328
1571286336.182,-34.668,999.512,-747.070,-82.031,-662.109
1571286336.186,126.953,999.512,-594.238,-83.984,-603.027
1571286336.190,155.273,999.512,-54.199,-72.754,-510.254
1571286336.194,14.160,999.512,-23.926,-41.016,-564.453
1571286336.198,-26.855,999.512,-337.402,-45.898,-645.020
1571286336.202,89.844,999.512,-292.969,-46.387,-574.219
1571286336.206,166.016,999.512,-138.184,-22.949,-501.465
1571286336.210,41.992,999.512,-272.949,-32.715,-542.480
1571286336.214,-25.879,999.512,-625.000,-31.738,-605.957
1571286336.218,89.844,999.512,-763.184,10.742,-596.191
1571286336.221,174.805,999.512,-563.477,28.809,-484.375
1571286336.225,65.430,999.512,-765.137,-27.832,-507.812
1571286336.229,-47.363,999.512,-998.047,-102.051,-622.559
1571286336.233,6.348,999.512,-963.379,-80.078,-615.723
1571286336.237,148.438,999.512,-958.008,-12.207,-519.531
1571286336.241,92.285,998.535,-950.195,-5.371,-506.348
1571286336.245,-75.684,998.535,-961.426,-39.062,-600.098
1571286336.249,-55.664,999.512,-992.188,-67.871,-631.348
1571286336.253,123.047,999.512,-854.492,-40.527,-552.734
1571286336.257,152.344,999.512,-732.422,-12.207,-522.461
1571286336.261,-26.367,999.512,-734.375,-8.301,-588.867
1571286336.264,-60.547,999.512,-667.969,-34.668,-629.883
1571286336.268,86.914,999.512,-551.758,-34.668,-593.750
1571286336.272,159.180,999.512,-451.660,-12.207,-522.461
1571286336.276,25.391,999.512,-468.262,-34.180,-549.316
1571286336.280,-86.914,995.605,-430.664,-34.668,-594.727
1571286336.284,7.324,-989.746,-229.004,-9.277,-579.102
1571286336.288,126.465,946.289,-276.855,-10.742,-534.668
1571286336.292,9.766,935.547,-354.004,0.977,-516.113
1571286336.296,-106.934,938.477,-284.180,-10.254,-566.895
1571286336.300,-8.301,849.121,-567.383,-38.086,-598.145
1571286336.304,104.980,920.898,-776.367,-3.906,-531.250
1571286336.307,71.289,-997.070,-871.094,-20.508,-503.906
1571286336.311,-69.824,999.512,-966.309,-49.805,-563.477
1571286336.315,-91.309,928.223,-971.680,-45.898,-584.473
1571286336.319,98.633,912.598,-967.285,-16.602,-561.035
1571286336.323,144.043,996.094,-970.703,6.348,-536.621
1571286336.327,-15.137,-991.211,-970.215,-38.574,-579.102
1571286336.331,-54.688,938.965,-970.215,-84.961,-639.160
1571286336.335,56.641,905.273,-970.215,-47.852,-600.586
1571286336.339,125.000,-996.582,-970.215,10.742,-532.227
1571286336.343,30.273,987.793,-970.215,-17.090,-556.152
1571286336.346,-34.180,861.816,-970.215,-57.617,-618.652
1571286336.350,74.219,919.434,-970.215,-48.828,-609.375
1571286336.354,174.805,-985.840,-970.215,-46.387,-535.156
1571286336.358,81.543,997.070,-970.215,-62.012,-522.461
1571286336.362,-76.172,923.828,-970.215,-67.871,-601.074
1571286336.366,-28.320,900.391,-970.215,-78.125,-621.582
1571286336.370,151.855,968.262,-970.215,-36.133,-568.848
1571286336.374,122.070,915.039,-970.215,-25.879,-546.387
1571286336.378,-45.898,789.551,-970.215,-83.008,-613.770
1571286336.382,-46.387,743.164,-970.215,-100.586,-656.738
1571286336.386,126.465,702.637,-970.215,-79.102,-595.215
1571286336.389,189.941,656.738,-970.215,-26.855,-533.691
1571286336.393,17.090,394.043,-970.215,-51.270,-598.145
1571286336.397,-59.570,380.859,-970.215,-98.145,-646.484
1571286336.401,68.848,528.320,-970.215,-83.008,-576.172
1571286336.405,174.805,373.047,-970.215,-59.082,-539.551
1571286336.409,63.965,250.977,-970.215,-73.730,-590.332
1571286336.413,-77.637,189.453,-970.215,-81.055,-665.039
1571286336.417,6.836,276.367,-970.215,-49.316,-639.648
1571286336.421,194.824,289.062,-970.215,-21.484,-554.199
1571286336.425,145.020,149.414,-970.215,-23.438,-577.637
1571286336.429,-51.758,277.344,-970.215,-66.895,-629.883
1571286336.432,-38.086,350.098,-970.215,-71.289,-616.211
1571286336.436,123.047,274.414,-970.215,-50.293,-553.223
1571286336.440,140.137,195.801,-970.215,-31.738,-538.574
1571286336.444,-1.953,168.457,-970.215,-65.918,-593.750
1571286336.448,-13.672,139.648,-970.215,-93.750,-637.207
1571286336.452,123.047,123.535,-970.215,-58.594,-594.238
1571286336.456,139.648,157.715,-970.215,-20.508,-521.973
1571286336.460,0.977,54.688,-970.215,-41.016,-561.035
1571286336.464,-69.336,-0.488,-970.215,-79.590,-659.668
1571286336.468,42.969,15.625,-970.215,-41.504,-669.434
1571286336.471,158.203,143.555,-970.215,-38.574,-603.516
1571286336.475,45.898,293.945,-970.215,-63.965,-585.449
1571286336.479,-79.102,158.203,-970.215,-53.223,-661.133
1571286336.483,-1.953,139.648,-970.215,-79.590,-695.801
1571286336.487,142.578,248.535,-970.215,-65.430,-598.633
1571286336.491,121.582,152.344,-970.215,-51.758,-559.570
1571286336.495,-51.270,-88.379,-970.215,-61.523,-624.512
1571286336.499,-41.016,-244.629,-970.215,-44.922,-684.570
1571286336.503,125.488,-147.949,-970.215,-17.578,-622.070
1571286336.507,118.164,-168.457,-970.215,-5.371,-552.734
1571286336.511,-54.688,-350.586,-970.215,-33.691,-630.371
1571286336.514,-88.379,-428.711,-970.215,-61.035,-717.773
1571286336.518,44.434,-249.023,-970.215,-40.039,-676.270
1571286336.522,110.352,-199.707,-970.215,-12.695,-559.570
1571286336.526,-16.113,-463.379,-970.215,-41.504,-581.543
1571286336.530,-111.816,-569.824,-970.215,-24.902,-657.227
1571286336.534,8.789,-470.703,-970.215,-37.109,-643.066
1571286336.538,115.723,-396.973,-970.215,-41.504,-581.543
1571286336.542,-8.301,-458.984,-970.215,-32.715,-596.191
1571286336.546,-131.836,-467.773,-970.215,-77.637,-674.316
1571286336.550,-52.246,-386.719,-970.215,-75.684,-686.035
1571286336.554,80.078,-376.465,-970.215,-27.832,-594.727
1571286336.557,45.410,-517.090,-970.215,3.418,-576.172
1571286336.561,-110.840,-569.336,-970.215,-74.707,-666.016
1571286336.565,-119.629,-383.301,-970.215,-84.961,-673.340
1571286336.569,37.109,-401.855,-970.215,-23.438,-605.469
1571286336.573,92.285,-550.781,-970.215,-12.207,-589.355
1571286336.577,-39.551,-610.840,-970.215,-32.227,-631.348
1571286336.581,-103.516,-631.348,-970.215,-20.508,-666.504
1571286336.585,15.137,-707.520,-970.215,19.043,-656.250
1571286336.589,101.074,-712.891,-970.215,2.930,-595.215
1571286336.593,-9.277,-706.543,-970.215,-68.848,-598.633
1571286336.596,-100.586,-806.152,-970.215,-71.777,-671.875
1571286336.600,-14.648,-904.297,-970.215,-28.320,-687.988
1571286336.604,111.816,-844.727,-970.215,0.000,-608.398
1571286336.608,12.695,-737.305,-970.215,-7.324,-580.078
1571286336.612,-138.672,-827.148,-970.215,-20.996,-650.391
1571286336.616,-38.574,-903.320,-970.215,-12.207,-700.684
1571286336.620,114.746,-810.059,-970.215,7.324,-636.230
1571286336.624,63.477,-816.406,-970.215,-2.930,-581.543
1571286336.628,-67.871,-956.055,-970.215,-54.199,-627.930
1571286336.632,-72.266,-981.934,-970.215,-46.875,-696.777
1571286336.636,82.520,-895.508,-970.215,-23.438,-654.785
1571286336.639,137.207,-765.625,-970.215,1.953,-559.082
1571286336.643,-49.316,-766.602,-970.215,23.926,-585.449
1571286336.647,-128.418,-852.051,-970.215,-15.625,-672.363
1571286336.651,17.578,-751.953,-970.215,-21.973,-647.949
1571286336.655,122.559,-602.539,-970.215,42.480,-548.340
1571286336.659,3.906,-707.031,-970.215,61.035,-564.941
1571286336.663,-102.051,-909.180,-970.215,27.344,-675.293
1571286336.667,-49.316,-904.297,-970.215,-2.441,-700.195
1571286336.671,47.363,-861.816,-970.215,-37.598,-587.891
1571286336.675,2.930,-958.984,-970.215,-53.711,-551.270
1571286336.679,-152.344,-974.609,-970.215,-74.219,-616.699
1571286336.682,-140.625,-966.797,-970.215,-83.008,-652.344
1571286336.686,-29.297,-970.703,-973.145,-97.656,-604.980
1571286336.690,-85.449,-970.215,-954.102,-167.969,-550.293
1571286336.694,-225.586,-970.215,-969.727,-212.402,-594.727
1571286336.698,-250.000,-970.215,-890.137,-221.680,-636.230
1571286336.702,-161.133,-970.215,-187.500,-238.770,-562.988
1571286336.706,-132.324,-970.215,700.684,-229.004,-490.723
1571286336.710,-255.371,-970.215,991.699,-263.672,-549.316
1571286336.714,-318.359,-970.215,981.934,-252.441,-591.797
1571286336.718,-144.531,-970.215,997.070,-152.832,-536.621
1571286336.721,19.531,-970.215,-999.512,-86.914,-467.773
1571286336.725,-184.082,-979.492,999.512,-157.715,-475.586
1571286336.729,-335.449,-929.199,999.512,-218.262,-505.859
1571286336.733,-213.867,-994.141,999.512,-178.223,-487.305
1571286336.737,-62.012,-898.438,999.512,-109.375,-396.484
1571286336.741,-113.281,409.180,999.512,-83.496,-345.703
1571286336.745,-266.602,-891.602,999.512,-145.508,-378.906
1571286336.749,-248.535,939.941,999.512,-123.535,-401.855
1571286336.753,-121.094,-996.094,999.512,-85.449,-346.191
1571286336.757,-115.234,-1000.000,999.512,-78.125,-263.672
1571286336.761,-270.020,999.512,999.512,-101.562,-271.484
1571286336.764,-328.125,999.512,999.512,-110.352,-319.336
1571286336.768,-199.219,999.512,999.512,-70.312,-306.152
1571286336.772,-176.758,999.512,999.512,-46.387,-233.887
1571286336.776,-421.387,999.512,999.512,-104.004,-256.348
1571286336.780,-618.652,999.512,999.512,-211.426,-343.262
1571286336.784,-566.895,996.582,999.512,-212.402,-334.961
1571286336.788,-500.488,992.676,999.512,-151.367,-251.465
1571286336.792,-707.520,-967.285,999.512,-161.621,-257.812
1571286336.796,-911.621,782.227,999.512,-203.125,-342.285
1571286336.800,-805.664,782.227,999.512,-164.551,-371.582
1571286336.804,-634.766,-967.285,999.512,-97.656,-303.223
1571286336.807,-795.898,992.676,999.512,-127.930,-246.582
1571286336.811,-982.422,997.070,999.512,-203.613,-302.734
1571286336.815,-975.586,999.512,999.512,-247.070,-351.562
1571286336.819,-916.016,999.512,999.512,-193.359,-295.898
1571286336.823,-869.141,999.512,999.512,-124.512,-273.438
1571286336.827,-924.805,999.512,999.512,-137.207,-315.430
1571286336.831,-931.641,999.512,999.512,-203.613,-351.074
1571286336.835,-786.133,999.512,999.512,-227.539,-353.516
1571286336.839,-663.086,999.512,999.512,-168.945,-283.691
1571286336.843,-770.508,-998.535,999.512,-135.254,-308.105
1571286336.846,-837.402,988.770,999.512,-166.992,-374.512
1571286336.850,-687.500,-995.117,999.512,-159.180,-352.051
1571286336.854,-622.559,934.570,999.512,-145.996,-283.203
1571286336.858,-720.703,576.660,999.512,-214.355,-287.109
1571286336.862,-729.492,69.336,999.512,-220.703,-344.238
1571286336.866,-586.914,-279.785,999.512,-191.895,-363.281
1571286336.870,-376.465,-249.023,999.512,-157.227,-321.777
1571286336.874,-340.820,-89.355,999.512,-130.371,-291.992
1571286336.878,-414.551,-153.809,999.512,-179.199,-350.098
1571286336.882,-424.805,63.965,999.512,-223.633,-412.109
1571286336.886,-263.184,540.039,999.512,-197.266,-396.973
1571286336.889,-194.824,812.500,999.512,-183.594,-365.234
1571286336.893,-277.344,992.676,999.512,-199.707,-375.488
1571286336.897,-278.320,998.535,999.512,-180.176,-440.430
1571286336.901,-164.062,995.117,999.512,-168.457,-465.332
1571286336.905,-77.148,-998.535,999.512,-185.547,-406.250
1571286336.909,-178.223,993.652,999.512,-187.012,-408.203
1571286336.913,-243.164,-995.117,-999.512,-194.824,-475.098
1571286336.917,-135.254,936.035,995.605,-182.129,-492.676
1571286336.921,-15.625,745.605,981.934,-167.480,-445.801
1571286336.925,-75.684,386.230,-986.328,-156.738,-418.457
1571286336.929,-176.758,-34.668,657.227,-166.016,-473.145
1571286336.932,-80.078,-188.477,-169.922,-114.746,-521.484
1571286336.936,118.164,-87.891,-541.016,-3.418,-494.141
1571286336.940,67.871,83.496,-310.547,-35.156,-438.477
1571286336.944,-109.863,104.980,-393.066,-91.797,-477.051
1571286336.948,-70.801,87.402,-808.105,-97.656,-566.406
1571286336.952,62.988,131.836,-969.238,-63.965,-542.969
1571286336.956,158.203,189.453,-828.613,-2.930,-470.703
1571286336.960,53.223,227.539,-888.184,-27.832,-519.531
1571286336.964,-52.246,389.648,-984.863,-47.363,-588.379
1571286336.968,96.680,365.723,-965.332,3.418,-585.449
1571286336.971,249.512,107.422,-969.727,38.086,-520.020
1571286336.975,92.773,-156.738,-970.215,-19.043,-517.578
1571286336.979,-66.895,-368.652,-970.215,-16.113,-620.117
1571286336.983,98.145,-389.648,-970.215,53.223,-625.000
1571286336.987,276.367,-526.855,-971.191,34.668,-557.129
1571286336.991,139.648,-782.715,-966.309,-11.719,-572.754
1571286336.995,-24.902,-794.922,-965.820,-28.809,-625.000
1571286336.999,38.574,-618.164,-985.840,14.160,-635.254
1571286337.003,242.676,-471.680,-743.652,65.918,-543.457
1571286337.007,255.371,-572.754,-671.875,54.199,-529.785
1571286337.011,43.945,-604.980,-930.176,35.645,-615.234
1571286337.014,23.926,-435.059,-945.312,32.227,-631.836
1571286337.018,220.215,-326.172,-950.684,56.152,-604.004
1571286337.022,294.922,-208.008,-971.191,120.117,-566.406
1571286337.026,158.691,-51.758,-965.332,103.516,-602.539
1571286337.030,97.656,20.020,-965.332,88.379,-659.668
1571286337.034,164.551,-59.570,-796.387,101.562,-628.418
1571286337.038,223.145,-144.531,-653.320,96.191,-562.500
1571286337.042,142.578,37.109,-539.551,49.805,-545.410
1571286337.046,6.348,330.078,-514.648,18.555,-607.910
1571286337.050,29.297,519.531,-637.695,8.789,-652.832
1571286337.054,181.641,760.742,-521.973,24.414,-575.684
1571286337.057,151.367,971.680,-288.086,71.777,-553.711
1571286337.061,-12.695,-998.047,-343.262,38.086,-630.371
1571286337.065,17.578,993.652,-547.852,15.137,-677.246
1571286337.069,191.895,-999.512,-475.098,87.891,-643.555
1571286337.073,220.703,999.512,-223.633,114.258,-592.773
1571286337.077,82.520,999.512,25.879,87.402,-610.840
1571286337.081,2.441,999.512,9.277,96.191,-671.875
1571286337.085,119.629,999.512,-263.672,66.895,-702.637
1571286337.089,217.773,999.512,44.434,57.129,-609.863
1571286337.093,98.145,999.512,270.020,57.129,-601.562
1571286337.096,0.977,999.512,-98.633,45.898,-677.734
1571286337.100,83.008,999.512,-253.418,60.547,-666.016
1571286337.104,215.332,-1000.000,-37.598,74.707,-584.473
1571286337.108,122.559,993.652,-50.781,64.941,-589.355
1571286337.112,-38.086,-993.164,-437.500,41.016,-687.988
1571286337.116,14.648,948.242,-705.078,33.203,-687.012
1571286337.120,183.105,783.691,-740.234,66.895,-609.863
1571286337.124,162.598,668.457,-884.277,98.145,-602.539
1571286337.128,27.832,510.742,-978.516,50.293,-653.320
1571286337.132,30.273,366.699,-965.820,57.617,-705.566
1571286337.136,168.945,212.891,-969.238,96.680,-651.367
1571286337.139,192.383,-84.473,-970.703,91.309,-593.750
1571286337.143,31.250,-318.359,-970.215,53.711,-638.184
1571286337.147,-21.484,-355.957,-970.215,-12.207,-671.875
1571286337.151,97.656,-338.379,-970.215,5.859,-630.371
1571286337.155,199.219,-427.246,-970.215,60.059,-566.895
1571286337.159,85.938,-595.215,-970.215,75.195,-596.191
1571286337.163,-5.859,-731.445,-970.215,71.777,-663.574
1571286337.167,116.211,-880.859,-970.215,43.457,-654.297
1571286337.171,206.055,-970.703,-970.215,21.484,-623.535
1571286337.175,57.129,-967.773,-970.215,20.996,-636.230
1571286337.179,-81.055,-968.750,-970.215,29.297,-669.434
1571286337.182,-20.996,-970.703,-970.215,19.531,-689.453
1571286337.186,124.512,-970.215,-970.215,25.391,-644.043
1571286337.190,141.113,-970.215,-970.215,20.020,-610.352
1571286337.194,-7.324,-970.215,-970.215,-5.371,-640.137
1571286337.198,-38.574,-970.215,-970.215,6.348,-694.824
1571286337.202,117.676,-970.215,-970.215,47.363,-666.016
1571286337.206,156.250,-970.215,-970.215,52.734,-585.449
1571286337.210,-5.371,-970.215,-970.215,44.922,-639.160
1571286337.214,-95.703,-970.215,-970.215,-14.648,-725.098
1571286337.218,7.324,-970.215,-970.215,-37.598,-714.844
1571286337.221,104.492,-970.215,-969.727,-27.832,-656.250
1571286337.225,3.418,-970.215,-970.215,-56.641,-633.301
1571286337.229,-108.887,-970.215,-970.215,-59.570,-681.152
1571286337.233,-38.086,-970.215,-970.215,-52.246,-707.031
1571286337.237,100.098,-970.215,-970.215,-22.949,-638.184
1571286337.241,33.691,-970.215,-970.215,-44.434,-583.496
1571286337.245,-134.766,-970.215,-970.215,-90.820,-638.184
1571286337.249,-109.375,-970.215,-970.215,-83.008,-722.168
1571286337.253,20.508,-970.215,-970.215,-56.641,-673.828
1571286337.257,-10.742,-970.215,-970.215,-102.539,-625.977
1571286337.261,-181.641,-970.215,-970.215,-131.836,-670.898
1571286337.264,-222.656,-970.215,-970.215,-131.348,-741.211
1571286337.268,-52.246,-970.215,-970.215,-128.418,-700.195
1571286337.272,-22.949,-970.215,-970.215,-140.137,-618.164
1571286337.276,-194.336,-972.168,-970.215,-170.410,-666.504
1571286337.280,-252.441,-957.520,-970.215,-207.031,-723.633
1571286337.284,-166.504,-979.980,-970.215,-231.934,-699.707
1571286337.288,-69.824,-929.199,-970.215,-186.523,-637.207
1571286337.292,-136.230,-471.191,-970.215,-168.945,-646.973
1571286337.296,-266.602,-458.008,-970.215,-181.152,-703.613
1571286337.300,-186.035,-873.047,-970.215,-151.367,-747.070
1571286337.304,-9.766,-944.824,-970.215,-119.629,-691.895
1571286337.307,-40.039,-962.402,-970.215,-115.234,-687.988
1571286337.311,-167.480,-970.215,-970.215,-104.004,-789.551
1571286337.315,-147.461,-969.727,-970.215,-96.191,-797.852
1571286337.319,-17.578,-970.215,-970.215,-85.938,-727.539
1571286337.323,-14.648,-970.215,-970.215,-85.449,-690.430
1571286337.327,-132.324,-970.215,-970.215,-107.422,-724.609
1571286337.331,-141.602,-970.215,-970.215,-103.027,-774.414
1571286337.335,-27.832,-970.215,-970.215,-48.340,-768.555
1571286337.339,49.316,-970.215,-970.215,-21.973,-674.316
1571286337.343,-40.527,-972.168,-970.215,-27.832,-671.875
1571286337.346,-78.125,-961.914,-970.215,-9.277,-754.883
1571286337.350,27.344,-969.727,-970.215,9.277,-770.020
1571286337.354,119.629,-963.867,-970.215,25.391,-716.309
1571286337.358,71.777,-619.141,-970.215,19.043,-693.848
1571286337.362,-18.066,-371.582,-970.215,37.598,-734.375
1571286337.366,55.664,-471.191,-970.215,48.340,-761.719
1571286337.370,229.980,-474.609,-970.215,75.195,-702.637
1571286337.374,188.965,-547.852,-970.215,57.129,-662.109
1571286337.378,48.828,-667.969,-970.215,56.641,-726.074
1571286337.382,66.895,-700.684,-970.215,87.402,-776.367
1571286337.386,195.312,-692.871,-970.215,100.586,-725.586
1571286337.389,248.047,-709.473,-970.215,118.652,-643.066
1571286337.393,132.812,-774.414,-970.215,100.098,-686.523
1571286337.397,62.012,-889.160,-970.215,78.613,-773.926
1571286337.401,177.734,-957.520,-970.215,95.703,-772.461
1571286337.405,257.812,-899.414,-970.215,112.793,-712.402
1571286337.409,145.020,-926.270,-970.215,76.172,-704.102
1571286337.413,61.035,-974.609,-970.215,61.523,-758.789
1571286337.417,154.785,-969.238,-970.215,92.285,-785.645
1571286337.421,297.363,-969.238,-970.215,146.973,-740.723
1571286337.425,204.102,-970.215,-970.215,120.117,-728.516
1571286337.429,61.035,-964.844,-970.215,70.312,-787.109
1571286337.432,103.516,-982.910,-970.215,82.520,-817.871
1571286337.436,227.539,-892.090,-970.215,110.352,-750.977
1571286337.440,244.629,-800.781,-970.215,124.512,-695.312
1571286337.444,104.492,-826.172,-970.215,123.535,-746.094
1571286337.448,56.641,-739.258,-970.215,104.004,-801.758
1571286337.452,222.168,-543.945,-970.215,131.836,-755.371
1571286337.456,323.242,-395.996,-970.215,147.461,-708.984
1571286337.460,183.105,-406.250,-970.215,134.277,-768.066
1571286337.464,68.848,-443.359,-970.215,125.488,-819.336
1571286337.468,206.055,-474.121,-970.215,113.281,-781.250
1571286337.471,333.008,-543.945,-970.215,140.625,-708.984
1571286337.475,229.980,-545.898,-970.215,119.629,-702.637
1571286337.479,99.609,-537.598,-970.215,107.422,-771.484
1571286337.483,145.996,-588.867,-969.727,110.840,-779.297
1571286337.487,289.551,-552.246,-970.215,125.488,-692.383
1571286337.491,233.887,-429.688,-970.215,125.977,-690.430
1571286337.495,93.262,-329.590,-970.215,77.148,-763.184
1571286337.499,103.027,-297.852,-970.215,69.824,-786.621
1571286337.503,250.977,-368.652,-970.215,106.445,-733.887
1571286337.507,266.602,-436.523,-970.215,87.402,-700.684
1571286337.511,117.676,-420.410,-970.215,37.109,-733.398
1571286337.514,79.590,-490.234,-970.215,25.879,-796.387
1571286337.518,166.016,-510.254,-970.215,77.148,-762.207
1571286337.522,198.730,-465.332,-970.215,89.844,-687.012
1571286337.526,111.816,-480.957,-970.215,9.766,-708.008
1571286337.530,50.293,-510.742,-970.215,-13.672,-773.926
1571286337.534,123.047,-469.727,-970.215,30.762,-771.973
1571286337.538,210.449,-442.383,-970.215,41.504,-705.566
1571286337.542,91.309,-456.055,-970.215,7.324,-713.867
1571286337.546,-42.480,-488.281,-970.215,-36.621,-799.316
1571286337.550,-18.555,-468.750,-970.215,-72.266,-837.402
1571286337.554,114.746,-357.422,-970.215,-41.016,-735.352
1571286337.557,97.656,-388.184,-970.215,-41.504,-701.660
1571286337.561,-96.680,-419.922,-970.215,-130.859,-789.062
1571286337.565,-140.137,-336.426,-970.215,-140.137,-829.590
1571286337.569,-24.902,-279.297,-970.215,-127.441,-758.301
1571286337.573,-25.879,-358.887,-970.215,-131.836,-722.656
1571286337.577,-156.738,-349.121,-970.215,-153.320,-795.898
1571286337.581,-219.727,-242.188,-970.215,-179.199,-853.027
1571286337.585,-112.793,-266.113,-970.215,-173.828,-820.801
1571286337.589,-13.184,-196.289,-970.215,-178.223,-736.328
1571286337.593,-143.066,19.043,-970.215,-168.457,-767.578
1571286337.596,-266.602,198.242,-970.215,-148.438,-873.047
1571286337.600,-158.691,307.129,-970.215,-124.512,-845.215
1571286337.604,-24.414,509.277,-970.215,-115.234,-759.277
1571286337.608,-109.863,883.789,-970.215,-160.156,-777.344
1571286337.612,-221.191,-990.723,-970.215,-164.062,-841.797
1571286337.616,-158.691,989.746,-970.215,-121.582,-862.793
1571286337.620,-0.977,999.023,-970.215,-69.336,-817.871
1571286337.624,-1.953,-1000.000,-970.215,-56.641,-796.387
1571286337.628,-107.910,999.512,-970.215,-73.730,-852.051
1571286337.632,-105.957,999.512,-970.215,-57.617,-898.438
1571286337.636,31.250,999.512,-970.215,-25.879,-846.191
1571286337.639,94.727,999.512,-970.215,-7.324,-787.598
1571286337.643,-8.789,999.512,-970.215,8.301,-823.730
1571286337.647,-17.578,999.512,-970.215,22.461,-875.000
1571286337.651,131.348,999.512,-970.215,51.758,-852.539
1571286337.655,231.445,999.512,-970.215,64.941,-766.113
1571286337.659,141.602,999.512,-970.215,99.609,-761.230
1571286337.663,62.500,999.512,-970.215,103.027,-814.941
1571286337.667,146.973,999.512,-970.215,81.543,-800.781
1571286337.671,282.227,999.512,-970.215,108.398,-721.191
1571286337.675,264.160,999.512,-970.215,105.957,-714.844
1571286337.679,144.531,999.512,-970.215,103.027,-793.457
1571286337.682,171.387,999.512,-970.215,128.418,-830.566
1571286337.686,339.844,999.512,-970.215,161.621,-762.695
1571286337.690,346.680,999.512,-970.215,181.152,-683.105
1571286337.694,200.195,999.512,-970.215,179.688,-741.211
1571286337.698,172.363,999.512,-970.215,161.621,-790.039
1571286337.702,304.688,999.512,-970.215,159.668,-726.562
1571286337.706,331.543,999.512,-970.215,149.902,-666.504
1571286337.710,194.824,999.512,-970.215,104.492,-710.449
1571286337.714,139.648,999.512,-970.215,76.172,-795.898
1571286337.718,239.258,999.512,-970.215,128.906,-770.020
1571286337.721,324.707,999.512,-970.215,147.461,-665.039
1571286337.725,213.379,999.512,-970.215,98.145,-687.988
1571286337.729,125.000,999.512,-970.215,65.430,-782.227
1571286337.733,196.289,999.512,-970.215,67.383,-793.457
1571286337.737,306.152,999.512,-970.215,123.535,-679.199
1571286337.741,275.391,999.512,-970.215,151.855,-651.855
1571286337.745,142.090,999.512,-970.215,108.887,-749.023
1571286337.749,152.344,999.512,-970.215,136.719,-759.766
1571286337.753,261.719,999.512,-970.215,162.598,-697.266
1571286337.757,283.203,999.512,-970.215,131.836,-656.738
1571286337.761,152.344,999.512,-970.215,91.309,-721.680
1571286337.764,112.793,999.512,-970.215,85.938,-770.508
1571286337.768,215.332,999.512,-970.215,111.816,-708.984
1571286337.772,264.648,999.512,-970.215,96.191,-646.973
1571286337.776,149.414,999.512,-970.215,53.711,-690.918
1571286337.780,61.523,999.512,-970.215,55.664,-774.902
1571286337.784,182.617,999.512,-970.215,79.102,-752.441
1571286337.788,273.926,999.512,-970.215,99.609,-639.648
1571286337.792,143.555,999.512,-970.215,97.656,-655.762
1571286337.796,25.879,999.512,-970.215,62.988,-745.117
1571286337.800,101.562,999.512,-970.215,65.430,-764.160
1571286337.804,226.562,999.512,-970.215,104.980,-701.172
1571286337.807,145.996,999.512,-970.215,108.887,-662.598
1571286337.811,-12.695,999.512,-970.215,40.527,-704.590
1571286337.815,-30.762,999.512,-970.215,14.160,-756.836
1571286337.819,53.223,999.512,-970.215,66.895,-752.930
1571286337.823,13.184,999.512,-970.215,86.426,-695.801
1571286337.827,-201.660,999.512,-970.215,41.504,-730.957
1571286337.831,-276.855,999.512,-970.215,26.367,-770.020
1571286337.835,-189.453,999.512,-970.215,80.566,-759.277
1571286337.839,-166.992,999.512,-970.215,109.863,-704.102
1571286337.843,-347.656,999.512,-970.215,73.730,-687.988
1571286337.846,-441.895,999.512,-970.215,48.340,-769.531
1571286337.850,-355.957,999.512,-970.215,60.547,-759.766
1571286337.854,-293.457,999.512,-970.215,100.586,-666.504
1571286337.858,-426.758,999.512,-970.215,100.098,-659.180
1571286337.862,-601.562,999.512,-970.215,43.945,-726.562
1571286337.866,-552.246,999.512,-970.215,74.219,-760.254
1571286337.870,-395.020,999.512,-970.215,108.887,-707.031
1571286337.874,-432.617,999.512,-970.215,74.219,-670.898
1571286337.878,-542.480,999.512,-970.215,50.781,-730.957
1571286337.882,-475.098,999.512,-970.215,31.738,-779.785
1571286337.886,-324.219,999.512,-970.215,64.941,-710.938
1571286337.889,-286.621,999.512,-970.215,89.355,-646.973
1571286337.893,-432.617,999.023,-970.215,64.941,-706.055
1571286337.897,-514.160,999.023,-970.215,59.082,-772.949
1571286337.901,-402.344,999.023,-970.215,86.426,-724.121
1571286337.905,-350.586,999.512,-970.215,109.863,-635.742
1571286337.909,-471.680,999.023,-970.215,78.125,-658.203
1571286337.913,-537.109,997.070,-970.215,62.500,-724.121
1571286337.917,-482.422,999.023,-970.215,77.148,-714.355
1571286337.921,-396.484,999.512,-970.215,75.195,-633.301
1571286337.925,-514.648,999.023,-970.215,95.703,-635.254
1571286337.929,-710.449,999.512,-970.215,94.727,-708.984
1571286337.932,-696.289,999.512,-970.215,82.031,-709.473
1571286337.936,-555.176,999.512,-970.215,158.203,-641.113
1571286337.940,-625.000,999.512,-970.215,208.008,-607.910
1571286337.944,-894.531,999.512,-970.215,151.855,-654.297
1571286337.948,-979.492,999.512,-970.215,114.746,-693.848
1571286337.952,-961.914,999.512,-970.215,166.016,-649.414
1571286337.956,-970.215,999.512,-970.215,197.754,-577.148
1571286337.960,-970.215,998.535,-970.215,156.250,-626.953
1571286337.964,-970.215,-999.512,-970.215,111.816,-686.035
1571286337.968,-970.215,978.516,-970.215,128.906,-652.344
1571286337.971,-970.215,984.863,-970.215,175.293,-567.383
1571286337.975,-970.215,798.828,-970.215,134.277,-560.547
1571286337.979,-970.215,398.438,-970.215,82.520,-650.879
1571286337.983,-970.215,226.562,-970.215,85.449,-668.945
1571286337.987,-970.215,241.211,-970.215,104.492,-573.730
1571286337.991,-970.215,84.961,-970.215,86.914,-564.941
1571286337.995,-970.215,-106.445,-970.215,37.598,-645.020
1571286337.999,-970.215,-167.480,-970.215,47.363,-687.500
1571286338.003,-970.215,-57.129,-970.215,74.219,-608.887
1571286338.007,-970.215,-285.645,-970.215,77.148,-560.059
1571286338.011,-970.215,-746.094,-970.215,56.641,-647.461
1571286338.014,-970.215,-696.289,-970.215,16.113,-729.492
1571286338.018,-970.215,-184.082,-970.215,28.320,-656.738
1571286338.022,-970.703,-324.219,-970.215,44.434,-539.551
1571286338.026,-962.891,-895.996,-970.215,2.441,-607.422
1571286338.030,-981.445,-980.957,-970.215,-11.719,-671.387
1571286338.034,-917.480,-954.102,-970.215,0.977,-627.441
1571286338.038,-743.652,-972.168,-970.215,3.906,-537.598
1571286338.042,-737.305,-970.215,-970.215,-5.371,-536.621
1571286338.046,-780.273,-970.215,-970.215,-28.320,-622.559
1571286338.050,-612.793,-970.215,-970.215,-24.902,-603.516
1571286338.054,-382.812,-970.215,-970.215,34.668,-530.762
1571286338.057,-407.715,-970.215,-970.215,-5.859,-516.113
1571286338.061,-530.273,-970.215,-970.215,-41.992,-566.406
1571286338.065,-456.543,-970.215,-970.215,-14.160,-598.145
1571286338.069,-262.695,-970.215,-970.215,-22.949,-541.992
1571286338.073,-280.273,-970.215,-970.215,-33.691,-518.555
1571286338.077,-519.531,-970.215,-970.215,-25.879,-594.727
1571286338.081,-611.816,-970.215,-970.215,-60.059,-632.812
1571286338.085,-466.309,-970.215,-970.215,-43.457,-603.027
1571286338.089,-410.156,-970.215,-970.215,-3.906,-526.855
1571286338.093,-584.961,-970.215,-970.215,-54.688,-541.016
1571286338.096,-743.164,-970.215,-970.215,-94.238,-616.699
1571286338.100,-663.086,-970.215,-970.215,-61.035,-595.703
1571286338.104,-464.355,-970.215,-970.215,-54.199,-528.320
1571286338.108,-533.691,-970.215,-970.215,-93.262,-548.828
1571286338.112,-680.176,-970.215,-970.215,-105.957,-593.262
1571286338.116,-572.266,-970.215,-970.215,-100.586,-610.840
1571286338.120,-342.285,-970.215,-970.215,-100.586,-551.270
1571286338.124,-302.734,-970.215,-970.215,-105.469,-501.953
1571286338.128,-396.973,-970.215,-970.215,-92.285,-567.871
1571286338.132,-318.359,-970.215,-970.215,-101.074,-610.352
1571286338.136,-39.551,-970.215,-970.215,-90.820,-541.016
1571286338.139,72.754,-970.215,-970.215,-53.711,-482.910
1571286338.143,-46.875,-970.215,-970.215,-74.219,-537.109
1571286338.147,4.883,-969.727,-970.215,-118.652,-614.746
1571286338.151,261.719,-970.215,-970.215,-84.961,-583.496
1571286338.155,452.637,-970.215,-970.215,-57.617,-495.605
1571286338.159,362.793,-970.215,-970.215,-79.590,-533.203
1571286338.163,294.922,-970.215,-970.215,-107.910,-620.605
1571286338.167,497.559,-970.215,-970.215,-74.219,-586.914
1571286338.171,683.105,-970.215,-970.215,-22.461,-473.145
1571286338.175,631.348,-970.215,-970.215,-70.312,-470.215
1571286338.179,535.645,-970.215,-970.215,-96.191,-555.176
1571286338.182,633.301,-970.215,-970.215,-89.844,-564.941
1571286338.186,862.793,-970.215,-970.215,-31.738,-461.914
1571286338.190,843.262,-970.215,-970.215,-18.066,-423.340
1571286338.194,660.156,-970.215,-970.215,-107.422,-519.531
1571286338.198,691.406,-970.215,-970.215,-109.863,-575.195
1571286338.202,887.207,-970.215,-970.215,-45.898,-519.043
1571286338.206,930.664,-970.215,-970.215,-86.914,-464.844
1571286338.210,725.098,-970.215,-970.215,-132.324,-546.387
1571286338.214,679.688,-970.215,-970.215,-118.164,-594.238
1571286338.218,835.449,-970.215,-970.215,-66.406,-528.320
1571286338.221,892.578,-970.215,-970.215,-32.715,-461.914
1571286338.225,751.465,-970.215,-970.215,-60.547,-475.098
1571286338.229,611.328,-970.215,-970.215,-85.938,-561.523
1571286338.233,652.832,-970.215,-970.215,-58.594,-609.863
1571286338.237,787.109,-970.215,-970.215,-33.203,-524.414
1571286338.241,695.801,-970.215,-970.215,-69.336,-509.277
1571286338.245,485.840,-970.215,-970.215,-103.027,-598.145
1571286338.249,495.117,-970.215,-970.215,-116.211,-603.027
1571286338.253,658.203,-970.215,-970.215,-73.730,-542.969
1571286338.257,652.832,-970.215,-970.215,-44.922,-512.695
1571286338.261,474.121,-970.215,-970.215,-92.285,-530.273
1571286338.264,476.562,-970.215,-970.215,-79.102,-574.707
1571286338.268,654.297,-970.215,-970.215,-47.363,-569.824
1571286338.272,724.121,-970.215,-970.215,-37.109,-500.977
1571286338.276,582.031,-970.215,-970.215,-75.684,-518.066
1571286338.280,509.766,-970.215,-970.215,-143.066,-602.539
1571286338.284,664.062,-969.727,-970.215,-121.094,-590.332
1571286338.288,772.949,-970.215,-970.215,-36.621,-483.887
1571286338.292,618.652,-970.215,-970.215,-54.688,-479.004
1571286338.296,475.098,-970.215,-970.215,-112.305,-595.703
1571286338.300,575.684,-970.215,-970.215,-95.215,-657.227
1571286338.304,718.750,-970.215,-970.215,-75.195,-514.648
1571286338.307,626.953,-970.215,-970.215,-60.059,-459.473
1571286338.311,433.105,-970.215,-970.215,-102.539,-583.984
1571286338.315,429.199,-970.215,-970.215,-111.328,-609.863
1571286338.319,578.125,-970.215,-970.215,-45.898,-530.273
1571286338.323,585.938,-970.215,-970.215,-67.871,-489.746
1571286338.327,423.340,-970.215,-970.215,-139.648,-560.059
1571286338.331,383.301,-970.215,-970.215,-157.715,-639.160
1571286338.335,536.621,-970.215,-970.215,-110.840,-595.215
1571286338.339,626.953,-970.215,-970.215,-36.133,-484.375
1571286338.343,466.797,-970.215,-970.215,-83.496,-510.742
1571286338.346,363.281,-970.215,-970.215,-176.758,-612.305
1571286338.350,520.508,-970.215,-970.215,-149.902,-581.543
1571286338.354,657.715,-970.215,-970.215,-43.457,-474.609
1571286338.358,569.336,-970.215,-970.215,-77.637,-491.211
1571286338.362,426.758,-970.215,-970.215,-152.832,-575.684
1571286338.366,499.512,-970.215,-970.215,-126.953,-569.336
1571286338.370,699.707,-970.215,-970.215,-92.285,-500.000
1571286338.374,687.500,-970.215,-970.215,-137.695,-492.188
1571286338.378,511.230,-970.215,-970.215,-176.758,-553.711
1571286338.382,479.492,-970.215,-970.215,-136.230,-605.469
1571286338.386,670.410,-970.215,-970.215,-87.891,-556.152
1571286338.389,723.633,-970.215,-970.215,-75.684,-510.254
1571286338.393,558.105,-970.215,-970.215,-116.211,-548.340
1571286338.397,502.930,-970.215,-970.215,-147.949,-589.844
1571286338.401,619.141,-970.215,-970.215,-109.375,-557.129
1571286338.405,736.328,-970.215,-970.215,-77.148,-490.234
1571286338.409,599.609,-970.215,-970.215,-92.773,-511.719
1571286338.413,475.098,-970.215,-970.215,-99.121,-584.961
1571286338.417,577.148,-970.215,-970.215,-91.797,-583.496
1571286338.421,676.758,-970.215,-970.215,-93.262,-502.930
1571286338.425,553.223,-970.215,-970.215,-113.281,-502.930
1571286338.429,411.133,-970.215,-970.215,-110.352,-598.145
1571286338.432,476.074,-970.215,-970.215,-122.070,-648.926
1571286338.436,592.285,-970.215,-970.215,-111.816,-574.219
1571286338.440,516.113,-970.215,-970.215,-69.824,-480.957
1571286338.444,318.359,-970.215,-970.215,-76.660,-551.270
1571286338.448,306.641,-970.215,-970.215,-168.457,-622.070
1571286338.452,413.574,-970.215,-970.215,-155.762,-552.246
1571286338.456,385.254,-970.215,-970.215,-108.398,-468.262
1571286338.460,132.812,-970.215,-970.215,-136.719,-494.629
1571286338.464,-18.066,-970.215,-970.215,-147.461,-589.355
1571286338.468,99.609,-970.215,-970.215,-123.535,-588.867
1571286338.471,145.020,-970.215,-970.215,-73.730,-492.188
1571286338.475,-33.691,-970.215,-970.215,-129.395,-517.578
1571286338.479,-184.082,-970.215,-970.215,-196.289,-593.750
1571286338.483,-99.121,-970.215,-970.215,-167.969,-547.852
1571286338.487,77.637,-970.215,-970.215,-108.887,-462.402
1571286338.491,25.391,-970.215,-970.215,-107.910,-483.398
1571286338.495,-126.465,-970.215,-970.215,-140.625,-585.449
1571286338.499,-73.730,-970.215,-970.215,-149.902,-607.910
1571286338.503,113.281,-970.215,-970.215,-121.094,-522.949
1571286338.507,115.234,-970.215,-970.215,-91.309,-492.676
1571286338.511,-33.203,-970.215,-970.215,-132.812,-559.082
1571286338.514,-17.090,-970.215,-970.215,-138.184,-567.871
1571286338.518,199.219,-970.215,-970.215,-85.938,-502.441
1571286338.522,282.715,-970.215,-970.215,-85.938,-481.445
1571286338.526,144.531,-970.215,-970.215,-117.188,-529.297
1571286338.530,54.688,-970.215,-970.215,-148.438,-585.449
1571286338.534,165.527,-970.215,-970.215,-156.250,-584.473
1571286338.538,305.664,-970.215,-970.215,-104.492,-482.422
1571286338.542,192.871,-970.215,-970.215,-110.840,-450.684
1571286338.546,23.926,-970.215,-970.215,-150.391,-538.574
1571286338.550,114.258,-970.215,-970.215,-146.973,-567.383
1571286338.554,319.336,-970.215,-970.215,-135.254,-479.980
1571286338.557,283.691,-970.215,-970.215,-129.395,-442.871
1571286338.561,101.074,-970.215,-970.215,-164.551,-528.320
1571286338.565,134.277,-970.215,-970.215,-166.992,-574.219
1571286338.569,329.590,-970.215,-970.215,-145.508,-484.375
1571286338.573,343.750,-970.215,-970.215,-145.996,-441.895
1571286338.577,194.824,-970.215,-970.215,-185.547,-516.113
1571286338.581,191.406,-970.215,-970.215,-200.195,-580.566
1571286338.585,361.328,-970.215,-970.215,-150.391,-579.590
1571286338.589,409.180,-970.215,-970.215,-144.531,-503.906
1571286338.593,205.566,-970.215,-970.215,-169.434,-508.789
1571286338.596,129.395,-970.215,-970.215,-188.965,-599.609
1571286338.600,274.902,-970.215,-970.215,-182.617,-579.102
1571286338.604,388.672,-970.215,-970.215,-135.742,-467.285
1571286338.608,277.832,-970.215,-970.215,-145.508,-459.473
1571286338.612,162.109,-970.215,-970.215,-180.664,-547.852
1571286338.616,202.148,-970.215,-970.215,-183.105,-573.242
1571286338.620,324.707,-970.215,-970.215,-143.066,-502.930
1571286338.624,288.086,-970.215,-970.215,-141.602,-479.004
1571286338.628,140.625,-970.215,-970.215,-208.496,-566.406
1571286338.632,138.184,-970.215,-970.215,-201.172,-615.234
1571286338.636,286.621,-970.215,-970.215,-182.617,-519.043
1571286338.639,303.711,-970.215,-970.215,-234.375,-456.543
1571286338.643,103.516,-970.215,-970.215,-261.230,-526.367
1571286338.647,26.367,-970.215,-970.215,-288.086,-604.980
1571286338.651,148.926,-970.215,-970.215,-280.762,-583.984
1571286338.655,242.188,-970.215,-970.215,-235.352,-487.793
1571286338.659,125.977,-970.215,-970.215,-235.840,-505.371
1571286338.663,10.742,-970.215,-970.215,-280.273,-574.707
1571286338.667,97.168,-970.215,-970.215,-325.195,-544.434
1571286338.671,235.352,-970.215,-970.215,-307.617,-462.402
1571286338.675,169.434,-970.215,-970.215,-283.203,-492.188
1571286338.679,24.414,-970.215,-970.215,-302.246,-577.637
1571286338.682,77.637,-970.215,-970.215,-326.660,-583.984
1571286338.686,269.531,-970.215,-970.215,-278.320,-525.391
1571286338.690,249.023,-970.215,-970.215,-250.977,-480.469
1571286338.694,93.750,-970.215,-970.215,-290.527,-512.207
1571286338.698,111.816,-970.215,-970.215,-284.668,-545.898
1571286338.702,271.973,-970.215,-970.215,-241.211,-505.859
1571286338.706,312.012,-970.215,-970.215,-219.727,-439.941
1571286338.710,177.246,-970.215,-970.215,-259.277,-479.004
1571286338.714,132.812,-970.215,-970.215,-260.254,-567.383
1571286338.718,295.410,-970.215,-970.215,-205.078,-537.109
1571286338.721,422.852,-970.215,-970.215,-152.344,-455.566
1571286338.725,296.875,-970.215,-970.215,-165.039,-454.590
1571286338.729,190.430,-970.215,-970.215,-192.383,-529.785
1571286338.733,322.754,-970.215,-970.215,-96.680,-559.082
1571286338.737,495.117,-970.215,-970.215,-54.199,-471.191
1571286338.741,421.875,-970.215,-970.215,-82.031,-455.078
1571286338.745,281.738,-970.215,-970.215,-73.242,-561.035
1571286338.749,342.773,-970.215,-970.215,-68.359,-588.867
1571286338.753,511.719,-970.215,-970.215,-3.906,-523.926
1571286338.757,531.250,-970.215,-970.215,48.828,-457.031
1571286338.761,426.758,-969.727,-970.215,39.062,-493.652
1571286338.764,411.133,-970.215,-970.215,32.715,-577.148
1571286338.768,544.434,-970.215,-970.215,68.359,-519.043
1571286338.772,608.887,-970.215,-970.215,110.352,-417.480
1571286338.776,464.844,-970.215,-970.215,87.402,-469.727
1571286338.780,388.672,-970.215,-970.215,44.434,-585.449
1571286338.784,499.023,-970.215,-970.215,78.125,-572.266
1571286338.788,608.398,-970.215,-970.215,105.469,-451.172
1571286338.792,481.445,-970.215,-970.215,69.824,-452.148
1571286338.796,341.797,-970.215,-970.215,42.969,-556.152
1571286338.800,437.012,-970.215,-970.215,42.969,-549.805
1571286338.804,591.309,-970.215,-970.215,81.055,-446.777
1571286338.807,522.461,-970.215,-970.215,77.637,-443.359
1571286338.811,361.816,-970.215,-970.215,40.039,-546.387
1571286338.815,382.812,-970.215,-970.215,33.203,-571.777
1571286338.819,532.715,-970.215,-970.215,68.848,-527.344
1571286338.823,547.363,-970.215,-970.215,79.102,-453.613
1571286338.827,389.648,-970.215,-970.215,51.758,-466.797
1571286338.831,343.262,-970.215,-970.215,36.621,-548.340
1571286338.835,485.840,-970.215,-970.215,106.934,-512.207
1571286338.839,576.172,-970.215,-970.215,147.461,-449.707
1571286338.843,436.523,-970.215,-970.215,93.262,-475.098
1571286338.846,331.543,-970.215,-970.215,68.848,-555.176
1571286338.850,418.945,-970.215,-970.215,60.547,-544.434
1571286338.854,519.531,-970.215,-970.215,80.078,-446.777
1571286338.858,430.176,-970.215,-970.215,78.613,-470.215
1571286338.862,310.547,-970.215,-970.215,68.359,-539.062
1571286338.866,335.449,-970.215,-970.215,65.430,-533.203
1571286338.870,454.590,-970.215,-970.215,76.660,-462.402
1571286338.874,444.336,-970.215,-970.215,87.891,-419.434
1571286338.878,349.609,-970.215,-970.215,79.102,-488.281
1571286338.882,343.262,-970.215,-970.215,79.102,-560.547
1571286338.886,443.848,-970.215,-970.215,118.652,-495.117
1571286338.889,492.188,-970.215,-970.215,169.434,-426.758
1571286338.893,360.840,-970.215,-970.215,145.020,-491.211
1571286338.897,294.922,-970.215,-970.215,77.148,-566.895
1571286338.901,441.406,-970.215,-970.215,86.426,-538.086
1571286338.905,515.625,-970.215,-970.215,122.070,-440.430
1571286338.909,373.535,-970.215,-970.215,87.891,-467.285
1571286338.913,268.555,-970.215,-970.215,69.336,-572.754
1571286338.917,328.125,-970.215,-970.215,100.586,-563.965
1571286338.921,443.359,-970.215,-970.215,160.156,-451.660
1571286338.925,377.441,-970.215,-970.215,150.391,-453.125
1571286338.929,263.672,-970.215,-970.215,69.336,-552.246
1571286338.932,274.414,-970.215,-970.215,95.703,-614.258
1571286338.936,397.949,-970.215,-970.215,141.113,-512.207
1571286338.940,366.211,-970.215,-970.215,102.051,-455.078
1571286338.944,178.223,-970.215,-970.215,60.547,-539.062
1571286338.948,165.527,-970.215,-970.215,46.387,-593.750
1571286338.952,311.523,-970.215,-970.215,76.172,-533.691
1571286338.956,345.703,-970.215,-970.215,117.188,-464.844
1571286338.960,215.332,-970.215,-970.215,86.914,-533.203
1571286338.964,141.113,-970.215,-970.215,26.855,-592.773
1571286338.968,208.008,-970.215,-970.215,20.020,-560.059
1571286338.971,294.434,-970.215,-970.215,58.594,-500.000
1571286338.975,169.434,-970.215,-970.215,26.367,-540.039
1571286338.979,59.570,-970.215,-970.215,-33.203,-609.863
1571286338.983,180.176,-970.215,-970.215,33.691,-583.496
1571286338.987,315.430,-970.215,-970.215,83.008,-489.746
1571286338.991,227.051,-970.215,-970.215,19.043,-500.977
1571286338.995,88.867,-970.215,-970.215,3.418,-575.684
1571286338.999,144.531,-970.215,-970.215,-23.926,-590.332
1571286339.003,229.980,-970.215,-970.215,-11.230,-526.367
1571286339.007,193.848,-970.215,-970.215,9.277,-504.883
1571286339.011,51.758,-970.215,-970.215,-34.668,-546.875
1571286339.014,13.184,-970.215,-970.215,-49.316,-569.336
1571286339.018,140.137,-970.215,-970.215,-37.109,-531.250
1571286339.022,180.176,-970.215,-970.215,-22.461,-439.941
1571286339.026,24.902,-970.215,-970.215,-72.754,-480.957
1571286339.030,-45.898,-970.215,-970.215,-110.840,-572.754
1571286339.034,67.871,-970.215,-970.215,-43.457,-549.805
1571286339.038,190.430,-970.215,-970.215,-30.762,-455.566
1571286339.042,59.570,-970.215,-970.215,-55.664,-473.633
1571286339.046,-86.426,-970.215,-970.215,-84.961,-573.730
1571286339.050,16.113,-970.215,-970.215,-93.262,-593.750
1571286339.054,165.527,-970.215,-970.215,-80.566,-492.676
1571286339.057,105.957,-970.215,-970.215,-122.070,-443.359
1571286339.061,-37.598,-970.215,-970.215,-136.719,-524.414
1571286339.065,-6.348,-970.215,-970.215,-78.125,-581.543
1571286339.069,142.578,-970.215,-970.215,-32.227,-517.090
1571286339.073,146.484,-970.215,-970.215,-122.559,-453.125
1571286339.077,-16.113,-970.215,-970.215,-182.129,-495.117
1571286339.081,-42.969,-970.215,-970.215,-144.043,-538.086
1571286339.085,98.145,-970.215,-970.215,-115.723,-504.883
1571286339.089,154.297,-970.215,-970.215,-93.262,-439.453
1571286339.093,12.207,-970.215,-970.215,-79.102,-470.703
1571286339.096,-57.617,-970.215,-970.215,-143.555,-539.062
1571286339.100,64.453,-970.215,-970.215,-161.621,-515.625
1571286339.104,174.805,-970.215,-970.215,-56.152,-430.176
1571286339.108,91.309,-970.215,-970.215,-50.293,-425.781
1571286339.112,-38.574,-970.215,-970.215,-91.797,-521.973
1571286339.116,5.371,-970.215,-970.215,-110.352,-562.500
1571286339.120,170.410,-970.215,-970.215,-72.266,-490.234
1571286339.124,139.648,-970.215,-970.215,-43.945,-452.148
1571286339.128,-1.953,-970.215,-970.215,-79.590,-534.668
1571286339.132,19.043,-970.215,-970.215,-74.219,-569.336
1571286339.136,158.203,-970.215,-970.215,-55.664,-502.930
1571286339.139,175.293,-970.215,-970.215,-33.691,-475.586
1571286339.143,79.102,-970.215,-970.215,-70.312,-540.527
1571286339.147,42.480,-970.215,-970.215,-71.777,-573.242
1571286339.151,148.438,-970.215,-970.215,-29.785,-515.625
1571286339.155,243.164,-970.215,-970.215,-19.043,-455.566
1571286339.159,123.535,-970.215,-970.215,-62.500,-488.281
1571286339.163,25.879,-970.215,-970.215,-66.406,-558.105
1571286339.167,107.422,-970.215,-970.215,-52.734,-576.660
1571286339.171,203.613,-970.215,-970.215,-84.473,-485.840
1571286339.175,112.305,-970.215,-970.215,-106.445,-483.398
1571286339.179,3.418,-970.215,-970.215,-116.699,-578.613
1571286339.182,47.363,-970.215,-970.215,-85.449,-608.887
1571286339.186,173.828,-970.215,-970.215,-21.484,-541.992
1571286339.190,164.062,-970.215,-970.215,-39.062,-477.051
1571286339.194,25.879,-970.215,-970.215,-117.676,-538.086
1571286339.198,44.922,-970.215,-970.215,-112.305,-603.516
1571286339.202,156.250,-970.215,-970.215,-94.727,-525.879
1571286339.206,128.418,-970.215,-970.215,-86.426,-438.477
1571286339.210,10.254,-970.215,-970.215,-104.492,-496.582
1571286339.214,-29.297,-970.215,-970.215,-125.488,-590.332
1571286339.218,86.426,-970.215,-970.215,-117.188,-574.219
1571286339.221,193.359,-970.215,-970.215,-75.684,-455.566
1571286339.225,62.500,-970.215,-970.215,-75.195,-483.887
1571286339.229,-60.059,-970.215,-970.215,-131.836,-608.398
1571286339.233,24.902,-970.215,-970.215,-137.207,-569.336
1571286339.237,142.578,-970.215,-970.215,-77.637,-444.824
1571286339.241,79.590,-970.215,-970.215,-48.828,-443.359
1571286339.245,-47.363,-970.215,-970.215,-113.770,-529.297
1571286339.249,-9.766,-970.215,-970.215,-137.695,-567.871
1571286339.253,95.215,-970.215,-970.215,-103.516,-487.305
1571286339.257,95.703,-970.215,-970.215,-107.422,-434.082
1571286339.261,6.836,-970.215,-970.215,-133.789,-513.184
1571286339.264,-39.062,-970.215,-970.215,-129.883,-580.566
1571286339.268,84.473,-970.215,-970.215,-94.238,-539.062
1571286339.272,113.770,-970.215,-970.215,-88.379,-472.168
1571286339.276,-2.930,-970.215,-970.215,-97.168,-516.113
1571286339.280,0.000,-970.215,-970.215,-118.652,-572.754
1571286339.284,52.734,-970.215,-970.215,-127.441,-541.016
1571286339.288,87.891,-970.215,-970.215,-80.078,-481.445
1571286339.292,12.207,-970.215,-970.215,-98.145,-480.957
1571286339.296,-70.312,-970.215,-970.215,-122.070,-549.805
1571286339.300,34.668,-970.215,-969.727,-69.336,-584.473
1571286339.304,159.180,-970.215,-970.215,-32.715,-458.496
1571286339.307,116.699,-970.215,-970.215,-59.570,-421.875
1571286339.311,-21.973,-970.215,-970.215,-103.516,-539.062
1571286339.315,-16.113,-970.215,-970.215,-100.586,-586.914
1571286339.319,100.586,-970.215,-970.215,-45.410,-506.836
1571286339.323,81.055,-970.215,-970.215,-32.227,-445.801
1571286339.327,-38.086,-970.215,-970.215,-90.332,-517.090
1571286339.331,-41.992,-970.215,-970.215,-96.191,-583.008
1571286339.335,104.004,-970.215,-970.215,-49.316,-540.527
1571286339.339,145.020,-970.215,-970.215,-39.551,-457.031
1571286339.343,26.367,-970.215,-970.215,-78.613,-478.516
1571286339.346,-34.668,-969.727,-970.215,-102.539,-582.031
1571286339.350,41.504,-969.727,-970.215,-72.754,-546.875
1571286339.354,148.926,-970.215,-970.215,-37.109,-426.270
1571286339.358,75.195,-970.215,-970.215,-67.383,-434.570
1571286339.362,-53.223,-970.215,-970.215,-105.957,-536.621
1571286339.366,-17.578,-970.215,-970.215,-91.309,-562.500
1571286339.370,120.605,-970.215,-970.215,-65.430,-458.496
1571286339.374,77.148,-970.215,-970.215,-75.195,-412.598
1571286339.378,-51.758,-970.215,-970.215,-87.891,-517.578
1571286339.382,-56.641,-970.215,-970.215,-83.984,-617.676
1571286339.386,61.523,-970.215,-970.215,-34.668,-502.930
1571286339.389,123.047,-970.215,-970.215,11.230,-404.297
1571286339.393,-7.812,-970.215,-970.215,-56.152,-495.117
1571286339.397,-68.359,-970.215,-970.215,-125.977,-548.828
1571286339.401,23.438,-970.215,-970.215,-95.215,-497.070
1571286339.405,95.703,-970.215,-970.215,-62.988,-412.109
1571286339.409,-15.137,-970.215,-970.215,-88.379,-445.312
1571286339.413,-131.348,-970.215,-970.215,-80.566,-542.480
1571286339.417,-28.320,-970.215,-970.215,-42.969,-537.109
1571286339.421,117.676,-970.215,-970.215,-26.367,-443.848
1571286339.425,67.383,-970.215,-970.215,-77.148,-461.426
1571286339.429,-50.781,-970.215,-970.215,-115.234,-535.156
1571286339.432,-41.504,-970.215,-970.215,-51.270,-520.996
1571286339.436,65.918,-970.215,-970.215,-36.133,-439.941
1571286339.440,53.223,-970.215,-970.215,-87.891,-407.715
1571286339.444,-65.918,-970.215,-970.215,-123.047,-471.680
1571286339.448,-53.223,-970.215,-970.215,-106.934,-522.461
1571286339.452,76.172,-970.215,-970.215,-45.410,-481.445
1571286339.456,116.699,-970.215,-970.215,-17.090,-422.852
1571286339.460,8.301,-970.215,-970.215,-73.730,-459.961
1571286339.464,-60.547,-970.215,-970.215,-72.754,-528.320
1571286339.468,25.391,-970.215,-970.215,-9.766,-536.621
1571286339.471,92.773,-970.215,-970.215,-34.180,-455.078
1571286339.475,10.254,-970.215,-971.191,-57.129,-441.895
1571286339.479,-71.289,-970.215,-961.914,-81.055,-523.438
1571286339.483,-0.488,-970.215,-979.492,-84.473,-539.062
1571286339.487,114.258,-970.215,-931.152,-55.176,-467.773
1571286339.491,74.219,-970.215,-670.898,-32.227,-429.199
1571286339.495,-37.109,-970.215,-725.586,-56.152,-500.977
1571286339.499,-46.387,-970.215,-979.004,-89.355,-562.012
1571286339.503,89.355,-970.215,-970.703,-32.715,-485.840
1571286339.507,104.492,-970.215,-963.379,-18.066,-438.477
1571286339.511,-53.223,-970.215,-971.680,-87.891,-491.699
1571286339.514,-75.684,-970.215,-970.215,-85.938,-576.172
1571286339.518,76.172,-970.215,-970.215,-65.430,-548.340
1571286339.522,63.965,-970.215,-970.215,-63.965,-457.031
1571286339.526,-75.195,-970.215,-970.215,-89.355,-514.160
1571286339.530,-102.539,-970.215,-970.215,-90.332,-568.848
1571286339.534,-5.859,-970.215,-970.215,-59.570,-554.688
1571286339.538,73.730,-970.215,-970.215,-70.312,-492.676
1571286339.542,7.812,-970.215,-970.215,-91.797,-516.602
1571286339.546,-77.148,-969.727,-970.215,-116.699,-593.750
1571286339.550,-14.160,-970.215,-970.215,-93.262,-583.496
1571286339.554,106.445,-970.215,-970.215,-35.645,-490.723
1571286339.557,40.527,-970.215,-970.215,-54.199,-488.770
1571286339.561,-92.285,-970.215,-970.215,-116.699,-596.191
1571286339.565,-58.594,-970.215,-970.215,-75.684,-610.840
1571286339.569,69.336,-970.215,-970.215,-41.504,-526.855
1571286339.573,53.711,-970.215,-970.215,-66.895,-470.215
1571286339.577,-70.801,-970.215,-970.215,-89.844,-542.480
1571286339.581,-79.102,-970.215,-970.215,-101.074,-599.121
1571286339.585,29.297,-970.215,-970.215,-50.781,-512.695
1571286339.589,112.305,-970.215,-970.215,-35.645,-442.871
1571286339.593,15.137,-970.215,-970.215,-75.195,-496.582
1571286339.596,-77.148,-970.215,-970.215,-94.727,-575.195
1571286339.600,13.184,-970.215,-970.215,-53.711,-569.824
1571286339.604,128.906,-970.215,-970.215,-62.012,-490.234
1571286339.608,34.668,-970.215,-970.215,-96.680,-499.512
1571286339.612,-76.172,-970.215,-970.215,-105.469,-561.035
1571286339.616,8.789,-970.215,-970.215,-80.566,-580.566
1571286339.620,102.539,-970.215,-970.215,-30.762,-508.301
1571286339.624,62.988,-970.215,-970.215,-51.270,-459.961
1571286339.628,-20.020,-970.215,-970.215,-80.078,-510.742
1571286339.632,-25.879,-970.215,-970.215,-63.965,-568.359
1571286339.636,117.188,-970.215,-970.215,-58.594,-510.254
1571286339.639,151.855,-970.215,-970.215,-73.242,-450.684
1571286339.643,5.859,-970.215,-970.215,-91.797,-505.859
1571286339.647,-47.363,-970.215,-970.215,-77.637,-576.172
1571286339.651,57.617,-970.215,-970.215,-54.199,-524.414
1571286339.655,147.461,-970.215,-970.215,-32.227,-423.828
1571286339.659,36.621,-970.215,-970.215,-43.457,-460.938
1571286339.663,-53.223,-970.215,-970.215,-60.059,-545.410
1571286339.667,50.293,-970.215,-970.215,-64.941,-540.039
1571286339.671,146.973,-970.215,-970.215,-64.453,-451.172
1571286339.675,86.426,-970.215,-970.215,-35.645,-439.453
1571286339.679,-49.805,-970.215,-970.215,-56.641,-518.066
1571286339.682,-9.277,-970.215,-970.215,-41.992,-558.105
1571286339.686,133.301,-970.215,-970.215,-16.113,-477.051
1571286339.690,94.238,-970.215,-970.215,-23.438,-437.988
1571286339.694,-39.062,-970.215,-970.215,-22.461,-514.648
1571286339.698,-3.906,-970.215,-970.215,-71.777,-577.148
1571286339.702,108.398,-970.215,-970.215,-24.414,-527.832
1571286339.706,89.844,-970.215,-970.215,1.953,-459.473
1571286339.710,-42.480,-970.215,-970.215,-124.023,-506.348
1571286339.714,-102.539,-970.215,-970.215,-145.508,-571.289
1571286339.718,12.207,-970.215,-970.215,-83.008,-526.367
1571286339.721,83.984,-970.215,-970.215,-33.691,-444.824
1571286339.725,-40.527,-970.215,-970.215,-63.965,-508.301
1571286339.729,-71.289,-970.215,-970.215,-125.488,-587.891
1571286339.733,26.855,-970.215,-970.215,-80.078,-563.965
1571286339.737,86.426,-970.215,-970.215,-56.152,-486.816
1571286339.741,44.434,-970.215,-970.215,-81.543,-489.746
1571286339.745,-62.988,-970.215,-970.215,-100.098,-557.617
1571286339.749,-34.180,-970.215,-970.215,-106.445,-570.312
1571286339.753,100.098,-970.215,-970.215,-53.223,-508.301
1571286339.757,95.703,-970.215,-970.215,-47.852,-465.332
1571286339.761,-55.176,-970.215,-970.215,-52.246,-503.906
1571286339.764,-80.566,-970.215,-970.215,-56.152,-582.031
1571286339.768,56.152,-970.215,-970.215,-68.359,-566.895
1571286339.772,93.262,-970.215,-970.215,-63.477,-479.980
1571286339.776,-31.250,-970.215,-970.215,-90.332,-502.441
1571286339.780,-76.172,-970.215,-970.215,-104.980,-605.469
1571286339.784,44.434,-970.215,-970.215,-69.336,-581.543
1571286339.788,104.980,-970.215,-970.215,-40.039,-484.375
1571286339.792,-22.461,-969.727,-970.215,-60.059,-484.375
1571286339.796,-86.914,-970.215,-970.215,-96.680,-549.805
1571286339.800,-23.438,-970.215,-970.215,-77.148,-597.168
1571286339.804,81.055,-970.215,-970.215,-32.227,-507.812
1571286339.807,65.430,-970.215,-970.215,-37.598,-479.492
1571286339.811,-47.852,-970.215,-970.215,-55.664,-557.129
1571286339.815,-15.137,-970.215,-970.215,-77.148,-548.340
1571286339.819,104.980,-970.215,-970.215,-44.922,-482.422
1571286339.823,64.453,-970.215,-970.215,-33.691,-441.406
1571286339.827,-64.941,-970.215,-970.215,-85.938,-495.117
1571286339.831,-75.195,-970.215,-970.215,-110.840,-556.152
1571286339.835,60.059,-970.215,-970.215,-61.035,-522.949
1571286339.839,144.043,-970.215,-970.215,-40.039,-443.848
1571286339.843,33.203,-970.215,-970.215,-87.891,-480.469
1571286339.846,-44.434,-970.215,-970.215,-96.680,-560.059
1571286339.850,26.855,-970.215,-970.215,-82.031,-542.480
1571286339.854,105.469,-970.215,-970.215,-63.477,-458.496
1571286339.858,20.508,-970.215,-970.215,-85.449,-469.238
1571286339.862,-64.453,-970.215,-970.215,-123.535,-556.641
1571286339.866,16.113,-970.215,-970.215,-52.734,-542.969
1571286339.870,125.488,-970.215,-970.215,-18.555,-439.453
1571286339.874,74.707,-970.215,-970.215,-76.172,-433.105
1571286339.878,-71.289,-970.215,-970.215,-96.191,-516.113
1571286339.882,-63.965,-970.215,-970.215,-124.023,-540.527
1571286339.886,86.426,-970.215,-970.215,-86.426,-501.953
1571286339.889,110.352,-970.215,-970.215,-70.312,-477.539
1571286339.893,17.090,-970.215,-970.215,-72.266,-517.090
1571286339.897,-58.594,-970.215,-970.215,-65.430,-565.430
1571286339.901,4.395,-970.215,-970.215,-40.039,-532.715
1571286339.905,104.492,-970.215,-970.215,-16.602,-454.590
1571286339.909,18.555,-970.215,-970.215,-83.984,-495.117
1571286339.913,-83.008,-970.215,-960.449,-133.301,-559.082
1571286339.917,4.883,-970.215,-995.605,-107.910,-546.875
1571286339.921,113.770,-970.215,-848.145,-83.496,-435.547
1571286339.925,31.250,-970.215,-706.055,-83.984,-428.711
1571286339.929,-62.988,-970.215,-884.766,-105.469,-528.809
1571286339.932,-21.484,-970.215,-1000.000,-80.566,-570.312
1571286339.936,41.992,-970.215,-896.973,-41.016,-493.164
1571286339.940,5.859,-970.215,-699.219,-100.098,-421.387
1571286339.944,-81.543,-970.215,-765.137,-133.301,-483.398
1571286339.948,-79.590,-970.215,-934.082,-122.559,-538.574
1571286339.952,5.371,-970.215,-973.145,-83.496,-493.652
1571286339.956,23.926,-970.215,-964.844,-53.223,-400.879
1571286339.960,-82.520,-970.215,-970.215,-90.820,-458.496
1571286339.964,-156.738,-970.215,-970.215,-113.770,-548.340
1571286339.968,-78.613,-970.215,-970.215,-90.820,-520.996
1571286339.971,8.301,-970.215,-970.215,-28.809,-416.016
1571286339.975,-75.684,-970.215,-970.215,-60.547,-433.105
1571286339.979,-161.621,-970.215,-970.215,-92.773,-549.316
1571286339.983,-74.707,-970.215,-970.215,-88.379,-535.645
1571286339.987,17.090,-970.215,-970.215,-90.820,-414.551
1571286339.991,-57.129,-970.215,-970.215,-73.730,-404.297
1571286339.995,-153.320,-970.215,-970.215,-78.613,-477.539
1571286339.999,-81.055,-970.215,-970.215,-104.980,-490.234
1571286340.003,47.852,-970.215,-970.215,-100.098,-410.156
1571286340.007,9.766,-970.215,-970.215,-80.078,-354.980
1571286340.011,-132.324,-970.215,-970.215,-100.098,-422.363
1571286340.014,-126.465,-970.215,-970.215,-113.281,-489.258
1571286340.018,22.949,-970.215,-970.215,-104.980,-438.477
1571286340.022,71.777,-970.215,-970.215,-93.262,-384.277
1571286340.026,-51.270,-970.215,-970.215,-139.160,-439.453
1571286340.030,-114.258,-970.215,-970.215,-160.645,-496.582
1571286340.034,9.766,-970.215,-970.215,-102.539,-468.750
1571286340.038,89.844,-970.215,-970.215,-105.957,-410.645
1571286340.042,-22.949,-970.215,-970.215,-158.691,-445.312
1571286340.046,-99.121,-970.215,-970.215,-158.203,-517.578
1571286340.050,-24.414,-970.215,-970.215,-120.605,-511.719
1571286340.054,62.988,-970.215,-970.215,-110.352,-431.152
1571286340.057,6.348,-970.215,-970.215,-134.277,-400.391
1571286340.061,-91.797,-970.215,-970.215,-166.992,-489.746
1571286340.065,-45.410,-970.215,-970.215,-171.875,-522.949
1571286340.069,87.891,-970.215,-970.215,-123.047,-440.918
1571286340.073,94.727,-970.215,-970.215,-113.770,-402.344
1571286340.077,-43.945,-970.215,-970.215,-151.855,-477.539
1571286340.081,-111.816,-970.215,-970.215,-160.645,-548.828
1571286340.085,-8.301,-970.215,-970.215,-121.094,-507.812
1571286340.089,65.430,-970.215,-970.215,-95.215,-426.758
1571286340.093,-45.898,-970.215,-970.215,-119.141,-431.152
1571286340.096,-112.305,-970.215,-970.215,-158.691,-511.719
1571286340.100,-27.832,-970.215,-970.215,-155.762,-515.625
1571286340.104,42.969,-970.215,-970.215,-135.742,-420.410
1571286340.108,-24.902,-970.215,-970.215,-144.531,-436.035
1571286340.112,-129.395,-970.215,-970.215,-143.555,-536.621
1571286340.116,-87.402,-970.215,-970.215,-179.688,-562.500
1571286340.120,29.785,-970.215,-970.215,-151.855,-455.566
1571286340.124,2.930,-970.215,-970.215,-139.160,-397.461
1571286340.128,-87.402,-970.215,-970.215,-210.449,-522.949
1571286340.132,-119.629,-970.215,-970.215,-179.688,-580.078
1571286340.136,-37.109,-970.215,-970.215,-113.770,-470.215
1571286340.139,4.883,-970.215,-970.215,-139.160,-424.805
1571286340.143,-120.117,-970.215,-969.727,-178.711,-494.629
1571286340.147,-146.973,-970.215,-969.727,-181.641,-558.594
1571286340.151,-23.926,-970.215,-973.145,-157.227,-500.488
1571286340.155,15.137,-970.215,-945.801,-109.863,-390.137
1571286340.159,-117.676,-970.215,-950.195,-150.879,-440.918
1571286340.163,-210.938,-970.215,-971.680,-168.945,-543.457
1571286340.167,-107.910,-970.215,-982.910,-130.371,-520.508
1571286340.171,22.461,-970.215,-867.676,-131.836,-414.551
1571286340.175,-52.246,-970.215,-886.719,-148.926,-431.641
1571286340.179,-175.293,-970.215,-875.000,-111.816,-503.418
1571286340.182,-132.324,-970.215,-714.355,-115.723,-507.812
1571286340.186,-46.875,-970.215,-757.324,-163.574,-445.312
1571286340.190,-87.891,-970.215,-748.535,-148.926,-411.621
1571286340.194,-164.551,-970.215,-708.496,-176.270,-480.957
1571286340.198,-140.625,-970.215,-789.062,-172.852,-538.086
1571286340.202,-9.766,-970.215,-845.215,-123.535,-500.000
1571286340.206,20.020,-970.215,-702.637,-130.859,-441.406
1571286340.210,-119.141,-970.215,-724.121,-140.137,-477.539
1571286340.214,-138.672,-969.727,-941.895,-123.047,-562.012
1571286340.218,4.883,-970.215,-981.934,-80.078,-572.266
1571286340.221,82.520,-970.215,-910.156,-95.215,-481.445
1571286340.225,-7.812,-970.215,-822.266,-137.695,-477.539
1571286340.229,-82.520,-970.215,-913.574,-130.371,-570.801
1571286340.233,-7.812,-970.215,-983.887,-133.301,-581.543
1571286340.237,76.172,-970.215,-944.824,-94.238,-469.727
1571286340.241,-3.906,-970.215,-939.453,-93.262,-426.758
1571286340.245,-79.102,-970.215,-971.191,-145.020,-519.531
1571286340.249,-26.367,-970.215,-970.703,-128.418,-587.402
1571286340.253,63.965,-970.215,-969.238,-76.660,-507.324
1571286340.257,64.941,-970.215,-970.215,-83.984,-447.754
1571286340.261,-58.594,-970.215,-970.215,-137.695,-542.969
1571286340.264,-62.988,-970.215,-970.215,-148.926,-615.723
1571286340.268,80.078,-970.215,-970.215,-114.258,-528.320
1571286340.272,117.188,-970.215,-970.215,-80.566,-412.109
1571286340.276,-8.301,-970.215,-970.215,-112.793,-464.355
1571286340.280,-54.688,-970.215,-970.215,-145.996,-556.152
1571286340.284,41.504,-970.215,-970.215,-113.770,-520.020
1571286340.288,125.977,-970.215,-970.215,-68.359,-431.152
1571286340.292,26.367,-970.215,-970.215,-95.703,-469.727
1571286340.296,-75.684,-970.215,-970.215,-159.668,-538.086
1571286340.300,11.719,-970.215,-970.215,-164.062,-531.250
1571286340.304,125.977,-970.215,-970.215,-100.098,-446.777
1571286340.307,71.777,-970.215,-970.215,-104.492,-435.547
1571286340.311,-31.250,-970.215,-970.215,-128.906,-521.484
1571286340.315,-15.137,-970.215,-970.215,-129.395,-549.805
1571286340.319,89.355,-970.215,-970.215,-116.699,-472.656
1571286340.323,101.562,-970.215,-970.215,-120.605,-417.969
1571286340.327,-18.066,-970.215,-970.215,-151.367,-504.883
1571286340.331,-49.316,-970.215,-970.215,-159.668,-575.684
1571286340.335,29.785,-970.215,-970.215,-156.250,-517.090
1571286340.339,72.266,-970.215,-970.215,-112.793,-406.250
1571286340.343,-11.230,-970.215,-970.215,-131.836,-461.914
1571286340.346,-116.211,-970.215,-970.215,-156.250,-568.848
1571286340.350,-59.082,-970.215,-969.727,-135.254,-532.715
1571286340.354,60.547,-970.215,-970.215,-116.699,-465.332
1571286340.358,-2.441,-970.215,-970.215,-149.414,-469.238
1571286340.362,-85.938,-970.215,-970.215,-193.359,-526.367
1571286340.366,-36.621,-970.215,-970.215,-170.410,-542.480
1571286340.370,58.594,-970.215,-970.215,-141.602,-463.867
1571286340.374,24.414,-970.215,-970.215,-120.117,-454.102
1571286340.378,-84.961,-970.215,-970.215,-142.090,-518.555
1571286340.382,-80.078,-970.215,-970.215,-119.629,-552.734
1571286340.386,34.180,-970.215,-970.215,-67.871,-499.512
1571286340.389,70.801,-970.215,-970.215,-87.402,-423.828
1571286340.393,-48.828,-970.215,-970.215,-100.586,-476.562
1571286340.397,-69.336,-970.215,-970.215,-123.535,-559.082
1571286340.401,44.434,-970.215,-970.215,-140.137,-525.391
1571286340.405,70.312,-970.215,-970.215,-106.934,-434.570
1571286340.409,-25.879,-970.215,-970.215,-99.121,-469.238
1571286340.413,-97.168,-970.215,-970.215,-129.883,-565.918
1571286340.417,2.441,-970.215,-970.215,-100.098,-546.387
1571286340.421,122.070,-970.215,-970.215,-50.293,-430.176
1571286340.425,41.504,-970.215,-970.215,-101.074,-439.453
1571286340.429,-70.312,-970.215,-970.215,-106.445,-509.766
1571286340.432,-35.156,-970.215,-970.215,-66.895,-517.578
1571286340.436,97.656,-970.215,-970.215,-88.867,-440.918
1571286340.440,94.727,-970.215,-970.215,-86.914,-402.832
1571286340.444,-59.082,-970.215,-970.215,-100.586,-489.258
1571286340.448,-72.754,-970.215,-970.215,-122.559,-543.945
1571286340.452,31.250,-970.215,-970.215,-95.703,-455.566
1571286340.456,49.805,-970.215,-970.215,-89.844,-381.836
1571286340.460,-52.734,-970.215,-970.215,-124.023,-468.262
1571286340.464,-95.703,-970.215,-970.215,-153.320,-547.363
1571286340.468,6.836,-970.215,-970.215,-125.488,-484.863
1571286340.471,56.152,-970.215,-970.215,-78.613,-416.016
1571286340.475,-42.969,-970.215,-970.215,-81.055,-473.145
1571286340.479,-88.867,-970.215,-970.215,-100.586,-549.316
1571286340.483,14.160,-970.215,-970.215,-72.266,-530.762
1571286340.487,120.117,-970.215,-970.215,-60.547,-424.316
1571286340.491,40.039,-970.215,-970.215,-76.172,-401.367
1571286340.495,-58.594,-970.215,-970.215,-88.379,-498.535
1571286340.499,-34.668,-970.215,-970.215,-80.078,-543.457
1571286340.503,42.969,-970.215,-970.215,-61.523,-471.191
1571286340.507,42.969,-970.215,-970.215,-84.473,-427.734
1571286340.511,-38.086,-970.215,-970.215,-133.301,-477.539
1571286340.514,-68.848,-970.215,-970.215,-129.883,-510.742
1571286340.518,51.270,-970.215,-970.215,-84.473,-464.355
1571286340.522,89.355,-970.215,-970.215,-60.547,-399.414
1571286340.526,-34.180,-970.215,-970.215,-81.055,-432.129
1571286340.530,-68.359,-970.215,-970.215,-99.121,-510.742
1571286340.534,16.602,-970.215,-970.215,-95.703,-488.770
1571286340.538,75.195,-970.215,-970.215,-88.867,-399.902
1571286340.542,4.883,-970.215,-971.191,-87.891,-417.480
1571286340.546,-61.035,-970.215,-959.961,-97.656,-500.977
1571286340.550,-5.371,-970.215,-985.840,-124.023,-533.691
1571286340.554,83.496,-970.215,-892.090,-83.984,-444.824
1571286340.557,53.711,-970.215,-603.027,-58.594,-374.023
1571286340.561,-43.457,-970.215,-707.520,-115.234,-458.984
1571286340.565,-34.668,-970.215,-902.344,-130.371,-508.301
1571286340.569,76.660,-970.215,-788.574,-81.055,-420.410
1571286340.573,84.473,-970.215,-766.602,-70.801,-387.207
1571286340.577,-47.363,-970.215,-848.633,-99.121,-469.238
1571286340.581,-86.914,-970.215,-972.168,-101.074,-535.156
1571286340.585,28.809,-970.215,-978.027,-79.590,-469.238
1571286340.589,88.379,-970.215,-906.738,-57.617,-393.555
1571286340.593,12.695,-970.215,-907.715,-61.523,-456.543
1571286340.596,-54.688,-969.727,-971.191,-98.633,-531.738
1571286340.600,28.320,-970.215,-892.090,-80.078,-493.164
1571286340.604,123.047,-970.215,-724.121,-34.180,-396.973
1571286340.608,47.363,-970.215,-811.035,-53.223,-420.898
1571286340.612,-30.762,-970.215,-984.375,-85.938,-515.137
1571286340.616,34.668,-970.215,-979.492,-83.984,-513.672
1571286340.620,143.066,-970.215,-789.551,-38.574,-403.809
1571286340.624,100.098,-970.215,-676.758,-17.090,-392.090
1571286340.628,-29.785,-970.215,-892.090,-48.340,-525.879
1571286340.632,-14.160,-970.215,-983.398,-35.156,-569.336
1571286340.636,127.441,-970.215,-962.891,19.531,-486.816
1571286340.639,126.953,-970.215,-969.727,-2.930,-453.125
1571286340.643,-15.137,-970.215,-970.215,-62.500,-490.723
1571286340.647,-52.734,-970.215,-970.215,-67.383,-522.949
1571286340.651,38.086,-970.215,-970.215,-51.758,-504.883
1571286340.655,72.266,-970.215,-970.215,-23.438,-416.992
1571286340.659,-19.043,-970.215,-970.215,-19.531,-439.941
1571286340.663,-54.688,-970.215,-970.215,-54.199,-543.945
1571286340.667,6.836,-970.215,-970.215,-52.734,-527.832
1571286340.671,63.965,-970.215,-970.215,4.883,-412.109
1571286340.675,-26.367,-970.215,-970.215,-22.949,-423.828
1571286340.679,-131.836,-970.215,-970.215,-99.609,-517.090
1571286340.682,-61.035,-970.215,-970.215,-82.520,-542.480
1571286340.686,62.500,-970.215,-970.215,-33.691,-463.867
1571286340.690,42.480,-970.215,-970.215,-7.324,-407.715
1571286340.694,-46.875,-970.215,-970.215,-33.691,-499.023
1571286340.698,-29.297,-970.215,-970.215,-68.359,-540.039
1571286340.702,83.496,-970.215,-970.215,-49.316,-457.031
1571286340.706,115.723,-970.215,-970.215,-30.762,-401.855
1571286340.710,8.301,-970.215,-970.215,-41.992,-457.520
1571286340.714,-38.574,-970.215,-970.215,-41.992,-508.301
1571286340.718,58.105,-970.215,-970.215,-45.410,-482.910
1571286340.721,115.723,-970.215,-970.215,17.578,-405.762
1571286340.725,28.320,-970.215,-970.215,60.059,-410.156
1571286340.729,-18.555,-970.215,-970.215,-34.180,-522.461
1571286340.733,47.852,-970.215,-970.215,-52.246,-560.059
1571286340.737,127.930,-969.727,-970.215,-13.184,-434.570
1571286340.741,70.312,-970.215,-970.215,-42.480,-400.391
1571286340.745,-39.062,-970.215,-970.215,-73.242,-503.906
1571286340.749,16.113,-970.215,-970.215,-36.621,-538.086
1571286340.753,135.254,-970.215,-970.215,21.973,-439.941
1571286340.757,115.723,-970.215,-970.215,2.441,-381.836
1571286340.761,19.043,-970.215,-970.215,-29.785,-469.727
1571286340.764,-23.926,-970.215,-970.215,-29.785,-529.785
1571286340.768,81.055,-970.215,-970.215,-17.090,-456.055
1571286340.772,162.109,-970.215,-970.215,-21.973,-400.391
1571286340.776,65.918,-970.215,-970.215,-39.551,-476.074
1571286340.780,12.207,-970.215,-970.215,-47.363,-538.086
1571286340.784,111.328,-970.215,-970.215,-7.812,-495.605
1571286340.788,177.246,-970.215,-970.215,21.484,-417.480
1571286340.792,112.793,-970.215,-970.215,-22.949,-420.410
1571286340.796,61.523,-970.215,-970.215,-19.043,-501.465
1571286340.800,98.633,-970.215,-970.215,18.555,-528.809
1571286340.804,181.641,-970.215,-970.215,26.855,-433.105
1571286340.807,138.672,-970.215,-970.215,-7.812,-414.551
1571286340.811,33.203,-970.215,-970.215,-36.621,-500.488
1571286340.815,53.711,-970.215,-970.215,-10.742,-537.598
1571286340.819,144.043,-970.215,-970.215,10.742,-485.352
1571286340.823,161.133,-970.215,-970.215,2.441,-428.223
1571286340.827,64.941,-970.215,-970.215,-0.488,-469.727
1571286340.831,42.969,-970.215,-967.773,-1.953,-530.762
1571286340.835,145.508,-970.215,-973.633,33.691,-515.625
1571286340.839,181.641,-970.215,-955.078,35.156,-458.008
1571286340.843,74.707,-970.215,-868.164,0.977,-468.750
1571286340.846,4.395,-970.215,-899.414,-43.945,-534.668
1571286340.850,91.797,-970.215,-963.379,-61.523,-508.789
1571286340.854,166.992,-970.215,-875.488,-13.672,-411.133
1571286340.858,91.309,-970.215,-832.520,-24.902,-419.922
1571286340.862,10.742,-970.215,-926.270,-78.125,-523.438
1571286340.866,54.688,-970.215,-978.027,-74.219,-573.730
1571286340.870,136.230,-970.215,-966.309,-18.066,-459.473
1571286340.874,111.816,-970.215,-970.215,-28.320,-404.297
1571286340.878,28.320,-970.215,-970.215,-67.871,-515.625
1571286340.882,43.945,-970.215,-970.215,-83.496,-575.684
1571286340.886,157.227,-970.215,-970.215,-42.480,-460.938
1571286340.889,149.902,-970.215,-970.215,-16.113,-376.953
1571286340.893,21.484,-970.215,-970.215,-46.875,-458.496
1571286340.897,-14.648,-970.215,-970.215,-47.363,-540.039
1571286340.901,80.078,-970.215,-970.215,-19.531,-493.652
1571286340.905,135.742,-970.215,-970.215,-21.484,-388.184
1571286340.909,59.570,-970.215,-970.215,-80.566,-417.969
1571286340.913,1.465,-970.215,-970.215,-94.238,-522.949
1571286340.917,46.875,-970.215,-970.215,-55.664,-500.488
1571286340.921,125.000,-970.215,-970.215,-28.809,-405.762
1571286340.925,76.172,-970.215,-970.215,-68.848,-425.293
1571286340.929,-11.719,-970.215,-970.215,-54.688,-486.816
1571286340.932,-17.578,-970.215,-970.215,-50.293,-480.469
1571286340.936,57.617,-970.215,-970.215,-81.543,-427.734
1571286340.940,41.992,-970.215,-970.215,-79.102,-384.766
1571286340.944,-43.457,-970.215,-970.215,-46.875,-430.664
1571286340.948,0.488,-970.215,-970.215,-6.836,-486.328
1571286340.952,106.445,-970.215,-970.215,-15.625,-449.219
1571286340.956,93.262,-970.215,-970.215,-19.043,-386.719
1571286340.960,-21.484,-970.215,-970.215,-44.922,-429.688
1571286340.964,-41.504,-970.215,-970.215,-76.660,-482.422
1571286340.968,62.500,-970.215,-970.215,-76.172,-465.820
1571286340.971,133.301,-970.215,-970.215,-79.590,-420.898
1571286340.975,42.480,-970.215,-970.215,-108.398,-428.711
1571286340.979,-42.480,-970.215,-970.215,-110.352,-490.234
1571286340.983,12.207,-970.215,-970.215,-64.453,-487.305
1571286340.987,107.422,-970.215,-970.215,-29.785,-395.020
1571286340.991,73.242,-970.215,-970.215,-40.527,-384.766
1571286340.995,-11.230,-970.215,-970.215,-56.641,-494.141
1571286340.999,18.555,-970.215,-970.215,-45.898,-524.414
1571286341.003,89.844,-970.215,-970.215,-38.574,-418.457
1571286341.007,41.992,-970.215,-970.215,-36.133,-381.348
1571286341.011,-57.617,-970.215,-970.215,-48.340,-472.168
1571286341.014,-76.172,-970.215,-970.215,-22.949,-538.086
1571286341.018,32.227,-970.215,-970.215,-38.086,-459.473
1571286341.022,85.938,-970.215,-970.215,-46.875,-363.770
1571286341.026,-28.320,-970.215,-970.215,-20.508,-440.918
1571286341.030,-76.172,-970.215,-970.215,-54.199,-547.852
1571286341.034,14.160,-970.215,-970.215,-41.016,-472.656
1571286341.038,99.609,-970.215,-970.215,-26.855,-356.934
1571286341.042,13.184,-970.215,-970.215,-17.090,-412.109
1571286341.046,-80.078,-970.215,-970.215,-6.348,-507.812
1571286341.050,-28.320,-970.215,-971.680,-61.523,-492.676
1571286341.054,85.449,-970.215,-962.891,-51.270,-390.137
1571286341.057,47.363,-970.215,-973.145,-15.625,-371.094
1571286341.061,-69.824,-970.215,-930.664,-86.426,-472.656
1571286341.065,-37.109,-970.215,-678.223,-105.957,-502.930
1571286341.069,88.379,-970.215,-297.363,-58.105,-418.457
1571286341.073,80.566,-970.215,-141.602,-46.387,-375.000
1571286341.077,-37.109,-970.215,-187.988,-62.500,-445.312
1571286341.081,-57.129,-970.215,-340.820,-54.199,-522.461
1571286341.085,54.199,-970.215,-233.887,-12.695,-457.031
1571286341.089,98.633,-970.215,49.316,-18.066,-365.234
1571286341.093,-2.930,-970.215,95.703,-36.621,-436.523
1571286341.096,-53.223,-970.215,147.461,-31.738,-489.258
1571286341.100,32.227,-970.215,207.031,-35.156,-456.055
1571286341.104,102.051,-964.355,277.344,-23.438,-395.020
1571286341.108,-0.977,-983.887,663.086,-29.785,-420.410
1571286341.112,-76.660,-896.484,-985.840,-36.621,-487.793
1571286341.116,-20.996,-842.285,991.699,-13.672,-491.699
1571286341.120,83.008,-742.188,993.164,4.883,-403.320
1571286341.124,59.570,-414.551,-999.023,-31.250,-360.352
1571286341.128,-43.945,-399.902,999.512,-55.176,-432.129
1571286341.132,-43.457,-671.875,999.512,-26.855,-477.051
1571286341.136,67.871,-891.602,-998.535,-46.875,-442.871
1571286341.139,105.957,-795.410,980.469,-53.711,-401.855
1571286341.143,-35.645,-760.254,-958.008,-51.758,-441.406
1571286341.147,-87.891,-941.406,842.773,-80.566,-527.832
1571286341.151,29.785,-1000.000,585.449,-42.480,-500.000
1571286341.155,88.379,-876.465,875.977,-4.395,-376.953
1571286341.159,-8.301,-759.277,-942.871,-19.531,-379.883
1571286341.163,-82.031,-911.621,790.527,-56.152,-484.375
1571286341.167,7.812,-983.887,538.086,-56.152,-493.164
1571286341.171,122.070,-962.891,637.695,-24.414,-384.766
1571286341.175,53.711,-970.703,580.566,-38.086,-380.859
1571286341.179,-71.289,-970.215,248.535,-59.082,-451.660
1571286341.182,-51.758,-970.215,-49.316,-51.758,-448.242
1571286341.186,58.105,-970.215,-141.602,0.488,-362.305
1571286341.190,55.176,-969.727,-381.836,-22.949,-350.098
1571286341.194,-33.203,-970.215,-848.145,-78.613,-441.406
1571286341.198,-20.996,-970.215,-985.352,-80.566,-500.488
1571286341.202,78.125,-970.215,-956.055,-43.457,-434.082
1571286341.206,76.172,-970.215,-971.191,-25.879,-334.473
1571286341.210,-41.016,-970.215,-970.703,-63.477,-426.270
1571286341.214,-86.426,-970.215,-970.215,-80.566,-507.324
1571286341.218,18.066,-970.215,-970.215,-18.066,-429.688
1571286341.221,100.098,-970.215,-970.215,14.648,-333.984
1571286341.225,-2.441,-970.215,-970.215,-57.617,-371.094
1571286341.229,-106.934,-970.215,-970.215,-106.934,-460.938
1571286341.233,-23.438,-970.215,-970.215,-65.918,-437.012
1571286341.237,110.840,-970.215,-970.215,-31.250,-351.562
1571286341.241,66.895,-970.215,-970.215,-26.855,-359.375
1571286341.245,-32.715,-970.215,-970.215,-30.762,-437.988
1571286341.249,10.742,-970.215,-970.215,-53.223,-469.727
1571286341.253,85.449,-970.215,-970.215,-1.465,-412.109
1571286341.257,35.156,-970.215,-970.215,-10.742,-374.512
1571286341.261,-62.500,-970.215,-970.215,-66.895,-414.062
1571286341.264,-72.266,-970.215,-970.215,-91.309,-453.613
1571286341.268,50.781,-970.215,-970.215,-100.586,-400.879
1571286341.272,117.676,-970.215,-970.215,-46.387,-331.543
1571286341.276,-22.461,-970.215,-970.215,-68.848,-387.207
1571286341.280,-111.328,-970.215,-970.215,-132.812,-459.473
1571286341.284,-28.809,-970.215,-970.215,-101.562,-438.965
1571286341.288,63.965,-970.215,-970.215,-40.527,-361.816
1571286341.292,-52.734,-970.215,-970.215,-71.289,-392.578
1571286341.296,-154.297,-970.215,-970.215,-91.797,-490.723
1571286341.300,-25.879,-970.215,-970.215,-78.613,-513.184
1571286341.304,54.199,-970.215,-970.215,-103.027,-436.035
1571286341.307,-55.664,-970.215,-970.215,-106.934,-387.207
1571286341.311,-149.414,-970.215,-970.215,-143.066,-465.332
1571286341.315,-106.445,-970.215,-970.215,-138.184,-520.996
1571286341.319,-6.836,-970.215,-970.215,-92.773,-424.316
1571286341.323,-13.672,-970.215,-969.727,-84.961,-367.188
1571286341.327,-117.188,-970.215,-971.191,-60.547,-441.895
1571286341.331,-138.672,-970.215,-962.891,-90.332,-502.930
1571286341.335,-29.785,-970.215,-989.746,-93.750,-466.309
1571286341.339,40.527,-970.215,-901.855,-70.801,-379.883
1571286341.343,-79.590,-970.215,-854.004,-118.652,-445.801
1571286341.346,-160.645,-970.215,-965.820,-157.227,-572.266
1571286341.350,-34.668,-970.215,-776.855,-94.727,-488.281
1571286341.354,56.152,-970.215,-577.148,-51.758,-388.184
1571286341.358,-43.457,-970.215,-710.938,-111.328,-426.270
1571286341.362,-119.629,-970.215,-924.316,-124.512,-502.441
1571286341.366,-51.758,-970.215,-974.609,-72.754,-516.602
1571286341.370,44.434,-970.215,-944.824,-54.688,-414.062
1571286341.374,18.555,-970.215,-952.148,-103.027,-399.902
1571286341.378,-82.520,-970.215,-974.121,-124.512,-492.676
1571286341.382,-80.078,-970.215,-968.750,-95.703,-523.438
1571286341.386,29.785,-970.215,-970.215,-85.449,-461.426
1571286341.389,41.504,-970.215,-970.215,-75.195,-418.457
1571286341.393,-78.613,-970.215,-970.215,-66.406,-485.840
1571286341.397,-89.844,-970.215,-970.215,-68.848,-519.531
1571286341.401,22.461,-970.215,-970.215,-53.223,-455.078
1571286341.405,51.758,-970.215,-970.215,-45.410,-399.902
1571286341.409,-46.875,-970.215,-970.215,-83.496,-429.688
1571286341.413,-82.031,-970.215,-970.215,-98.633,-506.348
1571286341.417,-6.348,-970.215,-970.215,-65.918,-496.582
1571286341.421,52.734,-970.215,-970.215,-46.875,-402.344
1571286341.425,-1.465,-970.215,-970.215,-72.754,-421.387
1571286341.429,-76.660,-970.215,-970.215,-62.012,-514.160
1571286341.432,-15.625,-970.215,-970.215,-79.590,-540.527
1571286341.436,64.453,-970.215,-970.215,-77.148,-466.309
1571286341.440,16.602,-970.215,-970.215,-74.219,-387.695
1571286341.444,-52.246,-970.215,-970.215,-112.793,-441.895
1571286341.448,-21.973,-970.215,-970.215,-69.824,-487.793
1571286341.452,91.797,-970.215,-970.215,-36.621,-426.270
1571286341.456,125.977,-970.215,-970.215,-40.527,-375.488
1571286341.460,7.324,-970.215,-970.215,-47.363,-437.988
1571286341.464,-90.820,-970.215,-970.215,-66.406,-492.188
1571286341.468,-5.371,-970.215,-970.215,-48.828,-431.641
1571286341.471,101.562,-970.215,-970.215,-37.598,-355.469
1571286341.475,31.250,-970.215,-970.215,-11.230,-399.902
1571286341.479,-38.086,-970.215,-970.215,-0.977,-496.094
1571286341.483,9.766,-970.215,-970.215,5.371,-504.395
1571286341.487,51.758,-970.215,-970.215,-16.602,-413.574
1571286341.491,20.996,-970.215,-970.215,-54.199,-381.836
1571286341.495,-44.922,-970.215,-970.215,-44.922,-466.309
1571286341.499,-70.312,-971.191,-970.215,-72.754,-500.488
1571286341.503,3.906,-964.844,-971.680,-66.895,-386.719
1571286341.507,1.953,-964.844,-952.637,-70.801,-354.004
1571286341.511,-77.637,-930.176,-979.980,-79.102,-437.012
1571286341.514,-119.629,-646.973,-805.176,-86.426,-431.152
1571286341.518,-54.199,52.246,-98.145,-86.426,-365.234
1571286341.522,-51.758,800.781,714.355,-103.027,-319.824
1571286341.526,-145.508,-988.281,-990.234,-206.055,-377.441
1571286341.530,-204.590,980.469,981.445,-204.590,-450.684
1571286341.534,-114.258,-1000.000,997.070,-162.598,-396.973
1571286341.538,-5.859,-1000.000,-999.512,-147.949,-314.941
1571286341.542,-124.023,999.512,999.512,-174.805,-332.031
1571286341.546,-211.426,999.512,999.512,-199.707,-375.977
1571286341.550,-123.535,999.512,999.512,-181.641,-364.258
1571286341.554,-31.250,999.512,999.512,-165.039,-269.043
1571286341.557,-87.402,999.512,999.512,-103.027,-234.863
1571286341.561,-167.480,999.512,999.512,-97.656,-295.898
1571286341.565,-117.188,999.512,999.512,-111.328,-308.594
1571286341.569,-41.504,999.512,999.512,-83.984,-246.094
1571286341.573,-47.363,999.512,999.512,-62.500,-214.355
1571286341.577,-135.742,999.512,999.512,-67.871,-283.691
1571286341.581,-135.742,999.512,999.512,-91.797,-339.844
1571286341.585,-50.781,999.512,999.512,-89.844,-284.180
1571286341.589,-41.504,999.512,999.512,-69.336,-240.234
1571286341.593,-156.250,999.512,999.512,-101.562,-274.414
1571286341.596,-214.844,999.512,999.512,-150.391,-345.703
1571286341.600,-125.000,999.512,999.512,-125.977,-334.961
1571286341.604,-31.738,999.512,999.512,-101.562,-219.727
1571286341.608,-94.238,999.512,999.512,-105.957,-222.656
1571286341.612,-192.383,999.512,999.512,-117.676,-298.828
1571286341.616,-140.625,999.512,999.512,-95.703,-310.547
1571286341.620,-34.180,999.512,999.512,-83.008,-223.633
1571286341.624,-60.547,999.512,999.512,-81.055,-226.074
1571286341.628,-126.465,999.512,999.512,-76.172,-325.195
1571286341.632,-106.934,999.023,999.512,-83.008,-365.234
1571286341.636,-13.184,999.512,999.512,-33.691,-299.316
1571286341.639,-8.789,-1000.000,999.512,41.992,-247.070
1571286341.643,-75.195,998.047,-998.047,24.902,-291.504
1571286341.647,-119.141,990.723,991.211,-73.242,-334.961
1571286341.651,-77.148,979.004,987.793,-83.496,-293.945
1571286341.655,-8.301,895.508,989.746,-60.547,-230.469
1571286341.659,-116.699,261.719,516.602,-52.246,-270.020
1571286341.663,-197.754,-679.688,-334.961,-14.160,-348.633
1571286341.667,-93.750,-990.234,-870.605,4.395,-337.891
1571286341.671,16.602,-947.266,-968.262,-20.996,-276.855
1571286341.675,-74.219,-969.238,-958.496,-2.930,-319.336
1571286341.679,-145.020,-971.191,-971.680,-25.879,-385.742
1571286341.682,-66.406,-970.215,-970.215,-21.973,-383.301
1571286341.686,8.789,-970.215,-970.215,30.762,-346.191
1571286341.690,-46.387,-970.215,-970.215,-18.066,-325.195
1571286341.694,-130.371,-970.215,-970.215,-31.250,-363.770
1571286341.698,-99.121,-970.215,-970.215,-20.996,-408.691
1571286341.702,-21.973,-970.215,-970.215,3.906,-361.816
1571286341.706,-22.461,-970.215,-970.215,62.988,-303.711
1571286341.710,-118.652,-970.215,-970.215,36.621,-354.492
1571286341.714,-120.605,-970.215,-970.215,-28.320,-412.109
1571286341.718,-2.930,-970.215,-970.215,5.859,-381.348
1571286341.721,58.105,-970.215,-970.215,33.203,-319.336
1571286341.725,-45.410,-970.215,-970.215,9.277,-335.938
1571286341.729,-118.652,-970.215,-970.215,29.297,-402.344
1571286341.733,-34.668,-970.215,-970.215,38.086,-399.414
1571286341.737,69.336,-969.727,-970.215,20.996,-308.594
1571286341.741,-3.418,-970.215,-970.215,15.137,-290.039
1571286341.745,-111.328,-970.215,-970.215,-5.859,-370.117
1571286341.749,-67.383,-970.215,-970.215,-23.438,-395.996
1571286341.753,50.781,-970.215,-970.215,-23.926,-317.871
1571286341.757,44.922,-970.215,-970.215,-1.465,-269.531
1571286341.761,-48.828,-970.215,-970.215,-13.672,-321.777
1571286341.764,-50.781,-970.215,-970.215,-60.059,-404.785
1571286341.768,37.598,-970.215,-970.215,-0.977,-343.750
1571286341.772,62.500,-970.215,-970.215,56.152,-260.742
1571286341.776,-51.758,-970.215,-970.215,-12.207,-326.172
1571286341.780,-86.426,-970.215,-970.215,-5.859,-383.789
1571286341.784,45.898,-970.215,-970.215,25.391,-331.055
1571286341.788,91.797,-970.215,-970.215,24.414,-234.375
1571286341.792,-18.555,-970.215,-970.215,11.719,-268.066
1571286341.796,-73.730,-970.215,-970.215,-15.137,-349.609
1571286341.800,11.719,-970.215,-970.215,4.395,-345.215
1571286341.804,115.234,-970.215,-970.215,29.785,-274.902
1571286341.807,62.012,-970.215,-970.215,11.719,-298.828
1571286341.811,-31.250,-970.215,-970.215,-5.859,-403.809
1571286341.815,-30.273,-970.215,-970.215,2.930,-381.348
1571286341.819,63.477,-969.727,-970.215,53.711,-297.852
1571286341.823,78.125,-970.215,-970.215,63.965,-281.738
1571286341.827,-17.090,-970.215,-970.215,41.016,-356.934
1571286341.831,-40.527,-970.215,-970.215,60.547,-384.277
1571286341.835,48.828,-970.215,-970.215,59.570,-305.664
1571286341.839,97.656,-970.215,-970.215,88.379,-273.438
1571286341.843,0.000,-970.215,-970.215,108.887,-333.008
1571286341.846,-29.297,-970.215,-970.215,46.387,-372.070
1571286341.850,88.867,-970.215,-970.215,35.645,-361.816
1571286341.854,122.070,-970.215,-970.215,55.176,-383.301
1571286341.858,-1.465,-969.727,-970.215,51.758,-402.344
1571286341.862,-79.102,-970.215,-970.215,41.992,-412.109
1571286341.866,-18.066,-970.215,-970.215,32.227,-408.691
1571286341.870,68.848,-970.215,-970.215,69.824,-333.008
1571286341.874,9.766,-970.215,-970.215,57.129,-316.406
1571286341.878,-88.379,-970.215,-970.215,10.742,-390.625
1571286341.882,-53.223,-970.215,-970.215,9.766,-431.152
