timestamps,TP9,AF7,AF8,TP10,Right AUX
1573890233.463,113.281,46.875,918.457,132.812,528.809
1573890233.466,14.648,44.922,-438.477,-41.504,-117.676
1573890233.470,-0.488,41.504,-1000.000,-81.055,-417.480
1573890233.474,99.609,53.711,180.664,107.422,240.234
1573890233.478,128.418,41.016,-798.340,172.852,818.359
1573890233.482,33.691,16.113,13.184,-44.434,110.840
1573890233.486,-21.973,15.625,-1000.000,-140.137,-435.547
1573890233.490,72.266,8.789,-85.449,82.031,9.766
1573890233.494,147.461,9.766,-757.324,198.242,898.926
1573890233.498,93.262,14.160,321.777,44.434,427.734
1573890233.502,12.207,10.742,-1000.000,-89.844,-450.195
1573890233.506,60.059,24.902,-264.160,27.832,-236.816
1573890233.509,131.348,27.344,-813.965,199.707,784.668
1573890233.513,99.609,22.461,647.461,116.699,624.023
1573890233.517,14.160,20.508,-926.270,-84.961,-346.680
1573890233.521,38.574,16.113,-558.105,-45.898,-423.340
1573890233.525,143.066,16.113,994.141,167.969,547.852
1573890233.529,129.883,25.391,950.684,152.832,787.109
1573890233.533,21.973,31.250,-503.906,-73.242,-191.895
1573890233.537,-1.953,18.555,-984.375,-100.586,-611.328
1573890233.541,98.633,7.812,439.453,128.906,225.586
1573890233.545,141.602,22.461,-782.227,213.379,935.547
1573890233.548,57.617,25.879,44.922,8.301,77.637
1573890233.552,-2.441,13.184,-1000.000,-99.609,-657.715
1573890233.556,54.688,12.695,-85.449,62.500,-67.383
1573890233.560,117.676,16.602,-756.348,200.684,933.105
1573890233.564,53.223,22.461,288.574,52.734,343.262
1573890233.568,-24.414,26.367,-1000.000,-110.840,-542.480
1573890233.572,29.297,23.438,-355.957,19.043,-322.754
1573890233.576,113.281,22.461,-840.332,195.312,740.723
1573890233.580,97.656,29.297,560.547,110.840,604.004
1573890233.584,1.465,33.691,-987.793,-100.098,-471.680
1573890233.588,-14.648,26.367,-709.961,-62.500,-571.777
1573890233.591,87.891,23.926,817.383,166.504,471.680
1573890233.595,93.262,28.320,966.309,154.297,792.480
1573890233.599,-14.160,25.391,-459.961,-70.312,-237.305
1573890233.603,-24.414,21.484,-1000.000,-101.074,-709.961
1573890233.607,72.266,24.902,110.352,105.957,121.582
1573890233.611,106.934,23.926,-791.016,194.824,925.781
1573890233.615,15.625,16.113,70.312,-7.324,59.570
1573890233.619,-48.828,13.672,-1000.000,-142.578,-711.426
1573890233.623,43.945,26.855,-192.383,33.691,-193.848
1573890233.627,115.723,27.832,-780.273,197.754,890.137
1573890233.631,48.828,27.344,322.754,63.477,436.035
1573890233.634,-32.715,23.926,-1000.000,-117.188,-570.801
1573890233.638,-13.672,20.508,-464.355,-21.484,-429.199
1573890233.642,77.637,25.391,-914.062,166.016,668.945
1573890233.646,65.430,24.414,644.531,105.957,657.715
1573890233.650,-11.719,28.320,-901.855,-106.934,-447.754
1573890233.654,-7.324,29.785,-867.188,-87.402,-686.523
1573890233.658,60.547,21.484,636.230,137.207,358.887
1573890233.662,83.496,23.438,-958.984,164.062,829.102
1573890233.666,-2.441,35.156,-366.211,-60.059,-229.004
1573890233.670,-37.109,28.320,-1000.000,-115.234,-766.113
1573890233.673,55.664,27.832,40.039,100.586,33.691
1573890233.677,111.816,41.992,-790.039,187.988,938.477
1573890233.681,30.273,41.016,85.938,2.930,134.766
1573890233.685,-40.039,31.738,-1000.000,-132.324,-728.516
1573890233.689,21.484,26.367,-223.633,11.719,-218.750
1573890233.693,96.191,30.762,-791.016,188.477,871.582
1573890233.697,47.363,36.621,279.297,69.824,468.262
1573890233.701,-41.504,41.016,-1000.000,-126.465,-598.145
1573890233.705,-2.441,42.480,-513.672,-33.691,-557.129
1573890233.709,111.816,41.504,-990.234,185.547,570.801
1573890233.713,88.379,42.969,752.930,120.117,704.590
1573890233.716,-30.273,34.180,-789.551,-101.074,-385.254
1573890233.720,-25.879,32.227,-936.523,-98.633,-714.844
1573890233.724,77.637,41.504,499.512,108.398,276.855
1573890233.728,101.562,45.898,-858.887,179.199,858.398
1573890233.732,-5.371,44.434,-154.297,-39.062,-117.676
1573890233.736,-59.082,32.715,-1000.000,-144.531,-755.371
1573890233.740,37.598,26.367,-14.160,81.055,-69.824
1573890233.744,110.352,29.297,-765.625,208.984,913.086
1573890233.748,35.645,40.527,192.871,10.254,181.641
1573890233.752,-62.012,51.270,-1000.000,-152.832,-782.227
1573890233.756,13.672,39.062,-306.152,11.230,-397.461
1573890233.759,114.746,29.785,-813.477,206.543,777.832
1573890233.763,58.105,44.434,412.598,90.820,547.363
1573890233.767,-44.922,43.457,-1000.000,-119.629,-536.621
1573890233.771,-17.578,38.574,-709.961,-49.316,-631.836
1573890233.775,92.773,23.438,807.617,172.363,486.816
1573890233.779,100.586,15.625,892.578,141.602,758.789
1573890233.783,-7.324,41.504,-637.695,-76.172,-284.668
1573890233.787,-47.363,42.480,-1000.000,-91.797,-655.762
1573890233.791,42.480,35.156,396.484,114.746,244.141
1573890233.795,109.863,45.898,-823.242,185.059,908.691
1573890233.798,23.438,49.316,-67.383,-7.812,-54.688
1573890233.802,-36.621,38.086,-1000.000,-112.793,-798.828
1573890233.806,38.574,30.762,-113.281,83.984,-165.527
1573890233.810,92.773,38.086,-773.438,218.262,903.320
1573890233.814,29.785,43.945,217.285,41.992,237.793
1573890233.818,-52.246,33.203,-1000.000,-118.652,-744.141
1573890233.822,2.930,26.855,-362.793,0.977,-413.574
1573890233.826,101.562,38.574,-837.891,177.734,728.516
1573890233.830,63.965,38.086,438.965,107.422,575.195
1573890233.834,-16.602,30.273,-1000.000,-98.145,-531.250
1573890233.838,15.625,31.250,-702.637,-60.547,-638.672
1573890233.841,99.609,26.367,817.871,177.246,453.613
1573890233.845,92.773,25.879,907.715,177.734,749.512
1573890233.849,-22.461,22.461,-563.965,-70.801,-280.762
1573890233.853,-38.574,22.949,-1000.000,-124.512,-670.898
1573890233.857,76.660,35.645,218.750,109.863,165.039
1573890233.861,105.469,41.016,-798.340,205.078,899.902
1573890233.865,14.648,40.039,24.414,-13.184,39.062
1573890233.869,-41.504,32.715,-1000.000,-130.859,-699.219
1573890233.873,30.762,25.879,-168.457,60.547,-194.336
1573890233.877,105.469,29.297,-776.855,207.031,868.652
1573890233.881,49.316,40.527,279.297,45.898,350.098
1573890233.884,-37.598,34.180,-1000.000,-120.117,-658.203
1573890233.888,2.930,28.320,-426.758,-0.977,-481.934
1573890233.892,111.328,42.480,-894.043,195.312,665.039
1573890233.896,88.379,55.664,622.559,137.695,619.629
1573890233.900,-21.973,49.316,-893.555,-86.426,-481.445
1573890233.904,-19.531,38.574,-910.156,-62.500,-702.148
1573890233.908,91.309,51.758,550.781,158.691,334.961
1573890233.912,103.027,54.199,-963.379,151.855,830.078
1573890233.916,-19.531,54.688,-370.117,-92.285,-223.145
1573890233.920,-62.988,59.082,-1000.000,-145.508,-795.898
1573890233.923,23.438,61.523,19.043,72.266,25.391
1573890233.927,53.711,71.289,-790.527,152.344,928.711
1573890233.931,-49.805,72.266,88.867,-61.035,100.098
1573890233.935,-120.605,79.102,-1000.000,-217.773,-790.039
1573890233.939,-55.176,88.867,-242.676,-65.430,-293.945
1573890233.943,-6.348,94.238,-796.875,95.703,864.746
1573890233.947,-63.965,104.492,299.316,-39.062,442.871
1573890233.951,-166.504,113.770,-1000.000,-253.418,-594.727
1573890233.955,-160.156,99.121,-595.215,-183.105,-511.230
1573890233.959,-60.059,93.750,964.844,28.320,596.680
1573890233.963,-73.730,104.492,653.320,-34.668,684.570
1573890233.966,-195.312,112.793,-889.648,-277.832,-424.316
1573890233.970,-219.238,111.816,-973.145,-274.414,-724.121
1573890233.974,-114.258,105.469,471.191,-38.086,298.828
1573890233.978,-91.797,119.629,-954.102,-2.441,851.074
1573890233.982,-193.848,117.188,-371.094,-243.164,-157.715
1573890233.986,-227.539,95.703,-1000.000,-324.707,-771.484
1573890233.990,-139.648,105.469,-40.039,-115.723,-57.617
1573890233.994,-76.660,110.352,-795.410,8.301,935.547
1573890233.998,-139.648,106.934,124.512,-157.715,160.645
1573890234.002,-206.543,102.051,-1000.000,-299.316,-775.391
1573890234.006,-146.973,89.844,-281.250,-142.578,-362.793
1573890234.009,-62.012,89.355,-807.617,32.227,789.062
1573890234.013,-92.285,83.496,367.188,-76.660,443.359
1573890234.017,-180.176,75.195,-1000.000,-269.531,-619.629
1573890234.021,-148.926,73.242,-465.332,-176.270,-535.156
1573890234.025,-31.250,65.430,-981.445,52.246,573.730
1573890234.029,-30.273,58.594,913.086,24.414,718.750
1573890234.033,-124.023,43.945,-571.289,-190.430,-362.793
1573890234.037,-109.375,32.227,-958.496,-190.918,-743.652
1573890234.041,5.859,40.039,496.582,46.387,186.035
1573890234.045,42.480,45.410,-802.246,118.164,880.859
1573890234.048,-33.691,38.086,-17.090,-88.379,-93.262
1573890234.052,-54.688,29.297,-1000.000,-171.387,-813.477
1573890234.056,39.551,15.137,-53.711,52.734,-163.574
1573890234.060,102.539,12.207,-754.395,206.055,916.504
1573890234.064,53.223,24.414,299.316,40.039,275.391
1573890234.068,-31.738,20.508,-1000.000,-133.789,-739.746
1573890234.072,30.273,11.230,-305.664,13.672,-439.453
1573890234.076,144.043,9.766,-835.938,227.539,733.887
1573890234.080,98.633,11.230,666.016,140.137,593.750
1573890234.084,20.996,2.441,-917.480,-66.895,-510.254
1573890234.088,51.758,-6.348,-548.340,-11.230,-630.371
1573890234.091,148.926,0.000,969.727,212.402,469.238
1573890234.095,159.668,9.277,-970.215,213.379,761.719
1573890234.099,65.918,12.207,-357.910,3.418,-306.152
1573890234.103,57.129,16.113,-991.699,-26.855,-756.836
1573890234.107,162.109,19.043,415.527,194.824,141.113
1573890234.111,198.730,15.625,-760.742,268.555,914.062
1573890234.115,103.516,9.277,104.004,62.500,16.602
1573890234.119,34.180,3.418,-1000.000,-53.223,-749.512
1573890234.123,117.676,0.977,-83.496,137.207,-200.684
1573890234.127,209.961,5.859,-748.535,286.133,905.762
1573890234.131,150.391,6.348,304.688,126.953,352.051
1573890234.134,57.617,-2.930,-1000.000,-64.941,-728.027
1573890234.138,93.750,-3.906,-304.688,61.523,-524.414
1573890234.142,187.012,-0.977,-829.102,283.203,687.500
1573890234.146,156.250,-13.672,631.836,189.453,615.234
1573890234.150,66.406,-13.184,-938.477,-42.480,-535.645
1573890234.154,78.613,4.883,-613.770,4.883,-726.074
1573890234.158,173.828,1.465,889.648,237.793,376.953
1573890234.162,191.895,4.883,-913.086,256.348,802.734
1573890234.166,96.191,13.184,-249.512,24.902,-309.082
1573890234.170,46.387,8.301,-1000.000,-28.320,-826.172
1573890234.173,141.602,7.812,300.781,183.105,45.898
1573890234.177,195.801,12.207,-746.582,267.090,948.730
1573890234.181,107.422,14.648,169.922,76.172,76.172
1573890234.185,51.758,10.254,-1000.000,-61.523,-808.594
1573890234.189,114.258,10.742,-154.785,95.703,-291.992
1573890234.193,205.078,15.625,-770.996,267.578,846.680
1573890234.197,150.391,14.648,488.770,143.555,441.895
1573890234.201,44.922,5.859,-1000.000,-54.688,-644.531
1573890234.205,84.473,-0.977,-367.676,46.875,-579.102
1573890234.209,175.293,14.648,-899.902,247.070,614.746
1573890234.213,150.391,31.250,911.621,194.824,692.871
1573890234.216,48.340,27.344,-598.633,-22.949,-474.609
1573890234.220,43.945,15.625,-750.977,-20.020,-748.535
1573890234.224,149.902,14.648,775.391,204.590,320.801
1573890234.228,168.945,21.973,-825.684,223.633,865.234
1573890234.232,69.336,16.602,-80.566,-1.953,-185.547
1573890234.236,29.785,3.906,-1000.000,-64.941,-810.059
1573890234.240,111.816,-0.977,206.543,138.672,-29.297
1573890234.244,150.391,1.953,-734.375,251.953,950.684
1573890234.248,78.613,7.324,263.672,63.965,190.918
1573890234.252,9.277,15.137,-1000.000,-94.727,-782.715
1573890234.256,68.359,16.113,-186.523,64.941,-389.160
1573890234.259,152.344,17.578,-774.902,241.699,816.406
1573890234.263,104.492,24.902,536.133,110.352,493.652
1573890234.267,15.625,22.949,-1000.000,-90.332,-612.305
1573890234.271,30.273,6.836,-416.992,-15.625,-583.984
1573890234.275,129.395,8.301,-903.320,213.867,555.176
1573890234.279,125.488,24.902,875.000,168.945,729.980
1573890234.283,16.113,20.020,-620.117,-83.984,-402.832
1573890234.287,-9.277,0.977,-898.438,-69.824,-847.656
1573890234.291,102.051,14.160,608.887,164.062,196.289
1573890234.295,148.438,32.715,-851.562,199.707,870.605
1573890234.298,41.016,34.668,-120.605,-21.973,-129.883
1573890234.302,-13.672,32.715,-1000.000,-112.793,-807.617
1573890234.306,69.336,29.297,7.324,99.609,-134.766
1573890234.310,136.719,25.879,-755.859,219.238,920.410
1573890234.314,66.895,22.461,196.777,35.645,198.242
1573890234.318,-10.254,21.973,-1000.000,-122.070,-774.902
1573890234.322,44.922,17.578,-238.770,34.180,-412.109
1573890234.326,125.000,14.160,-800.293,208.008,781.738
1573890234.330,100.098,20.508,527.832,107.910,549.316
1573890234.334,0.488,23.438,-1000.000,-93.262,-575.684
1573890234.338,19.531,21.973,-550.293,-39.062,-621.582
1573890234.341,112.305,28.320,968.262,191.895,494.629
1573890234.345,82.520,28.320,971.680,163.574,764.648
1573890234.349,0.977,25.879,-454.590,-73.730,-361.816
1573890234.353,-15.625,17.578,-1000.000,-94.238,-812.988
1573890234.357,81.543,16.602,330.078,147.461,128.418
1573890234.361,124.512,21.973,-781.250,209.961,918.945
1573890234.365,20.020,21.484,72.754,-24.414,-17.578
1573890234.369,-37.598,18.066,-1000.000,-134.277,-783.691
1573890234.373,43.945,7.812,-149.902,73.242,-180.176
1573890234.377,121.582,14.160,-767.090,215.820,908.203
1573890234.381,56.152,29.785,295.410,56.152,309.570
1573890234.384,-33.203,24.902,-1000.000,-115.234,-728.516
1573890234.388,36.621,20.020,-392.090,-0.488,-479.004
1573890234.392,120.117,32.227,-869.629,190.918,682.617
1573890234.396,87.891,40.527,627.441,107.910,635.742
1573890234.400,-12.207,32.227,-935.547,-106.445,-519.043
1573890234.404,-12.695,18.555,-740.234,-65.430,-720.703
1573890234.408,109.863,19.043,802.246,150.391,423.828
1573890234.412,111.816,22.461,-999.512,152.832,810.547
1573890234.416,-1.953,14.648,-426.270,-68.848,-275.391
1573890234.420,-15.137,18.066,-1000.000,-122.559,-775.391
1573890234.423,82.520,27.344,147.949,108.887,93.262
1573890234.427,127.930,27.832,-791.016,209.961,943.848
1573890234.431,43.457,24.902,52.246,7.324,43.945
1573890234.435,-33.691,22.949,-1000.000,-131.348,-774.902
1573890234.439,33.691,14.648,-185.547,40.527,-231.445
1573890234.443,125.000,12.695,-781.738,204.102,879.395
1573890234.447,84.473,36.133,261.230,71.289,436.035
1573890234.451,-14.648,31.738,-1000.000,-123.535,-685.547
1573890234.455,7.324,18.555,-447.266,-27.832,-580.078
1573890234.459,96.191,20.996,-914.062,184.570,639.160
1573890234.463,77.148,25.879,631.348,110.840,667.480
1573890234.466,-31.250,29.297,-907.715,-116.211,-485.840
1573890234.470,-26.855,21.973,-880.859,-103.027,-700.195
1573890234.474,74.707,26.855,593.750,136.230,368.164
1573890234.478,92.773,38.574,-921.387,175.293,860.352
1573890234.482,-15.137,39.551,-296.387,-65.430,-174.316
1573890234.486,-49.316,34.180,-1000.000,-133.789,-798.828
1573890234.490,65.918,25.879,11.719,92.773,-18.555
1573890234.494,109.375,30.273,-773.926,201.660,965.332
1573890234.498,17.090,33.203,160.645,6.836,144.531
1573890234.502,-47.363,27.832,-1000.000,-142.090,-793.945
1573890234.506,26.367,25.879,-277.832,20.508,-328.613
1573890234.509,113.281,29.785,-804.199,210.938,819.824
1573890234.513,57.617,36.133,370.605,71.777,488.281
1573890234.517,-44.434,36.133,-1000.000,-147.461,-631.348
1573890234.521,-2.441,29.297,-614.258,-45.898,-604.980
1573890234.525,104.492,28.809,920.410,166.504,571.289
1573890234.529,67.871,29.785,826.660,122.559,696.289
1573890234.533,-23.438,28.320,-731.445,-102.051,-419.434
1573890234.537,-3.418,30.762,-940.918,-103.027,-733.887
1573890234.541,85.449,24.902,512.695,139.648,261.230
1573890234.545,104.980,30.273,-830.078,168.457,904.297
1573890234.548,20.996,43.945,-93.750,-42.480,-111.328
1573890234.552,-28.320,41.016,-1000.000,-121.582,-826.660
1573890234.556,46.875,39.551,-20.996,55.176,-120.117
1573890234.560,117.676,38.086,-757.324,187.988,933.105
1573890234.564,45.898,39.551,212.402,45.898,247.559
1573890234.568,-37.109,33.691,-1000.000,-132.324,-793.457
1573890234.572,-0.977,32.715,-273.438,3.906,-437.012
1573890234.576,86.426,32.715,-800.293,206.055,795.410
1573890234.580,64.941,25.391,474.609,102.539,544.434
1573890234.584,-41.504,22.949,-1000.000,-128.906,-622.559
1573890234.588,-16.602,20.020,-503.906,-55.664,-653.809
1573890234.591,75.684,30.273,-987.305,183.594,516.113
1573890234.595,72.266,42.480,906.738,141.602,753.418
1573890234.599,-20.020,37.109,-540.527,-102.539,-374.023
1573890234.603,-44.922,21.973,-1000.000,-116.699,-824.707
1573890234.607,58.594,11.719,389.648,129.395,123.535
1573890234.611,95.703,25.391,-791.504,190.430,916.016
1573890234.615,-2.930,27.344,19.531,-38.086,-28.320
1573890234.619,-55.664,18.555,-1000.000,-144.531,-853.516
1573890234.623,17.578,22.461,-119.629,47.852,-234.375
1573890234.627,104.492,25.391,-763.672,192.383,939.941
1573890234.631,56.641,29.785,265.137,46.875,313.965
1573890234.634,-36.133,27.832,-1000.000,-137.695,-730.957
1573890234.638,2.930,17.090,-338.379,-10.254,-448.242
1573890234.642,104.492,14.648,-837.891,204.102,720.215
1573890234.646,78.613,27.344,559.570,122.559,592.773
1573890234.650,-25.391,28.320,-964.355,-116.699,-534.668
1573890234.654,-15.625,27.832,-784.180,-86.914,-687.988
1573890234.658,97.168,31.250,729.004,159.668,410.156
1573890234.662,99.609,33.203,-997.559,170.410,777.832
1573890234.666,-10.742,21.484,-442.871,-61.035,-288.086
1573890234.670,-29.785,12.695,-1000.000,-117.188,-760.742
1573890234.673,54.199,12.207,160.156,94.238,106.445
1573890234.677,99.121,12.695,-787.598,188.477,932.617
1573890234.681,14.160,14.648,53.223,-27.344,58.105
1573890234.685,-59.570,21.484,-1000.000,-160.645,-797.852
1573890234.689,22.949,20.508,-184.082,29.297,-305.176
1573890234.693,100.586,9.766,-777.344,196.289,878.418
1573890234.697,41.992,9.277,300.781,40.039,361.816
1573890234.701,-44.922,15.137,-1000.000,-139.648,-749.023
1573890234.705,-2.930,26.367,-421.875,-23.438,-570.312
1573890234.709,103.516,29.297,-882.324,190.430,648.438
1573890234.713,80.566,26.367,594.238,136.230,647.949
1573890234.716,-21.973,24.414,-947.754,-112.793,-479.980
1573890234.720,-26.367,21.973,-827.148,-93.750,-685.059
1573890234.724,82.031,28.320,671.875,155.273,373.535
1573890234.728,109.375,26.367,-965.332,181.641,826.660
1573890234.732,6.836,21.973,-377.930,-56.152,-226.074
1573890234.736,-35.645,14.648,-1000.000,-130.859,-813.477
1573890234.740,68.359,12.695,44.922,79.590,-14.648
1573890234.744,141.113,20.508,-783.691,213.379,949.219
1573890234.748,61.035,20.508,114.746,19.531,131.836
1573890234.752,-22.461,20.508,-1000.000,-140.625,-765.625
1573890234.756,39.062,20.020,-243.652,32.715,-340.820
1573890234.759,125.488,16.113,-792.969,212.402,828.613
1573890234.763,73.242,13.672,365.723,85.938,465.332
1573890234.767,-31.738,4.395,-1000.000,-134.277,-656.738
1573890234.771,-7.324,1.953,-510.742,-44.434,-570.801
1573890234.775,98.633,7.324,-964.355,182.617,597.656
1573890234.779,92.773,9.277,740.723,126.465,691.406
1573890234.783,-10.742,13.184,-798.828,-95.215,-473.633
1573890234.787,-21.484,16.602,-913.086,-83.496,-759.277
1573890234.791,83.008,17.090,534.180,149.414,294.434
1573890234.795,104.980,18.555,-854.980,196.777,878.906
1573890234.798,5.371,17.578,-144.043,-41.992,-114.746
1573890234.802,-19.043,9.277,-1000.000,-139.648,-802.246
1573890234.806,57.129,-2.441,-56.152,69.336,-109.375
1573890234.810,97.656,5.371,-770.020,190.918,943.848
1573890234.814,38.574,10.742,192.383,20.508,185.547
1573890234.818,-28.320,9.277,-1000.000,-138.672,-782.715
1573890234.822,18.555,9.277,-298.828,0.977,-381.348
1573890234.826,111.328,5.859,-813.477,192.383,804.688
1573890234.830,70.801,9.766,455.566,83.496,518.066
1573890234.834,-31.738,17.090,-1000.000,-136.230,-642.090
1573890234.838,-4.395,18.555,-568.848,-70.801,-644.043
1573890234.841,90.332,19.531,962.891,169.434,514.648
1573890234.845,85.449,21.973,901.367,144.043,733.887
1573890234.849,-8.789,15.625,-595.703,-97.656,-369.629
1573890234.853,-26.367,8.789,-992.188,-123.047,-799.805
1573890234.857,60.547,11.230,416.016,124.512,156.250
1573890234.861,114.258,11.230,-793.457,209.961,917.480
1573890234.865,23.926,8.301,16.113,-18.555,-54.688
1573890234.869,0.000,9.277,-1000.000,-140.625,-819.824
1573890234.873,0.000,20.020,-88.867,45.410,-185.547
1573890234.877,0.000,29.785,-754.395,209.473,939.941
1573890234.881,0.000,31.738,265.137,60.547,282.227
1573890234.884,0.000,24.414,-1000.000,-121.582,-771.973
1573890234.888,0.000,12.695,-283.203,2.930,-490.723
1573890234.892,0.000,15.625,-820.312,207.520,723.633
1573890234.896,0.000,22.461,585.449,128.906,602.051
1573890234.900,0.000,19.531,-974.121,-103.027,-581.543
1573890234.904,0.000,17.090,-587.402,-63.477,-705.078
1573890234.908,0.000,19.531,913.574,173.340,436.523
1573890234.912,0.000,22.949,-932.129,183.105,784.668
1573890234.916,0.000,21.973,-309.082,-61.035,-284.180
1573890234.920,0.000,22.949,-1000.000,-110.352,-786.621
1573890234.923,0.000,18.066,355.469,128.418,82.520
1573890234.927,0.000,17.578,-765.137,218.750,925.293
1573890234.931,0.000,24.902,96.191,6.836,26.855
1573890234.935,0.000,20.020,-1000.000,-116.699,-820.801
1573890234.939,0.000,10.742,-144.043,60.547,-282.227
1573890234.943,0.000,13.672,-762.695,231.445,900.391
1573890234.947,0.000,20.508,338.867,72.266,378.906
1573890234.951,0.000,16.602,-1000.000,-125.000,-701.660
1573890234.955,0.000,5.859,-381.836,0.000,-513.184
1573890234.959,0.000,1.953,-868.652,195.801,651.855
1573890234.963,83.496,-3.906,671.387,120.605,628.418
1573890234.966,-20.020,-7.812,-868.164,-110.840,-524.902
1573890234.970,-13.184,1.465,-832.520,-83.496,-752.441
1573890234.974,80.566,-1.465,686.035,162.109,345.703
1573890234.978,98.145,0.488,-929.199,185.547,826.172
1573890234.982,4.395,3.418,-303.223,-66.406,-204.590
1573890234.986,-34.668,-9.766,-1000.000,-142.578,-784.668
1573890234.990,41.992,-7.324,43.457,84.473,11.230
1573890234.994,95.215,0.977,-781.250,191.406,946.777
1573890234.998,10.742,-2.930,110.352,-5.371,81.055
1573890235.002,-61.035,-3.906,-1000.000,-158.691,-804.199
1573890235.006,23.438,-12.695,-246.094,11.230,-322.754
1573890235.009,106.445,-25.391,-794.922,204.590,855.469
1573890235.013,36.621,-4.883,312.988,69.824,441.406
1573890235.017,-47.852,0.000,-1000.000,-143.066,-693.848
1573890235.021,-2.441,-12.207,-540.039,-41.504,-632.324
1573890235.025,93.262,-6.836,-973.145,179.199,576.172
1573890235.029,84.961,1.953,631.348,139.160,692.871
1573890235.033,-17.090,0.488,-899.902,-84.473,-421.875
1573890235.037,-23.438,-6.348,-962.402,-100.098,-736.816
1573890235.041,67.871,-3.418,458.984,134.277,262.695
1573890235.045,95.703,-3.906,-928.223,194.824,877.441
1573890235.048,-5.371,-11.719,-302.734,-31.250,-126.953
1573890235.052,-48.828,-13.672,-1000.000,-132.324,-867.188
1573890235.056,56.641,-9.277,-59.570,81.543,-134.277
1573890235.060,113.770,-2.441,-783.203,228.027,946.289
1573890235.064,51.270,-12.695,169.922,47.363,192.383
1573890235.068,-37.109,-13.672,-1000.000,-139.160,-782.715
1573890235.072,27.832,-6.348,-298.340,9.277,-427.246
1573890235.076,121.582,-5.371,-811.523,217.773,775.879
1573890235.080,66.895,-9.277,368.164,104.980,483.398
1573890235.084,-25.391,-14.160,-1000.000,-102.539,-631.836
1573890235.088,-0.977,-2.441,-603.516,-40.527,-598.633
1573890235.091,101.074,7.812,943.359,179.199,546.387
1573890235.095,100.098,12.695,800.293,178.711,735.352
1573890235.099,11.230,9.766,-707.031,-59.082,-425.781
1573890235.103,-8.301,-2.930,-1000.000,-96.191,-802.734
1573890235.107,73.242,-17.578,291.016,138.184,206.543
1573890235.111,102.051,-16.602,-835.449,205.566,915.039
1573890235.115,15.137,-7.812,-85.938,-10.742,-71.777
1573890235.119,-28.809,-11.230,-1000.000,-124.512,-838.867
1573890235.123,53.711,-8.301,-125.977,81.543,-144.531
1573890235.127,119.629,-2.441,-775.391,225.586,972.656
1573890235.131,55.176,-4.395,230.957,54.199,301.270
1573890235.134,-30.273,-5.371,-1000.000,-122.559,-727.051
1573890235.138,23.926,-0.488,-343.262,22.949,-452.148
1573890235.142,118.164,4.883,-831.055,215.332,743.164
1573890235.146,77.637,-2.441,462.891,104.492,588.379
1573890235.150,-22.949,-3.418,-1000.000,-114.258,-620.117
1573890235.154,-4.883,-4.883,-741.699,-56.641,-727.051
1573890235.158,101.562,0.000,799.805,178.223,453.613
1573890235.162,97.656,-7.324,895.020,175.293,789.551
1573890235.166,-7.812,-8.789,-600.098,-59.082,-295.898
1573890235.170,-27.344,-0.488,-1000.000,-98.633,-812.012
1573890235.173,74.707,-0.488,194.336,139.648,98.145
1573890235.177,123.535,-6.348,-818.359,214.844,919.922
1573890235.181,37.598,-5.371,-21.973,-5.371,-19.043
1573890235.185,-25.879,-11.230,-1000.000,-118.652,-821.777
1573890235.189,43.457,-28.809,-171.875,71.289,-255.859
1573890235.193,120.117,-15.137,-783.691,222.168,902.832
1573890235.197,62.988,-3.906,241.699,70.801,339.355
1573890235.201,-25.879,-11.230,-1000.000,-122.070,-741.211
1573890235.205,20.020,-13.184,-424.316,-0.488,-524.902
1573890235.209,114.746,-12.207,-873.535,210.449,666.992
1573890235.213,87.891,-22.949,467.285,129.883,630.371
1573890235.216,-16.602,-24.414,-1000.000,-102.539,-556.641
1573890235.220,-16.113,-17.090,-840.332,-73.730,-759.277
1573890235.224,97.168,-22.461,639.648,171.875,373.047
1573890235.228,112.305,-20.508,982.422,187.500,826.172
1573890235.232,1.953,-20.996,-458.984,-54.688,-249.512
1573890235.236,-30.762,-13.672,-1000.000,-108.398,-796.875
1573890235.240,67.383,-2.441,8.789,122.070,27.344
1573890235.244,122.559,-0.488,-812.988,221.191,934.570
1573890235.248,39.062,-1.953,45.410,6.836,74.707
1573890235.252,-34.668,-9.277,-1000.000,-137.207,-842.773
1573890235.256,31.738,-15.625,-293.457,35.645,-349.121
1573890235.259,115.723,-3.906,-824.219,208.984,855.469
1573890235.263,54.199,-3.906,269.531,70.312,398.438
1573890235.267,-47.363,-22.949,-1000.000,-141.113,-741.699
1573890235.271,-6.836,-33.691,-737.305,-41.016,-605.957
1573890235.275,92.285,-20.020,815.430,177.734,592.285
1573890235.279,71.777,-9.766,559.570,123.047,675.781
1573890235.283,-30.273,-10.254,-960.449,-109.863,-483.887
1573890235.287,-28.809,-10.254,-1000.000,-102.539,-800.781
1573890235.291,75.684,-20.996,335.449,136.230,276.855
1573890235.295,97.168,-27.832,970.703,179.688,847.168
1573890235.298,0.977,-22.949,-469.727,-45.410,-149.902
1573890235.302,-51.758,-10.254,-1000.000,-129.883,-786.133
1573890235.306,30.273,-27.344,-100.586,85.938,-99.609
1573890235.310,111.328,-38.574,-811.035,221.680,952.148
1573890235.314,26.855,-13.184,118.652,21.973,194.824
1573890235.318,-67.383,-8.789,-1000.000,-159.668,-768.555
1573890235.322,10.254,-17.090,-341.309,-0.488,-341.797
1573890235.326,95.703,-16.113,-837.891,186.523,816.406
1573890235.330,41.504,-17.578,327.637,74.219,518.066
1573890235.334,-47.363,-18.066,-1000.000,-135.742,-616.699
1573890235.338,-14.648,-27.344,-649.414,-64.453,-622.559
1573890235.341,93.262,-30.762,918.945,169.434,559.570
1573890235.345,87.402,-19.531,652.832,146.484,736.328
1573890235.349,-15.625,-4.395,-880.859,-88.867,-420.898
1573890235.353,-25.391,-3.418,-1000.000,-104.004,-833.496
1573890235.357,80.078,-11.230,333.496,139.648,217.773
1573890235.361,117.188,-7.324,-877.930,202.637,877.930
1573890235.365,27.344,-4.883,-202.637,-25.879,-103.516
1573890235.369,-26.367,-12.207,-1000.000,-138.672,-803.223
1573890235.373,59.082,-21.973,-105.957,65.918,-155.762
1573890235.377,123.047,-12.695,-780.273,213.867,937.012
1573890235.381,52.246,-4.395,210.938,46.875,262.695
1573890235.384,-18.066,-8.789,-1000.000,-121.582,-714.355
1573890235.388,34.180,-18.066,-317.383,17.578,-408.691
1573890235.392,123.535,-27.832,-821.777,220.215,754.883
1573890235.396,89.355,-30.273,459.961,121.582,546.875
1573890235.400,-21.973,-19.043,-1000.000,-100.586,-612.793
1573890235.404,-5.371,-1.953,-659.668,-41.504,-671.387
1573890235.408,102.051,-12.695,848.145,177.734,461.914
1573890235.412,100.098,-7.812,966.309,159.668,787.598
1573890235.416,1.465,-1.953,-462.891,-73.242,-258.789
1573890235.420,-10.742,-23.926,-1000.000,-104.492,-778.809
1573890235.423,83.984,-25.879,191.406,122.070,99.121
1573890235.427,116.211,-18.555,-785.645,194.824,942.383
1573890235.431,28.809,-16.602,46.387,-15.625,-0.977
1573890235.435,-25.391,-18.066,-1000.000,-131.836,-862.793
1573890235.439,52.734,-23.438,-131.348,59.570,-235.352
1573890235.443,125.000,-10.254,-763.672,211.426,932.617
1573890235.447,59.570,-0.488,290.527,49.805,329.590
1573890235.451,-29.297,-8.789,-1000.000,-142.578,-714.844
1573890235.455,18.555,-20.996,-345.703,-24.414,-439.453
1573890235.459,111.328,-22.461,-846.680,191.895,716.309
1573890235.463,73.242,-18.555,613.770,122.559,616.699
1573890235.466,-33.203,-18.555,-946.289,-111.328,-556.641
1573890235.470,-20.020,-19.531,-709.961,-87.891,-730.957
1573890235.474,89.844,-25.879,816.895,144.531,407.715
1573890235.478,105.469,-23.926,-943.848,155.273,804.688
1573890235.482,3.906,-10.254,-353.027,-77.148,-277.832
1573890235.486,-20.996,-20.508,-1000.000,-127.930,-787.109
1573890235.490,73.730,-25.391,233.887,100.586,64.453
1573890235.494,122.070,-7.324,-775.879,190.430,938.477
1573890235.498,39.062,-8.789,75.195,-14.160,58.594
1573890235.502,-30.273,-26.855,-1000.000,-145.020,-811.523
1573890235.506,38.574,-33.691,-170.898,33.203,-295.410
1573890235.509,116.699,-22.949,-770.996,205.078,868.164
1573890235.513,61.523,-11.719,321.289,62.012,405.273
1573890235.517,-34.668,-15.137,-1000.000,-136.230,-675.293
1573890235.521,4.395,-27.832,-386.719,-25.391,-546.875
1573890235.525,107.422,-22.461,-900.879,188.965,615.723
1573890235.529,86.914,-10.742,787.598,128.418,695.801
1573890235.533,-19.531,-13.672,-758.301,-96.191,-437.012
1573890235.537,-16.602,-18.066,-787.598,-83.496,-745.605
1573890235.541,92.773,-26.855,721.680,149.902,328.125
1573890235.545,112.305,-31.738,-858.398,175.293,856.445
1573890235.548,10.742,-20.020,-156.250,-63.965,-205.566
1573890235.552,-32.227,-26.367,-1000.000,-134.766,-800.293
1573890235.556,58.594,-33.203,136.719,85.938,-1.953
1573890235.560,120.117,-24.902,-745.117,199.219,944.336
1573890235.564,41.504,-26.367,218.262,17.578,169.922
1573890235.568,-26.367,-29.297,-1000.000,-125.977,-763.184
1573890235.572,46.875,-24.414,-205.078,40.039,-355.957
1573890235.576,128.906,-24.902,-793.945,219.727,831.055
1573890235.580,80.566,-26.855,579.590,95.215,492.188
1573890235.584,-14.648,-26.855,-990.234,-108.398,-650.879
1573890235.588,11.719,-34.668,-431.152,-31.250,-608.398
1573890235.591,110.352,-44.434,-945.801,187.012,580.078
1573890235.595,98.633,-35.645,991.699,152.344,707.031
1573890235.599,-3.906,-29.785,-461.914,-80.566,-423.340
1573890235.603,-3.906,-28.320,-818.848,-84.961,-750.977
1573890235.607,98.145,-22.949,679.688,151.367,259.766
1573890235.611,116.699,-26.855,-778.809,203.125,906.250
1573890235.615,25.879,-26.367,48.340,-25.879,-120.605
1573890235.619,-17.090,-24.902,-1000.000,-122.070,-817.871
1573890235.623,69.824,-22.461,115.723,87.402,-90.820
1573890235.627,132.324,-17.090,-733.887,222.656,936.523
1573890235.631,63.477,-14.160,270.996,45.898,234.375
1573890235.634,-11.719,-7.812,-1000.000,-129.883,-753.418
1573890235.638,30.273,-6.348,-226.074,8.789,-416.016
1573890235.642,113.281,-7.324,-786.133,203.125,774.414
1573890235.646,83.984,-3.906,538.574,100.586,539.062
1573890235.650,-8.789,-1.953,-1000.000,-120.117,-593.262
1573890235.654,7.812,-5.859,-475.098,-58.105,-628.906
1573890235.658,108.398,-6.836,-968.750,183.594,497.559
1573890235.662,103.027,-5.859,961.914,159.180,770.508
1573890235.666,-4.883,-12.695,-477.539,-90.332,-321.289
1573890235.670,-22.461,-6.836,-946.777,-112.305,-786.621
1573890235.673,82.520,0.488,504.395,123.047,178.223
1573890235.677,125.977,1.953,-774.414,197.754,923.340
1573890235.681,31.250,12.207,67.383,-19.531,-61.523
1573890235.685,-30.273,13.672,-1000.000,-136.719,-814.453
1573890235.689,47.363,3.906,-59.082,53.711,-169.922
1573890235.693,119.629,1.953,-749.023,205.078,942.383
1573890235.697,56.152,10.742,321.777,49.316,320.801
1573890235.701,-26.855,8.789,-1000.000,-131.348,-734.863
1573890235.705,27.344,-1.953,-304.199,-1.953,-459.961
1573890235.709,125.000,-0.488,-835.938,204.590,713.379
1573890235.713,94.727,5.859,668.945,124.512,601.074
1573890235.716,-4.883,6.348,-872.559,-98.145,-489.746
1573890235.720,7.324,13.672,-728.027,-65.918,-631.348
1573890235.724,107.910,16.113,794.922,165.527,433.105
1573890235.728,111.328,19.531,-922.363,173.340,797.363
1573890235.732,9.277,26.855,-278.809,-62.988,-291.016
1573890235.736,-20.996,30.762,-1000.000,-121.094,-802.734
1573890235.740,65.430,28.320,149.902,96.191,71.777
1573890235.744,107.910,39.062,-764.648,191.406,957.031
1573890235.748,26.367,50.293,107.422,-9.766,23.438
1573890235.752,-33.691,45.410,-1000.000,-139.648,-826.660
1573890235.756,39.551,39.062,-154.785,40.039,-237.305
1573890235.759,121.582,47.363,-765.137,208.496,891.113
1573890235.763,67.383,43.457,337.891,68.848,409.180
1573890235.767,-25.879,30.762,-1000.000,-127.441,-682.617
1573890235.771,18.066,41.016,-395.020,-20.508,-565.430
1573890235.775,117.188,50.781,-871.094,193.848,645.020
1573890235.779,96.680,41.992,660.645,129.395,662.598
1573890235.783,-5.371,36.621,-876.953,-104.980,-489.258
1573890235.787,-2.930,37.109,-841.309,-86.426,-724.121
1573890235.791,97.656,38.086,687.012,155.762,355.469
1573890235.795,118.652,41.992,-979.004,185.547,835.449
1573890235.798,26.855,42.480,-401.367,-48.340,-235.352
1573890235.802,-10.742,40.039,-1000.000,-117.676,-800.293
1573890235.806,83.984,26.855,49.316,105.957,17.090
1573890235.810,149.414,21.484,-777.344,218.750,933.105
1573890235.814,72.754,27.344,138.184,24.902,89.355
1573890235.818,-11.230,23.926,-1000.000,-135.742,-788.574
1573890235.822,50.293,21.973,-240.234,22.949,-308.105
1573890235.826,144.043,20.996,-791.016,212.402,846.191
1573890235.830,107.422,17.090,328.613,96.680,436.523
1573890235.834,14.648,12.695,-1000.000,-106.445,-654.297
1573890235.838,49.316,5.859,-561.035,-11.719,-574.707
1573890235.841,161.621,5.371,996.094,228.516,587.891
1573890235.845,157.227,9.277,709.473,191.406,688.477
1573890235.849,55.176,2.441,-806.152,-44.434,-471.191
1573890235.853,51.270,5.371,-1000.000,-42.969,-768.066
1573890235.857,166.992,15.625,343.262,198.242,251.953
1573890235.861,200.684,22.461,-875.977,247.559,878.906
1573890235.865,97.168,26.367,-171.875,23.926,-128.906
1573890235.869,55.664,22.461,-1000.000,-57.617,-822.754
1573890235.873,148.926,15.625,-123.047,146.484,-107.910
1573890235.877,199.219,10.254,-792.480,263.184,941.895
1573890235.881,120.117,13.184,162.598,85.449,219.727
1573890235.884,44.434,11.719,-1000.000,-78.613,-749.512
1573890235.888,95.703,2.930,-409.180,63.477,-419.434
1573890235.892,179.199,3.906,-872.070,253.418,775.391
1573890235.896,131.348,12.695,398.926,144.043,528.320
1573890235.900,32.227,5.371,-1000.000,-76.660,-665.527
1573890235.904,54.199,-4.395,-725.586,-14.648,-681.152
1573890235.908,150.391,1.953,831.543,217.285,515.137
1573890235.912,145.996,8.789,770.020,190.918,753.418
1573890235.916,36.133,13.184,-738.281,-56.641,-416.992
1573890235.920,14.160,9.277,-1000.000,-84.473,-828.125
1573890235.923,112.793,4.395,154.297,154.297,172.852
1573890235.927,152.344,7.812,-874.023,223.145,926.270
1573890235.931,59.570,9.277,-171.875,1.465,-94.727
1573890235.935,-0.488,6.348,-1000.000,-110.352,-899.414
1573890235.939,80.078,4.395,-148.926,79.102,-171.387
1573890235.943,150.879,4.395,-800.781,224.609,931.641
1573890235.947,88.867,16.602,174.805,51.758,270.508
1573890235.951,6.348,10.254,-1000.000,-135.742,-782.227
1573890235.955,55.176,-6.836,-441.895,8.789,-513.184
1573890235.959,144.531,6.348,-896.484,212.891,728.516
1573890235.963,104.492,17.090,432.129,115.723,600.586
1573890235.966,1.953,13.184,-1000.000,-112.305,-574.707
1573890235.970,13.672,8.789,-868.164,-65.430,-651.855
1573890235.974,117.676,12.695,632.324,173.828,474.609
1573890235.978,124.023,21.973,817.383,165.039,785.156
1573890235.982,20.508,15.137,-680.176,-65.430,-308.105
1573890235.986,-4.883,0.488,-1000.000,-103.516,-779.785
1573890235.990,85.449,-5.371,74.707,117.188,133.301
1573890235.994,123.047,1.465,-832.031,202.637,925.293
1573890235.998,36.133,17.578,-26.855,-3.418,37.109
1573890236.002,-28.809,16.602,-1000.000,-131.836,-793.457
1573890236.006,42.480,8.301,-229.980,52.734,-257.324
1573890236.009,119.629,11.719,-805.664,218.262,905.273
1573890236.013,58.105,19.043,246.582,59.570,393.555
1573890236.017,-33.203,10.254,-1000.000,-142.578,-667.969
1573890236.021,9.766,9.277,-640.625,-26.367,-536.621
1573890236.025,105.957,18.066,924.316,181.641,645.508
1573890236.029,77.148,20.508,523.438,110.352,644.043
1573890236.033,-19.531,26.855,-1000.000,-114.746,-567.871
1573890236.037,-4.395,23.926,-885.742,-92.773,-755.371
1573890236.041,93.750,9.766,581.055,139.648,399.902
1573890236.045,111.328,5.859,987.793,160.156,835.938
1573890236.048,13.672,12.207,-458.008,-68.359,-285.156
1573890236.052,-24.902,10.742,-1000.000,-134.277,-838.867
1573890236.056,90.332,17.090,20.996,105.957,45.410
1573890236.060,150.879,19.531,-804.199,224.609,953.613
1573890236.064,42.969,11.719,60.547,13.672,150.391
1573890236.068,-40.527,12.695,-1000.000,-145.996,-772.949
1573890236.072,29.297,9.766,-254.883,20.996,-359.375
1573890236.076,114.258,0.488,-803.711,203.125,843.750
1573890236.080,57.129,9.277,314.453,61.035,472.656
1573890236.084,-45.410,20.508,-1000.000,-149.902,-611.328
1573890236.088,-17.578,11.719,-585.449,-55.664,-532.227
1573890236.091,81.055,0.977,984.863,178.223,614.258
1573890236.095,68.848,-4.883,607.422,126.953,700.195
1573890236.099,-31.250,-1.465,-910.645,-115.234,-470.215
1573890236.103,-39.062,-3.418,-990.723,-107.422,-765.137
1573890236.107,56.641,-10.254,435.059,128.418,314.941
1573890236.111,80.078,-5.859,-995.117,168.457,863.281
1573890236.115,-12.695,0.977,-434.570,-52.246,-201.660
1573890236.119,-51.758,-0.977,-1000.000,-134.766,-876.465
1573890236.123,41.992,-8.789,-40.527,76.172,-91.797
1573890236.127,104.980,-8.789,-783.691,199.707,973.145
1573890236.131,30.273,0.977,182.129,10.742,207.520
1573890236.134,-44.922,2.930,-1000.000,-149.902,-804.688
1573890236.138,8.301,-5.859,-297.852,-2.441,-416.016
1573890236.142,94.727,-8.789,-811.523,181.641,797.852
1573890236.146,57.617,8.789,410.156,72.266,549.316
1573890236.150,-35.156,24.414,-1000.000,-134.277,-563.477
1573890236.154,-9.766,18.066,-658.203,-62.500,-591.797
1573890236.158,98.633,19.043,875.977,165.527,539.551
1573890236.162,98.145,27.344,848.633,140.137,739.746
1573890236.166,-13.184,17.578,-657.715,-104.004,-391.113
1573890236.170,-28.809,2.441,-1000.000,-124.023,-820.312
1573890236.173,76.660,18.066,292.969,116.211,182.129
1573890236.177,108.398,29.297,-823.242,179.688,916.992
1573890236.181,13.672,20.996,-79.102,-43.945,-103.516
1573890236.185,-33.691,22.949,-1000.000,-151.855,-853.516
1573890236.189,50.781,23.438,-85.938,48.828,-133.301
1573890236.193,124.512,20.508,-768.066,201.660,950.195
1573890236.197,60.059,24.902,244.629,35.156,281.250
1573890236.201,-20.020,24.902,-1000.000,-142.578,-774.414
1573890236.205,34.180,13.184,-361.816,2.441,-502.441
1573890236.209,120.117,-0.977,-845.703,201.660,741.699
1573890236.213,86.914,1.465,536.133,97.656,565.918
1573890236.216,-11.230,9.277,-1000.000,-128.418,-603.027
1573890236.220,3.906,26.855,-642.578,-72.754,-683.594
1573890236.224,105.957,33.691,885.742,172.363,473.633
1573890236.228,110.352,22.461,980.469,165.527,774.902
1573890236.232,16.602,24.902,-485.352,-67.871,-341.309
1573890236.236,-10.254,29.785,-1000.000,-104.004,-831.543
1573890236.240,81.543,19.531,325.195,119.629,83.984
1573890236.244,123.047,17.578,-784.668,206.055,952.637
1573890236.248,35.645,22.461,37.598,-7.324,-18.555
1573890236.252,-21.484,15.137,-1000.000,-139.160,-911.621
1573890236.256,55.664,11.230,-123.535,44.434,-287.109
1573890236.259,128.906,18.066,-760.254,199.219,908.203
1573890236.263,69.824,23.438,282.715,43.945,333.496
1573890236.267,-16.113,25.879,-1000.000,-139.160,-757.812
1573890236.271,27.344,19.531,-295.898,-19.043,-507.812
1573890236.275,120.117,13.184,-865.723,186.523,688.965
1573890236.279,91.797,-0.488,791.992,109.375,664.062
1573890236.283,4.395,12.695,-763.184,-99.609,-468.262
1573890236.287,11.230,43.945,-668.945,-70.312,-690.918
1573890236.291,84.961,46.875,864.258,135.254,402.832
1573890236.295,95.215,56.152,-889.648,145.996,841.797
1573890236.298,1.465,45.410,-212.402,-81.543,-212.402
1573890236.302,-32.715,28.320,-1000.000,-137.695,-778.809
1573890236.306,63.965,39.551,266.602,78.613,64.941
1573890236.310,123.535,38.574,-754.395,184.082,967.285
1573890236.314,36.133,33.691,135.742,-11.719,87.891
1573890236.318,-45.898,46.875,-1000.000,-165.527,-791.504
1573890236.322,31.738,56.152,-201.660,9.766,-302.734
1573890236.326,105.469,45.898,-779.785,177.246,844.727
1573890236.330,38.086,28.809,444.824,27.832,454.102
1573890236.334,-47.363,42.480,-1000.000,-158.691,-619.141
1573890236.338,-7.812,65.918,-387.695,-50.293,-530.273
1573890236.341,94.238,49.316,-887.207,169.922,629.883
1573890236.345,82.520,35.645,806.152,122.070,666.504
1573890236.349,-21.973,39.551,-703.613,-103.027,-440.430
1573890236.353,-20.508,33.691,-868.164,-91.309,-688.965
1573890236.357,90.332,41.992,629.883,135.742,327.637
1573890236.361,106.934,33.203,-849.121,171.387,880.371
1573890236.365,21.484,21.484,-125.000,-40.039,-147.949
1573890236.369,-15.137,39.062,-1000.000,-125.488,-827.148
1573890236.373,41.504,30.273,29.297,53.223,-54.688
1573890236.377,84.961,22.461,-755.371,158.691,952.637
1573890236.381,10.742,26.855,201.660,-26.367,204.102
1573890236.384,-71.289,26.367,-1000.000,-194.824,-702.148
1573890236.388,-17.578,42.480,-253.418,-45.898,-338.379
1573890236.392,73.730,49.805,-786.133,149.902,835.938
1573890236.396,31.250,54.199,388.184,31.738,504.883
1573890236.400,-74.219,54.688,-1000.000,-191.406,-629.883
1573890236.404,-42.969,41.504,-455.078,-107.422,-591.797
1573890236.408,66.406,45.898,-964.844,129.883,558.594
1573890236.412,46.875,45.410,898.926,83.496,731.445
1573890236.416,-51.270,48.340,-589.355,-149.902,-382.812
1573890236.420,-54.688,57.617,-944.824,-151.367,-787.598
1573890236.423,42.969,47.363,511.230,81.055,208.008
1573890236.427,76.172,49.316,-814.453,136.719,893.555
1573890236.431,-17.090,54.199,-26.855,-83.008,-105.469
1573890236.435,-56.641,43.945,-1000.000,-172.363,-833.496
1573890236.439,35.645,38.086,-96.680,39.062,-175.781
1573890236.443,102.539,52.734,-760.254,180.176,911.133
1573890236.447,38.574,67.871,261.230,15.137,250.977
1573890236.451,-37.598,56.152,-1000.000,-148.438,-776.855
1573890236.455,17.578,41.016,-290.039,-3.418,-443.848
1573890236.459,109.863,48.340,-814.941,192.871,770.020
1573890236.463,62.988,41.992,541.504,79.590,579.102
1573890236.466,-37.598,51.270,-1000.000,-137.207,-582.520
1573890236.470,-9.277,66.406,-668.457,-68.359,-698.242
1573890236.474,91.797,68.359,874.023,160.645,447.266
1573890236.478,97.168,74.219,978.516,150.879,794.434
1573890236.482,-1.953,69.336,-483.887,-80.566,-321.777
1573890236.486,-25.879,63.965,-1000.000,-115.723,-829.102
1573890236.490,71.289,73.242,312.988,109.863,141.602
1573890236.494,109.375,68.359,-775.391,189.453,915.527
1573890236.498,21.973,53.711,60.059,-24.902,-44.434
1573890236.502,-32.715,61.523,-1000.000,-142.578,-805.176
1573890236.506,45.410,71.289,-138.672,53.711,-233.398
1573890236.509,117.188,69.336,-761.719,211.426,895.996
1573890236.513,56.152,68.848,321.777,59.082,330.566
1573890236.517,-26.367,56.152,-1000.000,-125.000,-753.906
1573890236.521,18.066,51.758,-325.684,-14.160,-498.535
1573890236.525,106.445,65.918,-831.055,195.312,709.961
1573890236.529,86.426,75.195,614.746,122.559,614.746
1573890236.533,-3.418,75.684,-952.148,-106.445,-545.410
1573890236.537,1.465,57.129,-673.828,-68.359,-692.383
1573890236.541,101.562,61.523,865.723,165.527,426.270
1573890236.545,111.328,76.660,-997.070,175.781,803.223
1573890236.548,8.301,60.059,-407.227,-58.594,-257.324
1573890236.552,-23.438,51.758,-1000.000,-114.746,-767.090
1573890236.556,74.219,62.500,243.652,111.816,56.152
1573890236.560,127.930,66.406,-758.789,214.844,935.547
1573890236.564,44.434,58.105,129.395,9.277,62.500
1573890236.568,-21.484,53.223,-1000.000,-132.324,-833.008
1573890236.572,47.852,41.992,-167.969,45.410,-304.199
1573890236.576,125.488,45.898,-766.113,211.426,878.906
1573890236.580,50.781,51.270,348.145,53.223,406.738
1573890236.584,-40.527,36.621,-1000.000,-148.438,-767.578
1573890236.588,8.789,38.574,-392.090,-36.133,-649.414
1573890236.591,91.309,57.617,-885.742,170.410,608.887
1573890236.595,72.754,67.383,726.562,115.234,689.453
1573890236.599,-31.250,47.363,-804.688,-116.211,-485.352
1573890236.603,-30.762,42.480,-825.195,-105.469,-757.812
1573890236.607,70.312,45.898,663.574,132.324,343.262
1573890236.611,89.844,39.062,-876.465,161.621,868.652
1573890236.615,-1.465,43.457,-157.227,-61.035,-145.508
1573890236.619,-38.086,45.898,-1000.000,-135.742,-800.781
1573890236.623,54.688,42.969,-12.695,75.195,-26.855
1573890236.627,107.422,40.527,-763.184,188.477,963.379
1573890236.631,28.809,34.180,193.359,1.465,168.457
1573890236.634,-41.016,27.344,-1000.000,-142.090,-757.324
1573890236.638,21.484,37.109,-284.668,16.113,-350.098
1573890236.642,99.609,41.992,-804.199,187.012,824.707
1573890236.646,59.570,39.062,428.711,71.777,496.582
1573890236.650,-23.926,39.551,-1000.000,-129.883,-661.621
1573890236.654,4.395,39.551,-526.367,-47.852,-645.996
1573890236.658,102.051,38.574,-989.258,184.570,558.594
1573890236.662,91.797,34.180,831.543,149.902,717.773
1573890236.666,-3.906,32.227,-677.246,-80.566,-408.691
1573890236.670,-10.254,18.555,-976.074,-83.008,-751.465
1573890236.673,80.078,15.137,459.961,133.301,254.883
1573890236.677,100.586,34.668,-830.566,175.293,893.555
1573890236.681,6.348,36.621,-110.352,-37.598,-120.117
1573890236.685,-39.551,19.043,-1000.000,-139.648,-782.227
1573890236.689,51.270,18.555,-16.602,60.059,-50.781
1573890236.693,123.535,31.738,-762.207,208.984,961.914
1573890236.697,47.852,32.715,185.547,36.133,261.719
1573890236.701,-33.203,15.625,-1000.000,-141.602,-737.793
1573890236.705,27.832,10.254,-268.066,3.906,-422.363
1573890236.709,117.188,17.090,-806.152,206.543,784.668
1573890236.713,70.312,26.367,495.117,102.051,537.109
1573890236.716,-31.250,33.691,-1000.000,-118.652,-644.043
1573890236.720,-9.277,28.320,-619.629,-54.688,-666.016
1573890236.724,88.379,26.855,914.062,171.875,502.930
1573890236.728,85.449,29.297,927.246,146.973,760.254
1573890236.732,-11.230,21.973,-546.875,-84.473,-326.660
1573890236.736,-25.879,12.695,-1000.000,-100.586,-754.395
1573890236.740,75.195,15.625,382.324,131.348,171.387
1573890236.744,114.746,21.484,-784.180,202.637,927.734
1573890236.748,22.949,33.203,32.227,-13.672,-22.949
1573890236.752,-29.785,34.668,-1000.000,-134.766,-816.895
1573890236.756,47.852,30.273,-112.793,45.410,-210.938
1573890236.759,114.258,34.668,-763.184,196.289,916.504
1573890236.763,46.387,30.273,274.414,41.992,315.430
1573890236.767,-36.133,31.738,-1000.000,-135.742,-707.520
1573890236.771,12.207,37.109,-379.395,0.488,-458.496
1573890236.775,101.562,37.598,-868.652,203.125,711.426
1573890236.779,77.148,28.320,640.625,114.258,624.512
1573890236.783,-17.578,21.484,-918.945,-106.934,-531.250
1573890236.787,-7.324,36.133,-780.762,-70.801,-750.488
1573890236.791,95.215,34.180,752.930,160.645,369.629
1573890236.795,103.516,14.648,-955.078,168.945,813.965
1573890236.798,2.930,27.344,-374.023,-65.918,-296.387
1573890236.802,-27.344,41.016,-1000.000,-115.234,-857.910
1573890236.806,65.918,37.109,241.211,108.398,62.988
1573890236.810,122.559,38.086,-769.531,208.496,958.984
1573890236.814,39.551,41.016,80.566,0.488,38.086
1573890236.818,-22.949,27.832,-1000.000,-141.602,-797.363
1573890236.822,39.551,26.367,-171.387,39.062,-234.863
1573890236.826,110.352,31.738,-769.531,204.590,915.527
1573890236.830,65.918,32.227,332.520,58.105,414.062
1573890236.834,-21.973,33.691,-1000.000,-133.301,-726.074
1573890236.838,14.160,25.391,-372.559,-19.043,-526.855
1573890236.841,103.516,17.090,-861.816,185.547,682.129
1573890236.845,79.102,30.273,646.973,119.629,668.945
1573890236.849,-16.602,41.016,-878.418,-107.422,-497.559
1573890236.853,-15.137,29.785,-833.984,-94.238,-742.676
1573890236.857,87.891,20.020,646.973,146.484,363.281
1573890236.861,106.445,26.367,-893.555,174.805,843.262
1573890236.865,12.207,37.598,-237.793,-57.129,-237.793
1573890236.869,-17.578,42.969,-1000.000,-123.047,-884.766
1573890236.873,61.523,33.691,84.961,90.332,-45.410
1573890236.877,110.840,27.344,-765.625,195.312,946.777
1573890236.881,42.480,38.086,136.719,0.977,124.512
1573890236.884,-26.367,41.016,-1000.000,-146.973,-778.809
1573890236.888,39.551,29.785,-201.660,21.973,-312.500
1573890236.892,120.117,24.902,-780.762,206.543,870.605
1573890236.896,78.613,35.156,426.758,83.984,480.957
1573890236.900,-12.207,43.457,-1000.000,-125.488,-641.113
1573890236.904,3.418,38.086,-481.445,-45.898,-577.637
1573890236.908,101.074,29.297,-965.820,175.293,567.383
1573890236.912,92.285,35.156,875.000,132.324,705.078
1573890236.916,-5.371,41.504,-630.859,-94.238,-441.406
1573890236.920,-10.742,41.016,-906.250,-95.215,-766.602
1573890236.923,93.750,43.457,556.152,146.973,280.273
1573890236.927,130.371,49.805,-802.246,198.242,896.973
1573890236.931,22.461,50.293,-25.879,-48.828,-142.578
1573890236.935,-28.809,49.805,-1000.000,-139.160,-842.773
1573890236.939,62.500,48.828,39.551,79.102,-101.562
1573890236.943,116.211,52.734,-743.164,196.777,945.801
1573890236.947,49.805,52.734,245.117,17.090,208.496
1573890236.951,-20.508,48.828,-1000.000,-145.508,-772.461
1573890236.955,31.738,44.434,-241.211,-1.953,-413.086
1573890236.959,109.375,29.297,-801.270,189.453,785.645
1573890236.963,67.871,37.598,577.637,86.426,525.391
1573890236.966,-14.648,44.434,-995.605,-116.699,-625.977
1573890236.970,1.953,37.598,-505.859,-49.316,-627.930
1573890236.974,93.262,43.945,-979.004,171.387,510.742
1573890236.978,90.820,45.898,956.055,144.043,755.371
1573890236.982,-9.277,41.504,-508.789,-97.656,-368.652
1573890236.986,-17.578,30.273,-962.891,-119.629,-784.180
1573890236.990,80.078,20.020,500.488,117.188,202.148
1573890236.994,109.863,20.508,-808.594,187.500,923.340
1573890236.998,30.762,43.457,-31.738,-13.184,-63.477
1573890237.002,-22.949,42.969,-1000.000,-126.953,-841.309
1573890237.006,41.992,31.250,-61.035,47.852,-172.363
1573890237.009,116.211,48.828,-758.789,206.543,935.547
1573890237.013,58.594,49.805,225.098,44.922,294.922
1573890237.017,-25.879,37.598,-1000.000,-137.695,-723.145
1573890237.021,26.367,33.203,-306.641,-0.977,-474.121
1573890237.025,121.094,36.621,-830.078,201.172,722.168
1573890237.029,89.355,36.621,577.637,113.281,587.891
1573890237.033,-16.602,15.625,-980.469,-109.863,-549.805
1573890237.037,-6.348,21.973,-670.410,-68.848,-638.672
1573890237.041,94.238,42.969,872.070,165.039,467.285
1573890237.045,94.727,36.621,973.145,162.109,793.945
1573890237.048,-1.465,39.062,-470.215,-80.566,-304.199
1573890237.052,-19.043,46.387,-1000.000,-113.281,-779.297
1573890237.056,62.012,35.156,239.746,106.934,93.262
1573890237.060,94.727,33.691,-773.926,173.828,956.055
1573890237.064,18.066,39.062,99.609,-27.832,66.406
1573890237.068,-32.715,28.320,-1000.000,-139.160,-840.820
1573890237.072,37.598,25.879,-188.965,45.898,-261.230
1573890237.076,102.539,35.156,-773.438,201.660,895.996
1573890237.080,45.410,40.039,313.965,54.688,378.418
1573890237.084,-33.203,38.086,-1000.000,-138.184,-700.195
1573890237.088,10.742,31.738,-405.273,-26.367,-526.855
1573890237.091,103.516,37.598,-873.535,188.965,659.668
1573890237.095,79.102,44.434,596.191,121.094,628.906
1573890237.099,-16.602,42.969,-899.902,-104.004,-509.277
1573890237.103,-8.789,29.297,-939.941,-80.566,-722.656
1573890237.107,91.309,18.555,498.535,152.344,345.703
1573890237.111,102.539,37.109,-917.969,172.852,838.379
1573890237.115,4.395,42.480,-314.941,-64.453,-217.285
1573890237.119,-27.344,38.086,-1000.000,-123.535,-834.961
1573890237.123,69.336,44.434,73.730,111.328,-1.465
1573890237.127,126.953,26.367,-764.160,217.773,965.332
1573890237.131,44.434,28.809,161.133,12.207,127.441
1573890237.134,-28.320,47.852,-1000.000,-139.160,-797.363
1573890237.138,36.621,29.297,-232.910,34.668,-297.852
1573890237.142,113.770,27.344,-782.715,211.914,875.000
1573890237.146,64.941,48.828,320.312,75.684,444.336
1573890237.150,-24.414,51.758,-1000.000,-126.465,-659.668
1573890237.154,1.953,40.039,-448.730,-35.156,-569.336
1573890237.158,99.121,39.062,-931.152,188.965,606.445
1573890237.162,81.055,49.316,754.883,136.230,673.340
1573890237.166,-21.484,38.086,-780.762,-105.469,-519.043
1573890237.170,-24.414,26.855,-906.250,-98.145,-802.734
1573890237.173,70.312,32.227,564.941,138.672,284.668
1573890237.177,100.098,32.715,-857.422,182.617,889.648
1573890237.181,16.602,42.969,-154.297,-37.109,-128.418
1573890237.185,-30.273,47.363,-1000.000,-125.488,-846.680
1573890237.189,52.734,34.180,-6.348,77.637,-111.328
1573890237.193,121.094,37.109,-761.719,214.355,940.918
1573890237.197,49.316,47.852,204.590,30.762,179.199
1573890237.201,-30.273,37.598,-1000.000,-144.043,-791.992
1573890237.205,25.879,24.414,-258.789,8.301,-405.273
1573890237.209,112.305,31.250,-799.316,200.195,804.688
1573890237.213,75.684,40.527,471.680,85.449,550.781
1573890237.216,-11.230,47.852,-1000.000,-119.629,-618.164
1573890237.220,10.742,42.480,-609.863,-43.945,-682.129
1573890237.224,104.004,39.062,939.941,182.129,508.789
1573890237.228,101.562,51.270,900.879,158.691,747.070
1573890237.232,2.930,47.852,-613.281,-71.777,-371.094
1573890237.236,-15.137,42.480,-997.070,-93.750,-760.254
1573890237.240,81.543,44.434,425.293,140.137,195.312
1573890237.244,121.582,41.992,-805.664,207.031,923.828
1573890237.248,25.879,41.992,-8.301,-20.996,-47.852
1573890237.252,-26.367,43.945,-1000.000,-132.812,-817.383
1573890237.256,59.570,41.016,-124.023,64.941,-171.875
1573890237.259,122.070,47.363,-764.648,213.867,919.922
1573890237.263,54.688,50.781,271.484,42.969,302.734
1573890237.267,-23.438,45.410,-1000.000,-130.859,-739.258
1573890237.271,19.531,36.621,-316.895,4.395,-444.336
1573890237.275,102.539,30.762,-815.430,199.219,746.094
1573890237.279,72.266,43.945,490.234,111.328,551.758
1573890237.283,-26.367,49.805,-1000.000,-116.699,-599.121
1573890237.287,-16.113,42.969,-651.367,-68.359,-691.895
1573890237.291,85.449,42.969,887.207,167.480,442.383
1573890237.295,98.145,51.270,924.805,160.156,792.969
1573890237.298,2.930,37.109,-549.805,-71.777,-296.875
1573890237.302,-30.273,22.461,-1000.000,-111.328,-819.824
1573890237.306,68.359,40.527,277.832,120.117,85.938
1573890237.310,113.770,48.828,-770.508,203.613,946.289
1573890237.314,21.973,32.715,92.285,-11.719,32.227
1573890237.318,-38.086,33.691,-1000.000,-134.277,-817.871
1573890237.322,36.621,43.945,-145.508,55.664,-226.074
1573890237.326,112.305,43.457,-763.184,205.566,896.484
1573890237.330,48.340,39.062,285.645,42.480,361.328
1573890237.334,-38.574,36.133,-1000.000,-141.602,-691.895
1573890237.338,16.602,33.203,-353.516,-13.672,-536.621
1573890237.341,114.258,26.367,-856.934,197.754,666.992
1573890237.345,83.496,26.367,644.531,105.469,647.461
1573890237.349,-15.625,35.156,-896.973,-120.605,-538.574
1573890237.353,-10.742,41.992,-789.551,-81.055,-783.203
1573890237.357,87.891,36.621,713.379,151.855,336.426
1573890237.361,98.633,27.344,-923.340,168.457,860.352
1573890237.365,-3.906,36.133,-287.598,-63.965,-204.590
1573890237.369,-30.762,31.738,-1000.000,-113.770,-825.195
1573890237.373,62.012,25.391,90.820,111.816,18.066
1573890237.377,113.281,45.410,-766.113,212.402,951.660
1573890237.381,37.598,46.875,153.320,15.625,142.090
1573890237.384,-22.461,42.480,-1000.000,-125.000,-788.574
1573890237.388,44.922,51.270,-220.215,45.898,-358.887
1573890237.392,107.910,37.109,-779.785,206.055,862.305
1573890237.396,58.594,35.645,376.953,61.523,442.871
1573890237.400,-23.926,41.504,-1000.000,-134.277,-681.152
1573890237.404,8.301,37.109,-440.430,-28.320,-574.219
1573890237.408,101.562,32.715,-913.086,195.312,620.605
1573890237.412,89.844,35.645,750.488,136.230,668.457
1573890237.416,-6.348,44.434,-786.621,-102.051,-457.031
1573890237.420,-9.277,45.898,-881.836,-86.914,-686.035
1573890237.423,87.402,46.387,603.516,149.414,324.219
1573890237.427,105.957,50.781,-878.906,177.734,852.539
1573890237.431,12.207,48.340,-208.496,-62.500,-218.750
1573890237.435,-28.809,41.992,-1000.000,-145.996,-900.879
1573890237.439,58.105,47.363,33.691,75.684,-104.980
1573890237.443,113.281,39.551,-762.695,198.242,937.012
1573890237.447,29.297,21.484,173.828,0.977,190.430
1573890237.451,-43.945,20.020,-1000.000,-155.762,-745.605
1573890237.455,20.020,28.320,-238.770,5.859,-380.859
1573890237.459,104.004,37.109,-789.551,191.895,814.453
1573890237.463,59.570,49.805,433.594,76.660,489.746
1573890237.466,-35.156,51.758,-1000.000,-131.348,-644.043
1573890237.470,-13.672,28.320,-533.203,-61.523,-632.812
1573890237.474,84.961,20.508,995.605,165.527,520.508
1573890237.478,83.008,22.461,872.070,146.484,727.051
1573890237.482,-23.926,22.949,-633.789,-94.727,-399.414
1573890237.486,-30.273,35.156,-968.262,-98.633,-765.625
1573890237.490,69.336,31.738,475.098,138.184,234.863
1573890237.494,86.426,33.691,-817.871,178.711,891.602
1573890237.498,-3.418,35.156,-54.688,-47.852,-118.164
1573890237.502,-46.387,30.762,-1000.000,-139.160,-814.453
1573890237.506,33.203,30.762,-56.152,61.523,-129.395
1573890237.509,99.609,33.691,-762.695,195.801,951.172
1573890237.513,35.156,40.039,211.426,29.297,257.324
1573890237.517,-45.410,26.855,-1000.000,-142.090,-751.953
1573890237.521,12.207,5.859,-334.473,5.859,-409.668
1573890237.525,106.445,24.414,-841.797,205.078,754.395
1573890237.529,77.148,51.270,566.406,113.770,569.336
1573890237.533,-26.367,38.574,-1000.000,-110.352,-555.664
1573890237.537,-15.625,35.156,-591.309,-63.477,-615.234
1573890237.541,82.031,42.969,937.500,166.504,495.605
1573890237.545,79.102,42.480,988.770,146.484,776.855
1573890237.548,-15.137,39.062,-451.660,-88.379,-341.309
1573890237.552,-35.156,36.133,-1000.000,-116.211,-826.660
1573890237.556,55.664,30.273,375.488,110.840,125.977
1573890237.560,100.586,42.480,-771.973,193.848,947.266
1573890237.564,20.996,57.617,50.781,-15.625,-33.691
1573890237.568,-34.180,53.223,-1000.000,-139.160,-813.477
1573890237.572,42.480,57.617,-96.191,45.410,-189.941
1573890237.576,124.023,57.617,-754.395,212.402,912.598
1573890237.580,63.477,43.457,317.871,58.594,325.195
1573890237.584,-40.039,25.879,-1000.000,-145.996,-736.328
1573890237.588,7.812,12.695,-309.082,-18.555,-476.074
1573890237.591,104.004,19.043,-831.543,189.941,699.219
1573890237.595,71.289,39.062,643.066,105.469,617.188
1573890237.599,-31.250,43.457,-916.504,-122.070,-547.363
1573890237.603,-22.461,40.527,-662.598,-82.520,-725.586
1573890237.607,82.031,41.016,877.441,160.156,385.742
1573890237.611,93.262,43.945,-980.957,161.621,813.965
1573890237.615,-4.395,40.527,-398.438,-78.613,-267.578
1573890237.619,-44.434,22.461,-1000.000,-125.000,-831.543
1573890237.623,50.781,13.184,251.953,105.957,39.551
1573890237.627,116.699,11.719,-753.906,207.031,933.594
1573890237.631,28.320,11.719,162.109,-8.789,103.027
1573890237.634,-45.898,31.738,-1000.000,-156.738,-763.672
1573890237.638,20.508,40.039,-165.039,15.137,-300.293
1573890237.642,91.797,38.574,-764.160,181.152,879.883
1573890237.646,43.945,43.457,374.023,46.387,387.207
1573890237.650,-41.016,45.898,-1000.000,-138.672,-724.121
1573890237.654,-7.324,44.922,-412.109,-32.715,-558.594
1573890237.658,87.891,37.598,-898.438,174.805,624.023
1573890237.662,71.777,41.992,766.113,118.164,664.062
1573890237.666,-25.391,37.109,-748.535,-106.445,-468.262
1573890237.670,-16.602,28.809,-908.691,-87.402,-749.512
1573890237.673,85.938,48.828,551.270,148.438,298.828
1573890237.677,104.492,59.082,-855.469,169.922,861.328
1573890237.681,15.137,57.129,-158.691,-54.688,-176.758
1573890237.685,-26.367,49.316,-1000.000,-127.441,-815.918
1573890237.689,49.316,49.805,57.129,80.078,-35.645
1573890237.693,107.910,41.992,-754.395,197.266,955.566
1573890237.697,36.621,33.203,180.176,7.324,139.160
1573890237.701,-33.203,46.387,-1000.000,-141.602,-760.742
1573890237.705,38.574,52.734,-228.027,31.738,-318.359
1573890237.709,119.629,52.734,-783.203,218.262,833.496
1573890237.713,66.895,53.223,423.340,85.938,468.262
1573890237.716,-26.367,53.223,-1000.000,-126.465,-672.363
1573890237.720,-1.953,41.504,-497.559,-46.875,-596.191
1573890237.724,94.727,40.039,-953.125,176.758,575.684
1573890237.728,90.332,51.758,785.645,142.578,708.984
1573890237.732,-7.812,47.852,-724.609,-91.309,-425.293
1573890237.736,-20.508,29.297,-969.238,-93.750,-790.527
1573890237.740,75.195,30.762,481.934,137.695,233.398
1573890237.744,104.492,35.156,-859.375,181.641,895.996
1573890237.748,18.066,42.969,-165.039,-38.086,-141.113
1573890237.752,-25.879,48.340,-1000.000,-128.906,-861.816
1573890237.756,42.969,40.039,-65.430,63.965,-131.836
1573890237.759,106.445,35.645,-772.949,196.289,946.289
1573890237.763,47.852,37.109,185.059,21.973,227.051
1573890237.767,-33.691,38.574,-1000.000,-144.531,-750.488
1573890237.771,22.461,39.062,-287.598,5.859,-402.832
1573890237.775,107.910,31.250,-815.430,196.777,755.371
1573890237.779,75.195,36.621,498.535,92.285,574.219
1573890237.783,-12.207,42.969,-1000.000,-125.000,-568.848
1573890237.787,0.000,31.250,-606.934,-65.918,-662.109
1573890237.791,91.797,38.086,932.617,154.785,488.770
1573890237.795,90.820,35.645,915.527,132.812,759.766
1573890237.798,-13.184,41.016,-566.895,-101.074,-330.078
1573890237.802,-32.227,47.852,-1000.000,-121.582,-742.188
1573890237.806,70.312,37.109,337.891,111.328,164.551
1573890237.810,106.934,36.621,-790.527,177.246,914.551
1573890237.814,18.066,44.434,29.785,-36.621,-21.973
1573890237.818,-39.062,42.969,-1000.000,-146.973,-798.828
1573890237.822,33.203,38.086,-143.555,41.016,-166.504
1573890237.826,103.516,37.109,-766.113,190.918,927.734
1573890237.830,41.016,42.969,292.480,37.598,323.730
1573890237.834,-42.480,26.367,-1000.000,-146.973,-748.047
1573890237.838,0.000,9.277,-325.195,-28.809,-503.418
1573890237.841,87.891,26.367,-831.543,173.828,720.215
1573890237.845,64.453,40.527,578.613,101.074,612.305
1573890237.849,-26.855,43.457,-969.238,-120.605,-496.582
1573890237.853,-19.531,44.434,-710.938,-79.590,-670.410
1573890237.857,76.660,47.363,804.688,154.785,403.320
1573890237.861,92.285,53.711,-963.379,159.668,811.523
1573890237.865,3.906,54.688,-361.328,-66.406,-262.207
1573890237.869,-31.250,40.039,-1000.000,-123.047,-826.660
1573890237.873,51.758,24.414,194.824,89.844,35.645
1573890237.877,101.074,31.250,-766.602,187.012,915.527
1573890237.881,22.949,37.598,103.027,-14.160,40.039
1573890237.884,-41.504,33.691,-1000.000,-147.949,-802.734
1573890237.888,23.926,35.156,-179.688,32.715,-326.660
1573890237.892,98.145,42.969,-770.996,196.289,862.305
1573890237.896,41.504,45.410,294.922,48.340,416.992
1573890237.900,-41.992,41.016,-1000.000,-145.508,-685.059
1573890237.904,0.977,34.668,-382.324,-33.691,-538.574
1573890237.908,100.586,40.039,-886.719,186.035,636.230
1573890237.912,79.102,47.852,721.191,119.141,659.668
1573890237.916,-21.973,40.527,-826.660,-108.887,-458.496
1573890237.920,-16.113,26.855,-804.688,-76.660,-722.168
1573890237.923,83.496,29.297,702.637,158.691,333.008
1573890237.927,102.051,43.457,-894.531,171.387,861.328
1573890237.931,5.859,44.922,-210.938,-56.641,-175.293
1573890237.935,-27.344,40.527,-1000.000,-115.234,-820.312
1573890237.939,64.453,40.527,36.133,101.074,-43.457
1573890237.943,117.188,46.387,-765.625,204.102,916.992
1573890237.947,35.645,43.945,165.039,8.301,107.422
1573890237.951,-35.645,34.668,-1000.000,-140.625,-824.219
1573890237.955,26.855,34.180,-240.234,20.996,-386.230
1573890237.959,104.492,34.668,-789.062,205.078,822.754
1573890237.963,60.059,36.133,390.625,81.055,443.848
1573890237.966,-29.785,31.738,-1000.000,-126.953,-700.195
1573890237.970,-1.465,25.391,-544.922,-40.039,-614.258
1573890237.974,91.797,35.645,-999.023,178.711,576.172
1573890237.978,85.938,48.340,798.828,140.137,706.055
1573890237.982,-6.836,50.293,-740.723,-84.961,-401.855
1573890237.986,-29.297,37.109,-931.641,-100.586,-701.172
1573890237.990,62.012,33.691,528.809,130.859,298.340
1573890237.994,99.609,46.875,-854.492,185.059,855.469
1573890237.998,11.719,34.668,-142.090,-45.898,-141.113
1573890238.002,-35.645,21.973,-1000.000,-136.230,-811.035
1573890238.006,42.969,38.086,-34.668,61.035,-107.910
1573890238.009,100.586,41.992,-763.672,183.594,961.914
1573890238.013,30.762,39.551,212.402,15.137,223.633
1573890238.017,-42.480,27.832,-1000.000,-142.578,-772.949
1573890238.021,14.160,27.832,-285.156,5.859,-403.809
1573890238.025,98.145,36.133,-804.199,202.637,779.785
1573890238.029,55.664,34.668,438.477,98.633,558.105
1573890238.033,-36.133,38.086,-1000.000,-119.629,-599.609
1573890238.037,-18.555,45.898,-632.324,-60.547,-667.480
1573890238.041,75.195,44.434,926.758,170.410,498.047
1573890238.045,85.449,49.316,846.191,153.809,762.207
1573890238.048,-10.254,46.387,-688.965,-87.402,-364.258
1573890238.052,-31.250,29.785,-1000.000,-112.793,-760.254
1573890238.056,67.383,28.809,413.086,117.188,215.332
1573890238.060,107.422,27.344,-843.262,179.688,899.902
1573890238.064,16.602,34.180,-117.188,-35.156,-39.062
1573890238.068,-35.156,45.898,-1000.000,-143.555,-816.895
1573890238.072,43.945,36.621,-103.516,49.805,-237.305
1573890238.076,107.910,28.809,-770.020,202.637,908.691
1573890238.080,43.945,41.992,250.977,39.062,317.383
1573890238.084,-43.457,41.016,-1000.000,-152.344,-766.113
1573890238.088,-1.953,36.133,-335.938,-31.738,-510.254
1573890238.091,92.285,46.875,-841.797,175.293,713.867
1573890238.095,61.523,44.434,585.938,96.191,601.562
1573890238.099,-43.945,26.367,-968.750,-128.906,-520.508
1573890238.103,-34.668,24.902,-717.773,-86.914,-654.785
1573890238.107,75.195,31.250,812.988,149.902,419.434
1573890238.111,83.496,18.555,995.117,146.973,799.805
1573890238.115,-17.578,22.949,-414.551,-84.961,-272.949
1573890238.119,-40.527,41.016,-1000.000,-122.559,-806.152
1573890238.123,52.246,42.969,113.770,101.562,72.754
1573890238.127,96.680,39.551,-792.480,181.641,929.688
1573890238.131,15.137,38.574,63.965,-31.250,30.273
1573890238.134,-45.898,41.504,-1000.000,-160.645,-762.695
1573890238.138,22.461,43.457,-207.031,21.484,-227.539
1573890238.142,103.516,53.711,-782.227,191.406,879.395
1573890238.146,49.316,59.570,331.055,51.270,355.469
1573890238.150,-48.340,28.809,-1000.000,-145.996,-707.520
1573890238.154,-8.789,5.859,-377.441,-34.668,-506.348
1573890238.158,89.355,29.297,-864.746,186.035,664.551
1573890238.162,68.848,48.340,650.879,122.559,623.535
1573890238.166,-33.203,45.898,-884.766,-111.328,-530.762
1573890238.170,-29.785,41.504,-840.332,-95.215,-741.211
1573890238.173,67.871,40.527,655.273,135.742,334.473
1573890238.177,83.496,37.598,-899.414,161.133,841.309
1573890238.181,-3.418,31.738,-281.738,-62.500,-227.539
1573890238.185,-32.227,16.602,-1000.000,-128.418,-790.527
1573890238.189,53.223,28.320,144.531,96.191,41.504
1573890238.193,101.074,46.875,-758.301,203.125,955.078
1573890238.197,20.020,39.062,135.254,-3.906,102.539
1573890238.201,-54.688,26.855,-1000.000,-153.320,-786.621
1573890238.205,13.184,23.438,-179.199,10.742,-315.918
1573890238.209,96.680,30.762,-774.902,187.012,836.914
1573890238.213,45.410,38.574,428.223,60.547,463.867
1573890238.216,-44.922,16.113,-1000.000,-140.625,-636.230
1573890238.220,-14.648,6.836,-434.570,-50.781,-608.887
1573890238.224,83.496,27.344,-922.852,167.969,566.406
1573890238.228,83.984,43.945,830.078,127.441,695.312
1573890238.232,-18.066,45.410,-678.711,-107.422,-446.777
1573890238.236,-31.250,32.227,-859.375,-114.258,-804.688
1573890238.240,75.684,28.809,624.512,121.582,235.840
1573890238.244,107.910,34.668,-823.730,172.852,860.840
1573890238.248,13.672,42.969,-72.754,-49.805,-171.387
1573890238.252,-34.180,36.133,-1000.000,-139.160,-815.430
1573890238.256,54.199,21.484,69.336,76.172,-96.191
1573890238.259,112.305,29.297,-747.070,204.590,942.871
1573890238.263,43.945,52.734,213.379,24.414,212.891
1573890238.267,-26.855,47.363,-1000.000,-138.184,-748.535
1573890238.271,29.785,38.574,-262.695,4.883,-415.039
1573890238.275,110.352,43.457,-806.641,189.453,770.508
1573890238.279,56.152,41.504,539.551,68.848,514.160
1573890238.283,-36.621,43.945,-1000.000,-135.254,-619.629
1573890238.287,-11.719,40.527,-504.883,-53.711,-626.953
1573890238.291,90.332,31.250,-991.211,172.363,508.789
1573890238.295,89.844,27.832,962.891,143.555,770.508
1573890238.298,-5.371,36.133,-490.234,-91.309,-342.285
1573890238.302,-18.555,36.133,-965.332,-108.398,-774.414
1573890238.306,69.336,31.250,496.094,120.117,222.656
1573890238.310,101.074,39.551,-805.176,178.711,911.133
1573890238.314,9.766,40.039,-32.715,-43.457,-55.176
1573890238.318,-45.898,31.738,-1000.000,-148.926,-783.691
1573890238.322,27.344,28.809,-62.988,49.316,-168.945
1573890238.326,94.238,35.645,-755.859,198.730,921.387
1573890238.330,32.227,32.227,275.879,40.527,326.172
1573890238.334,-48.340,21.484,-1000.000,-143.066,-709.473
1573890238.338,-2.441,29.297,-299.805,-15.625,-460.449
1573890238.341,75.684,26.367,-803.711,188.965,758.301
1573890238.345,45.898,24.414,472.656,94.238,548.340
1573890238.349,-39.551,29.297,-1000.000,-129.883,-617.676
1573890238.353,-23.438,22.461,-656.738,-75.684,-689.453
1573890238.357,79.102,19.531,856.445,160.645,428.711
1573890238.361,86.914,20.996,973.145,158.203,765.137
1573890238.365,-15.137,22.461,-470.215,-86.914,-299.805
1573890238.369,-40.527,29.785,-1000.000,-126.465,-773.926
1573890238.373,60.059,30.762,292.480,113.281,94.238
1573890238.377,107.422,34.668,-792.969,191.406,935.547
1573890238.381,26.855,43.945,5.859,-20.020,-6.836
1573890238.384,-38.086,35.645,-1000.000,-146.484,-817.383
1573890238.388,33.203,31.250,-142.578,41.992,-228.027
1573890238.392,112.793,24.414,-770.508,208.984,894.043
1573890238.396,55.664,25.879,333.496,55.664,398.926
1573890238.400,-29.785,39.062,-1000.000,-128.906,-681.152
1573890238.404,9.277,36.133,-412.109,-20.996,-532.227
1573890238.408,96.680,30.762,-887.207,178.223,656.738
1573890238.412,71.777,28.809,677.734,106.934,653.320
1573890238.416,-20.508,37.598,-854.004,-121.582,-515.625
1573890238.420,-14.648,41.504,-859.863,-94.727,-794.922
1573890238.423,80.566,34.668,626.953,143.066,328.613
1573890238.427,92.285,37.598,-919.434,161.133,836.426
1573890238.431,0.488,42.969,-307.617,-64.453,-231.934
1573890238.435,-32.227,32.227,-1000.000,-122.559,-809.082
1573890238.439,59.570,36.621,104.980,99.121,11.230
1573890238.443,115.234,49.316,-764.160,205.566,958.984
1573890238.447,34.180,46.387,150.879,4.395,133.789
1573890238.451,-32.227,51.758,-1000.000,-137.207,-768.066
1573890238.455,28.809,46.875,-211.426,31.738,-304.199
1573890238.459,96.680,30.762,-776.367,198.730,876.465
1573890238.463,46.387,36.133,349.121,71.289,449.219
1573890238.466,-37.109,37.598,-1000.000,-129.395,-688.965
1573890238.470,-3.418,36.133,-424.805,-37.598,-582.031
1573890238.474,95.703,40.527,-916.504,185.547,605.957
1573890238.478,81.055,45.410,775.879,136.719,697.266
1573890238.482,-25.879,53.223,-749.023,-101.074,-435.059
1573890238.486,-27.344,57.617,-907.715,-99.121,-775.391
1573890238.490,76.172,56.152,583.984,140.625,266.602
1573890238.494,106.445,44.922,-877.441,187.012,879.395
1573890238.498,16.113,45.410,-219.727,-38.574,-156.250
1573890238.502,-26.367,44.922,-1000.000,-122.070,-873.535
1573890238.506,54.199,42.969,22.461,83.008,-105.957
1573890238.509,116.699,52.734,-766.602,207.520,940.430
1573890238.513,50.293,48.340,155.762,27.344,173.828
1573890238.517,-36.133,44.434,-1000.000,-150.391,-806.641
1573890238.521,21.484,41.992,-249.023,0.488,-414.062
1573890238.525,110.840,42.480,-796.387,192.383,811.035
1573890238.529,71.777,49.316,448.730,82.031,503.906
1573890238.533,-21.484,39.551,-1000.000,-125.977,-650.879
1573890238.537,2.930,32.227,-540.527,-52.246,-624.512
1573890238.541,104.492,44.434,-999.512,183.594,548.828
1573890238.545,102.539,49.805,852.539,153.809,733.398
1573890238.548,-0.488,37.598,-652.832,-86.914,-378.418
1573890238.552,-15.625,38.086,-999.512,-92.285,-748.047
1573890238.556,86.914,52.246,420.410,147.461,221.680
1573890238.560,109.375,45.898,-821.289,189.453,902.344
1573890238.564,18.555,48.340,-53.711,-34.180,-100.098
1573890238.568,-23.926,53.711,-1000.000,-133.301,-854.980
1573890238.572,48.340,42.969,-121.582,57.617,-181.152
1573890238.576,114.258,37.598,-769.531,205.566,928.223
1573890238.580,51.758,41.504,246.582,51.270,291.504
1573890238.584,-27.344,48.828,-1000.000,-124.512,-716.797
1573890238.588,24.902,37.109,-322.754,0.977,-417.480
1573890238.591,116.211,27.832,-820.801,208.984,757.812
1573890238.595,81.543,41.016,471.191,113.770,568.359
1573890238.599,-24.414,44.922,-1000.000,-115.234,-571.289
1573890238.603,-7.324,47.363,-773.438,-52.246,-656.738
1573890238.607,90.820,35.645,742.188,167.969,459.961
1573890238.611,88.867,33.691,965.332,148.438,795.898
1573890238.615,1.465,45.410,-520.020,-74.219,-321.777
1573890238.619,-24.414,51.270,-1000.000,-114.746,-855.957
1573890238.623,60.547,49.805,248.047,108.887,103.027
1573890238.627,107.422,30.762,-790.039,195.801,944.824
1573890238.631,23.438,36.621,37.109,-19.531,11.230
1573890238.634,-41.016,45.410,-1000.000,-146.973,-843.750
1573890238.638,31.250,39.062,-163.574,48.340,-271.973
1573890238.642,105.957,42.969,-773.926,215.332,916.504
1573890238.646,62.500,46.875,252.441,66.406,354.492
1573890238.650,-9.766,51.758,-1000.000,-117.676,-770.996
1573890238.654,28.320,56.152,-377.441,-7.324,-556.152
1573890238.658,116.211,51.758,-847.656,207.520,682.129
1573890238.662,95.703,53.711,497.559,122.070,638.672
1573890238.666,-4.395,58.105,-1000.000,-117.188,-507.324
1573890238.670,-5.371,55.176,-758.789,-75.195,-687.988
1573890238.673,101.074,41.992,726.562,167.480,410.645
1573890238.677,114.746,40.527,-963.379,188.477,837.402
1573890238.681,5.859,37.109,-362.305,-42.969,-275.391
1573890238.685,-28.320,25.879,-1000.000,-106.445,-854.492
1573890238.689,66.895,44.922,100.586,110.352,25.391
1573890238.693,119.629,62.500,-769.531,213.379,962.891
1573890238.697,34.180,58.105,139.648,16.113,56.152
1573890238.701,-32.227,44.922,-1000.000,-126.465,-864.258
1573890238.705,43.457,47.852,-202.637,41.992,-288.086
1573890238.709,122.559,54.688,-777.344,206.543,888.672
1573890238.713,67.871,54.688,359.863,67.383,443.848
1573890238.716,-20.996,36.621,-1000.000,-121.094,-652.344
1573890238.720,5.859,26.855,-533.203,-25.391,-560.547
1573890238.724,98.145,49.805,-974.609,195.801,602.051
1573890238.728,83.496,57.617,700.684,146.973,680.664
1573890238.732,-10.742,62.988,-812.988,-80.566,-493.652
1573890238.736,-13.184,49.316,-1000.000,-72.754,-831.055
1573890238.740,72.754,32.715,404.297,152.832,260.254
1573890238.744,84.473,42.480,-903.809,186.523,867.676
1573890238.748,-6.836,41.016,-282.715,-37.598,-182.617
1573890238.752,-38.574,38.574,-1000.000,-115.234,-818.848
1573890238.756,45.898,33.203,41.504,91.797,-17.090
1573890238.759,100.098,33.691,-766.113,205.566,980.957
1573890238.763,30.762,47.852,180.176,10.742,145.996
1573890238.767,-40.527,42.969,-1000.000,-148.926,-834.473
1573890238.771,20.020,43.945,-254.395,16.602,-400.391
1573890238.775,103.027,49.316,-790.527,209.473,812.988
1573890238.779,68.848,44.922,378.418,96.191,492.676
1573890238.783,-21.973,39.062,-1000.000,-113.281,-638.184
1573890238.787,-0.977,43.945,-537.598,-37.109,-602.051
1573890238.791,100.098,49.316,-992.676,190.918,552.734
1573890238.795,99.121,49.805,786.133,155.762,749.512
1573890238.798,0.488,43.945,-744.141,-89.355,-370.117
1573890238.802,-22.949,29.785,-973.145,-114.746,-783.203
1573890238.806,69.336,29.297,448.242,126.953,233.398
1573890238.810,107.910,44.922,-832.031,198.730,904.297
1573890238.814,19.531,49.805,-87.402,-25.879,-116.211
1573890238.818,-26.855,46.875,-1000.000,-130.859,-820.312
1573890238.822,54.688,46.387,-57.129,74.707,-123.047
1573890238.826,124.023,48.828,-758.301,219.238,957.520
1573890238.830,71.289,51.758,236.816,59.570,281.250
1573890238.834,-16.602,47.852,-1000.000,-120.605,-787.598
1573890238.838,26.367,46.875,-262.207,6.836,-429.199
1573890238.841,120.605,46.387,-808.594,209.961,789.062
1573890238.845,81.055,41.016,563.965,107.910,535.156
1573890238.849,-12.695,41.992,-1000.000,-104.492,-599.121
1573890238.853,6.836,37.598,-537.598,-38.574,-673.340
1573890238.857,104.004,35.156,960.449,181.152,462.891
1573890238.861,104.980,48.340,-969.238,168.457,779.297
1573890238.865,-0.488,43.457,-355.469,-68.848,-333.008
1573890238.869,-21.973,26.855,-994.629,-108.887,-792.480
1573890238.873,74.219,28.809,408.691,123.047,154.297
1573890238.877,113.770,38.086,-766.602,207.520,946.289
1573890238.881,30.762,36.621,97.168,-8.301,-1.465
1573890238.884,-25.391,32.227,-1000.000,-133.301,-822.266
1573890238.888,46.875,33.691,-131.348,55.176,-236.328
1573890238.892,112.305,32.227,-758.301,205.078,911.621
1573890238.896,60.059,30.273,389.160,56.152,354.004
1573890238.900,-16.113,35.156,-1000.000,-126.953,-742.188
1573890238.904,22.461,36.133,-282.715,-12.695,-512.695
1573890238.908,112.793,34.668,-840.332,197.754,707.031
1573890238.912,88.867,44.434,770.996,114.258,649.414
1573890238.916,-11.719,41.992,-781.250,-118.164,-498.047
1573890238.920,-4.395,29.297,-659.180,-75.195,-700.195
1573890238.923,97.168,32.715,877.441,171.387,403.320
1573890238.927,107.422,34.668,-899.902,175.781,825.684
1573890238.931,8.789,27.344,-227.051,-62.988,-266.602
1573890238.935,-20.020,31.250,-1000.000,-113.281,-830.566
1573890238.939,72.266,41.016,280.762,106.445,43.457
1573890238.943,112.793,35.645,-752.930,205.566,943.848
1573890238.947,29.297,34.668,121.582,0.977,61.035
1573890238.951,-30.762,33.203,-1000.000,-139.160,-816.406
1573890238.955,40.527,27.832,-159.180,43.457,-283.691
1573890238.959,119.629,37.109,-766.602,224.121,894.043
1573890238.963,62.500,44.434,379.395,77.637,400.391
1573890238.966,-24.414,37.598,-1000.000,-125.488,-711.914
1573890238.970,12.695,33.691,-417.480,-20.508,-544.434
1573890238.974,106.445,19.531,-876.465,190.918,636.719
1573890238.978,87.402,16.113,655.273,127.441,654.297
1573890238.982,-14.648,35.156,-894.531,-109.375,-509.766
1573890238.986,-17.578,42.969,-804.199,-98.633,-751.465
1573890238.990,79.590,47.852,679.688,137.695,330.566
1573890238.994,101.562,52.246,-882.324,173.340,861.328
1573890238.998,6.348,55.664,-192.871,-48.340,-177.734
1573890239.002,-34.668,59.082,-1000.000,-124.512,-810.059
1573890239.006,46.387,48.340,71.777,80.078,-15.137
1573890239.009,103.027,35.156,-760.742,203.613,959.961
1573890239.013,28.809,31.738,158.691,17.090,147.949
1573890239.017,-48.340,36.621,-1000.000,-143.066,-810.547
1573890239.021,12.695,44.922,-259.766,17.090,-391.113
1573890239.025,104.004,49.805,-796.875,200.195,837.402
1573890239.029,59.570,49.805,389.160,85.449,472.168
1573890239.033,-38.086,41.016,-1000.000,-120.117,-670.898
1573890239.037,-3.906,28.809,-610.840,-48.340,-621.094
1573890239.041,100.098,20.508,923.828,177.734,552.734
1573890239.045,91.309,34.668,835.938,146.484,728.516
1573890239.048,-7.324,47.852,-695.801,-86.426,-406.738
1573890239.052,-22.461,39.062,-979.004,-96.680,-772.949
1573890239.056,69.336,25.879,465.820,134.277,248.047
1573890239.060,102.051,21.973,-848.145,186.035,908.691
1573890239.064,18.555,38.086,-148.926,-36.133,-107.422
1573890239.068,-26.855,41.504,-1000.000,-125.000,-812.500
1573890239.072,48.828,31.250,-38.086,72.266,-83.496
1573890239.076,113.770,38.086,-764.648,205.078,955.566
1573890239.080,47.363,33.691,212.891,30.762,269.531
1573890239.084,-40.527,24.414,-1000.000,-143.555,-765.137
1573890239.088,11.719,33.691,-289.551,0.000,-460.449
1573890239.091,106.934,34.668,-802.246,197.266,790.527
1573890239.095,68.359,39.551,423.340,87.891,532.227
1573890239.099,-27.832,41.504,-1000.000,-129.395,-598.145
1573890239.103,9.766,18.066,-615.723,-47.852,-628.418
1573890239.107,98.145,20.996,934.570,174.316,477.051
1573890239.111,62.988,42.480,817.871,122.559,765.137
1573890239.115,-39.551,51.270,-706.055,-123.047,-352.051
1573890239.119,-60.059,45.898,-1000.000,-151.367,-798.340
1573890239.123,27.832,34.180,355.469,73.730,162.109
1573890239.127,64.941,32.227,-796.875,141.602,905.762
1573890239.131,-25.391,30.273,17.090,-78.613,-54.199
1573890239.134,-75.684,26.855,-1000.000,-181.641,-810.547
1573890239.138,18.555,28.320,-120.117,21.484,-191.406
1573890239.142,83.496,33.691,-764.160,170.898,928.711
1573890239.146,13.184,37.598,289.551,14.160,343.262
1573890239.150,-64.941,33.691,-1000.000,-164.551,-721.680
1573890239.154,-10.254,28.809,-368.164,-34.668,-504.883
1573890239.158,85.449,31.738,-853.027,173.340,702.148
1573890239.162,60.059,34.668,600.586,94.238,626.953
1573890239.166,-33.691,40.039,-940.918,-123.535,-536.621
1573890239.170,-22.949,38.574,-779.297,-79.102,-699.707
1573890239.173,77.637,25.391,722.168,160.645,400.879
1573890239.177,88.867,17.578,-966.309,163.574,798.340
1573890239.181,-9.277,27.832,-382.324,-77.148,-272.461
1573890239.185,-31.250,45.898,-1000.000,-130.371,-795.898
1573890239.189,63.965,48.340,174.805,96.680,65.430
1573890239.193,103.027,41.992,-766.113,196.289,950.195
1573890239.197,17.578,40.039,118.652,-6.348,79.102
1573890239.201,-43.945,37.598,-1000.000,-143.555,-845.703
1573890239.205,23.438,30.762,-192.383,34.180,-346.680
1573890239.209,98.145,36.621,-773.438,205.078,885.742
1573890239.213,45.898,31.738,341.797,55.664,411.621
1573890239.216,-40.039,16.602,-1000.000,-145.996,-719.727
1573890239.220,-9.766,27.344,-399.414,-46.875,-568.359
1573890239.224,78.613,36.621,-879.883,168.945,643.066
1573890239.228,62.988,39.062,691.406,111.816,659.180
1573890239.232,-36.133,28.320,-855.469,-120.605,-510.254
1573890239.236,-29.297,20.996,-835.938,-100.098,-756.348
1573890239.240,83.984,36.133,675.293,143.555,335.449
1573890239.244,102.539,42.480,-915.039,170.410,877.930
1573890239.248,-0.977,34.180,-291.504,-69.336,-204.102
1573890239.252,-35.156,14.160,-1000.000,-145.508,-831.055
1573890239.256,50.781,6.348,69.336,62.012,19.043
1573890239.259,107.910,33.691,-776.855,181.641,962.402
1573890239.263,28.809,41.504,115.723,0.488,169.434
1573890239.267,-49.316,18.555,-1000.000,-158.203,-769.043
1573890239.271,16.113,19.531,-206.055,0.488,-325.684
1573890239.275,94.727,29.297,-780.273,185.547,855.957
1573890239.279,49.316,29.785,346.191,62.012,475.098
1573890239.283,-42.969,20.996,-1000.000,-144.531,-688.477
1573890239.287,-18.555,2.930,-494.629,-55.664,-643.066
1573890239.291,87.402,11.719,-964.844,174.316,571.289
1573890239.295,79.102,31.250,769.043,127.441,696.289
1573890239.298,-31.250,26.367,-758.301,-118.652,-423.340
1573890239.302,-42.480,21.973,-941.895,-115.234,-755.859
1573890239.306,57.617,23.926,510.254,124.512,253.906
1573890239.310,90.820,24.414,-861.328,171.875,873.047
1573890239.314,-0.977,17.578,-163.086,-59.082,-144.531
1573890239.318,-50.293,18.555,-1000.000,-146.973,-822.266
1573890239.322,36.133,21.484,-60.547,65.918,-98.145
1573890239.326,103.027,16.113,-769.531,194.824,946.777
1573890239.330,38.086,21.973,213.867,21.973,212.402
1573890239.334,-40.039,26.367,-1000.000,-145.508,-804.199
1573890239.338,16.602,34.668,-281.250,3.418,-462.402
1573890239.341,101.562,45.410,-803.223,205.566,778.320
1573890239.345,62.500,33.691,434.570,100.098,538.574
1573890239.349,-24.414,35.645,-1000.000,-115.723,-590.820
1573890239.353,-19.531,33.691,-682.617,-62.500,-645.508
1573890239.357,69.824,27.832,844.727,163.574,477.051
1573890239.361,75.684,31.250,942.871,152.832,766.602
1573890239.365,-24.902,23.926,-555.664,-88.867,-307.617
1573890239.369,-40.039,27.832,-1000.000,-119.141,-775.879
1573890239.373,59.570,41.016,354.980,119.629,163.574
1573890239.377,104.004,44.434,-798.340,193.359,919.922
1573890239.381,22.461,39.551,-1.465,-25.391,-49.316
1573890239.384,-32.227,38.086,-1000.000,-134.766,-801.758
1573890239.388,44.922,40.527,-135.254,61.523,-179.688
1573890239.392,114.258,41.992,-769.531,207.031,930.176
1573890239.396,53.223,37.109,238.281,40.527,301.270
1573890239.400,-31.250,31.250,-1000.000,-138.672,-788.574
1573890239.404,5.859,24.902,-323.730,-6.348,-529.297
1573890239.408,88.379,25.879,-831.055,187.500,705.078
1573890239.412,63.965,33.691,526.855,93.750,601.074
1573890239.416,-29.785,33.691,-1000.000,-124.023,-531.250
1573890239.420,-15.625,41.504,-700.684,-68.848,-667.480
1573890239.423,91.309,43.945,821.777,170.410,442.871
1573890239.427,102.539,45.410,-996.582,166.016,801.758
1573890239.431,8.301,52.246,-419.922,-67.871,-276.367
1573890239.435,-25.879,29.785,-1000.000,-119.629,-801.758
1573890239.439,59.570,16.113,188.965,102.539,89.355
1573890239.443,103.027,32.715,-800.293,188.477,931.641
1573890239.447,16.602,46.875,18.066,-24.414,-0.488
1573890239.451,-41.504,55.176,-1000.000,-145.020,-876.953
1573890239.455,36.133,50.781,-157.715,42.480,-333.008
1573890239.459,109.863,52.246,-773.438,209.961,900.879
1573890239.463,52.734,51.758,313.477,66.406,385.254
1573890239.466,-30.762,43.945,-1000.000,-131.348,-720.215
1573890239.470,15.625,45.898,-447.266,-27.344,-528.809
1573890239.474,104.980,42.480,-900.879,184.082,653.809
1573890239.478,78.613,33.203,615.234,114.746,663.574
1573890239.482,-18.066,45.898,-909.668,-117.676,-479.980
1573890239.486,-10.742,65.430,-915.527,-86.914,-740.723
1573890239.490,82.031,56.152,527.344,153.320,329.102
1573890239.494,91.309,49.805,-898.438,166.504,851.562
1573890239.498,-1.465,54.688,-282.715,-70.312,-206.055
1573890239.502,-37.598,52.734,-1000.000,-135.742,-786.133
1573890239.506,48.340,47.852,125.977,86.426,54.199
1573890239.509,100.098,52.734,-757.324,198.730,969.727
1573890239.513,21.484,55.664,166.504,0.000,140.137
1573890239.517,-44.434,51.270,-1000.000,-146.484,-763.672
1573890239.521,27.344,48.340,-204.102,26.367,-332.031
1573890239.525,115.723,46.875,-773.926,206.055,844.238
1573890239.529,69.336,56.641,383.301,73.242,439.941
1573890239.533,-28.320,58.105,-1000.000,-133.789,-677.246
1573890239.537,8.789,46.387,-436.035,-37.109,-562.012
1573890239.541,109.375,49.805,-921.387,189.453,604.004
1573890239.545,85.938,44.922,812.500,130.859,692.871
1573890239.548,-17.090,39.551,-750.977,-107.422,-432.129
1573890239.552,-22.461,38.086,-803.711,-101.074,-706.055
1573890239.556,76.172,41.016,701.660,139.160,307.129
1573890239.560,99.609,38.086,-846.680,179.688,868.652
1573890239.564,8.301,32.715,-89.355,-48.340,-174.316
1573890239.568,-27.832,47.852,-1000.000,-135.254,-849.609
1573890239.572,54.688,49.805,51.758,69.824,-91.309
1573890239.576,114.746,46.387,-747.559,205.566,949.707
1573890239.580,43.945,50.293,222.656,23.926,205.078
1573890239.584,-45.898,40.039,-1000.000,-154.785,-751.953
1573890239.588,10.742,35.156,-229.004,6.836,-383.301
1573890239.591,107.422,37.598,-792.480,208.984,783.203
1573890239.595,68.359,40.527,530.762,84.961,511.719
1573890239.599,-18.555,42.969,-1000.000,-118.164,-604.004
1573890239.603,10.254,36.621,-484.863,-33.691,-625.000
1573890239.607,104.980,26.367,-972.168,185.059,508.301
1573890239.611,98.145,26.855,950.684,148.438,766.113
1573890239.615,-11.719,31.250,-489.746,-90.820,-360.352
1573890239.619,-24.414,27.832,-992.188,-107.422,-844.238
1573890239.623,76.660,27.832,437.012,129.395,152.344
1573890239.627,107.910,43.945,-804.688,196.289,925.781
1573890239.631,13.672,42.480,-11.719,-25.879,-54.199
1573890239.634,-43.945,24.414,-1000.000,-142.578,-834.961
1573890239.638,33.691,17.578,-112.793,48.828,-154.785
1573890239.642,108.887,39.062,-763.672,208.008,969.238
1573890239.646,47.363,45.410,279.785,49.316,299.805
1573890239.650,-39.062,29.297,-1000.000,-144.531,-713.379
1573890239.654,8.301,27.832,-349.609,-12.695,-422.363
1573890239.658,98.633,31.250,-837.402,196.777,739.746
1573890239.662,69.824,38.086,552.246,105.469,577.637
1573890239.666,-28.809,28.320,-1000.000,-121.094,-601.562
1573890239.670,-12.695,30.762,-693.359,-73.730,-732.910
1573890239.673,91.797,40.527,833.496,169.434,422.852
1573890239.677,93.262,40.527,993.164,171.387,791.504
1573890239.681,0.000,47.363,-456.543,-65.918,-323.730
1573890239.685,-25.391,33.691,-1000.000,-113.770,-793.945
1573890239.689,59.570,12.207,295.898,105.957,133.301
1573890239.693,107.910,13.672,-785.645,196.777,949.219
1573890239.697,20.996,36.133,27.832,-13.184,-20.020
1573890239.701,-39.062,40.039,-1000.000,-145.508,-881.348
1573890239.705,33.203,30.273,-153.320,39.551,-251.953
1573890239.709,97.656,34.180,-772.949,204.102,908.203
1573890239.713,44.434,38.086,271.973,59.082,358.398
1573890239.716,-40.527,28.320,-1000.000,-130.859,-713.379
1573890239.720,0.488,17.090,-398.438,-14.160,-500.977
1573890239.724,93.750,6.836,-862.305,199.219,686.035
1573890239.728,71.777,20.996,534.668,125.000,641.113
1573890239.732,-21.973,46.875,-996.582,-105.469,-477.539
1573890239.736,-20.508,39.062,-794.922,-81.055,-701.172
1573890239.740,74.219,32.227,680.664,151.367,355.957
1573890239.744,87.891,34.180,-926.758,166.992,845.215
1573890239.748,-11.230,38.086,-310.547,-69.336,-205.566
1573890239.752,-40.527,25.391,-1000.000,-125.977,-776.367
1573890239.756,58.105,20.020,98.633,98.633,47.363
1573890239.759,108.398,42.969,-772.949,205.566,965.820
1573890239.763,26.367,51.270,105.957,5.859,76.172
1573890239.767,-36.621,47.852,-1000.000,-132.812,-829.590
1573890239.771,31.738,41.992,-221.191,39.551,-305.664
1573890239.775,109.863,37.109,-787.109,207.520,851.074
1573890239.779,48.828,28.320,379.395,67.871,456.543
1573890239.783,-41.992,17.090,-1000.000,-134.766,-694.824
1573890239.787,-1.953,13.184,-465.820,-36.621,-585.449
1573890239.791,85.938,31.250,-927.734,182.129,625.977
1573890239.795,83.496,41.992,744.629,134.766,673.340
1573890239.798,-2.930,22.949,-791.992,-89.355,-506.348
1573890239.802,-28.809,27.344,-900.391,-97.656,-817.383
1573890239.806,49.805,32.715,574.219,116.211,261.719
1573890239.810,73.242,29.297,-866.699,154.785,888.672
1573890239.814,-21.973,23.438,-191.895,-69.824,-148.438
1573890239.818,-62.500,13.672,-1000.000,-157.715,-851.562
1573890239.822,24.414,9.766,14.648,53.223,-76.172
1573890239.826,86.914,28.320,-759.766,186.035,966.797
1573890239.830,18.555,37.109,213.379,-4.395,226.074
1573890239.834,-50.293,22.949,-1000.000,-162.598,-740.234
1573890239.838,2.930,13.672,-240.723,-4.395,-370.605
1573890239.841,85.449,16.602,-783.691,183.105,820.801
1573890239.845,49.316,20.996,406.250,70.801,514.648
1573890239.849,-42.969,5.859,-1000.000,-141.113,-631.348
1573890239.853,-17.090,-13.184,-540.527,-61.523,-637.695
1573890239.857,81.543,-23.438,-973.145,165.039,536.133
1573890239.861,80.078,-20.508,730.469,127.441,716.797
1573890239.865,-21.484,-37.598,-812.988,-111.328,-462.891
1573890239.869,-33.691,-45.410,-940.430,-113.281,-818.848
1573890239.873,67.871,-12.207,472.168,128.418,222.168
1573890239.877,104.492,6.836,-812.988,185.059,921.875
1573890239.881,22.461,9.766,-31.738,-32.227,-85.449
1573890239.884,-30.762,10.254,-1000.000,-142.578,-855.957
1573890239.888,48.828,25.391,-73.242,63.477,-184.570
1573890239.892,116.211,30.762,-760.254,214.355,945.801
1573890239.896,46.387,26.855,250.000,38.574,306.152
1573890239.900,-30.273,22.949,-1000.000,-138.184,-779.297
1573890239.904,19.043,12.207,-327.148,-2.930,-462.891
1573890239.908,104.492,20.996,-826.660,195.312,767.578
1573890239.912,72.754,25.879,520.996,101.074,562.012
1573890239.916,-20.996,24.902,-1000.000,-114.746,-576.660
1573890239.920,-6.348,32.227,-708.008,-59.570,-636.719
1573890239.923,88.379,21.973,807.129,169.434,464.844
1573890239.927,96.191,27.344,968.262,158.203,794.922
1573890239.931,3.906,34.180,-494.141,-73.730,-267.578
1573890239.935,-15.625,26.367,-1000.000,-104.980,-762.207
1573890239.939,72.754,25.879,272.949,120.117,143.555
1573890239.943,101.074,22.949,-791.992,186.523,942.383
1573890239.947,12.695,15.137,31.250,-25.879,-3.906
1573890239.951,-43.945,8.789,-1000.000,-148.438,-789.551
1573890239.955,24.902,10.742,-163.086,28.809,-203.125
1573890239.959,97.656,28.320,-770.996,190.918,913.574
1573890239.963,45.410,41.504,294.434,48.340,344.727
1573890239.966,-35.156,38.574,-1000.000,-140.625,-763.672
1573890239.970,10.254,37.598,-370.117,-21.484,-533.691
1573890239.974,95.215,46.875,-859.375,191.406,681.641
1573890239.978,63.965,53.223,621.094,116.699,628.906
1573890239.982,-26.367,33.691,-924.805,-106.445,-526.855
1573890239.986,-20.020,36.621,-794.922,-81.055,-740.234
1573890239.990,69.336,65.430,731.934,142.090,361.328
1573890239.994,83.496,75.684,-968.262,153.809,831.055
1573890239.998,-13.184,67.871,-397.949,-78.613,-282.715
1573890240.002,-45.410,51.270,-1000.000,-134.766,-862.793
1573890240.006,50.781,43.457,150.391,88.867,40.527
1573890240.009,104.004,39.551,-789.062,191.406,940.430
1573890240.013,21.973,30.762,53.223,-6.836,64.453
1573890240.017,-39.551,28.320,-1000.000,-144.531,-785.645
1573890240.021,26.367,23.438,-176.758,26.367,-287.598
1573890240.025,100.098,12.695,-775.391,192.871,849.121
1573890240.029,50.781,2.930,304.199,48.340,424.805
1573890240.033,-41.016,2.930,-1000.000,-157.715,-661.621
1573890240.037,-1.465,22.461,-432.617,-47.852,-570.801
1573890240.041,98.633,31.738,-904.297,184.082,617.676
1573890240.045,74.219,24.902,661.621,115.234,678.223
1573890240.048,-22.949,22.461,-861.328,-118.652,-510.254
1573890240.052,-22.949,21.484,-901.855,-95.215,-825.684
1573890240.056,65.918,16.113,547.852,138.184,282.227
1573890240.060,87.402,23.438,-881.836,169.922,856.934
1573890240.064,-3.418,29.297,-210.449,-53.711,-158.203
1573890240.068,-44.922,21.973,-1000.000,-131.348,-799.805
1573890240.072,41.016,14.648,17.090,75.195,-63.477
1573890240.076,97.656,37.109,-766.113,195.312,951.660
1573890240.080,26.367,43.945,178.711,12.207,186.035
1573890240.084,-44.922,31.250,-1000.000,-148.438,-773.438
1573890240.088,14.160,35.645,-253.418,13.184,-362.305
1573890240.091,95.703,35.645,-791.016,195.312,851.074
1573890240.095,58.105,32.227,367.188,68.848,464.355
1573890240.099,-30.762,28.320,-1000.000,-136.719,-633.789
1573890240.103,-12.695,27.344,-619.629,-62.012,-570.801
1573890240.107,76.660,19.531,925.781,157.715,543.945
1573890240.111,67.871,-0.488,808.594,123.047,713.867
1573890240.115,-22.949,9.277,-737.793,-106.445,-453.613
1573890240.119,-27.832,30.762,-959.473,-111.328,-833.984
1573890240.123,66.895,29.785,468.750,121.582,209.473
1573890240.127,97.168,26.367,-826.660,182.129,916.504
1573890240.131,7.324,30.762,-67.383,-35.156,-80.566
1573890240.134,-40.039,24.902,-1000.000,-132.324,-856.934
1573890240.138,39.062,12.695,-88.379,64.941,-162.109
1573890240.142,98.633,14.648,-764.160,191.895,954.590
1573890240.146,31.250,27.344,214.355,16.602,272.949
1573890240.150,-45.898,24.902,-1000.000,-151.855,-745.605
1573890240.154,9.766,13.672,-281.250,-6.348,-424.316
1573890240.158,102.539,15.137,-805.664,195.312,774.902
1573890240.162,64.941,25.879,453.613,89.355,551.758
1573890240.166,-31.250,24.414,-1000.000,-127.441,-617.676
1573890240.170,-14.648,15.625,-637.207,-62.012,-669.434
1573890240.173,83.008,19.043,891.602,170.410,492.188
1573890240.177,83.496,26.855,934.570,150.391,776.855
1573890240.181,-21.484,1.465,-536.621,-88.867,-369.141
1573890240.185,-37.598,-5.859,-1000.000,-113.770,-835.449
1573890240.189,64.453,18.555,292.480,119.629,157.715
1573890240.193,95.215,22.461,-792.480,184.570,937.500
1573890240.197,6.836,16.113,21.484,-37.598,-40.039
1573890240.201,-47.363,8.301,-1000.000,-148.926,-854.980
1573890240.205,32.227,10.742,-132.324,43.457,-238.281
1573890240.209,112.305,19.043,-765.137,196.777,917.480
1573890240.213,43.457,18.555,289.062,41.504,288.086
1573890240.216,-41.016,18.066,-1000.000,-141.113,-797.852
1573890240.220,6.348,17.090,-339.355,-20.020,-483.398
1573890240.224,93.750,8.301,-847.168,185.547,725.098
1573890240.228,71.289,4.883,625.000,109.375,604.004
1573890240.232,-26.855,11.719,-910.645,-121.582,-479.980
1573890240.236,-14.648,22.461,-790.039,-79.590,-664.062
1573890240.240,84.473,20.996,696.289,157.227,368.652
1573890240.244,87.402,17.578,-895.508,157.227,828.125
1573890240.248,-8.789,18.066,-272.461,-76.660,-235.352
1573890240.252,-34.668,11.719,-1000.000,-126.953,-797.852
1573890240.256,62.012,15.137,247.070,101.074,50.781
1573890240.259,108.887,20.508,-750.000,203.125,948.730
1573890240.263,32.715,18.555,148.926,1.953,56.152
1573890240.267,-28.320,20.020,-1000.000,-141.602,-827.148
1573890240.271,34.668,16.602,-150.391,31.250,-295.898
1573890240.275,110.352,20.508,-759.766,207.520,864.746
1573890240.279,56.152,26.367,375.000,63.477,430.664
1573890240.283,-31.250,12.695,-1000.000,-137.207,-679.199
1573890240.287,7.324,0.488,-341.797,-31.738,-567.871
1573890240.291,103.027,17.090,-856.934,192.383,641.602
1573890240.295,82.031,30.762,748.535,133.301,657.227
1573890240.298,-18.555,23.926,-806.641,-99.121,-479.980
1573890240.302,-19.043,9.277,-767.090,-86.426,-727.539
1573890240.306,77.148,14.648,755.371,147.461,328.613
1573890240.310,94.727,15.137,-896.484,171.875,850.098
1573890240.314,-4.395,11.230,-192.383,-71.289,-185.059
1573890240.318,-42.969,22.949,-1000.000,-146.973,-798.828
1573890240.322,38.574,10.254,118.652,68.848,-28.809
1573890240.326,92.285,10.742,-751.465,190.430,958.008
1573890240.330,22.949,23.438,168.457,0.000,137.695
1573890240.334,-41.504,13.184,-1000.000,-146.973,-863.281
1573890240.338,36.621,20.996,-213.379,33.203,-415.039
1573890240.341,111.328,31.738,-779.785,204.590,825.684
1573890240.345,38.574,21.973,428.223,53.711,469.727
1573890240.349,-45.898,12.695,-1000.000,-142.578,-630.859
1573890240.353,-7.324,5.859,-472.656,-35.645,-586.914
1573890240.357,86.426,13.672,-945.312,185.059,564.453
1573890240.361,80.078,25.391,825.684,135.254,728.027
1573890240.365,-17.090,26.367,-675.293,-103.027,-399.414
1573890240.369,-28.809,16.113,-942.383,-101.562,-753.906
1573890240.373,71.777,11.719,494.629,137.207,252.930
1573890240.377,102.051,20.508,-825.684,192.383,916.504
1573890240.381,12.695,20.508,-52.246,-37.598,-98.145
1573890240.384,-24.414,20.020,-1000.000,-128.418,-890.625
1573890240.388,48.340,14.648,-104.980,76.660,-187.988
1573890240.392,96.680,13.184,-764.648,200.684,929.199
1573890240.396,28.809,12.695,241.211,31.250,282.227
1573890240.400,-41.504,3.418,-1000.000,-139.160,-732.422
1573890240.404,18.555,13.184,-283.691,3.906,-438.965
1573890240.408,106.445,23.926,-804.199,203.613,777.344
1573890240.412,63.477,21.484,466.797,93.262,537.109
1573890240.416,-30.762,13.672,-1000.000,-125.000,-604.492
1573890240.420,-13.184,12.207,-650.391,-65.918,-640.137
1573890240.423,85.938,16.113,888.184,164.062,494.629
1573890240.427,90.332,16.602,928.223,151.855,797.852
1573890240.431,-17.090,22.461,-569.336,-92.773,-398.438
1573890240.435,-40.039,39.551,-1000.000,-116.699,-872.070
1573890240.439,58.594,61.035,352.051,123.047,180.664
1573890240.443,94.727,67.871,-801.270,193.359,931.152
1573890240.447,9.277,65.430,-22.949,-23.438,-61.523
1573890240.451,-42.969,65.918,-1000.000,-139.648,-874.023
1573890240.455,35.156,59.570,-108.887,54.199,-194.824
1573890240.459,111.816,68.848,-767.578,208.008,943.359
1573890240.463,43.457,80.078,245.605,45.898,311.035
1573890240.466,-41.504,79.102,-1000.000,-134.766,-765.625
1573890240.470,12.207,73.730,-343.262,-10.254,-498.535
1573890240.474,96.191,53.223,-828.613,190.430,739.258
1573890240.478,56.641,29.785,469.727,104.004,603.027
1573890240.482,-38.574,18.066,-1000.000,-121.582,-530.273
1573890240.486,-26.855,8.789,-659.668,-79.590,-675.293
1573890240.490,69.336,4.395,828.125,145.996,425.781
1573890240.494,80.566,-0.488,-961.914,150.391,820.801
1573890240.498,-14.160,-4.883,-371.582,-79.102,-268.066
1573890240.502,-36.133,-5.859,-1000.000,-125.488,-811.523
1573890240.506,58.594,-7.324,253.906,103.516,90.820
1573890240.509,103.027,-5.371,-769.531,193.359,938.477
1573890240.513,20.508,0.000,82.520,-19.531,67.871
1573890240.517,-41.992,-10.254,-1000.000,-155.273,-784.668
1573890240.521,26.367,-20.508,-155.762,24.902,-293.945
1573890240.525,94.238,-20.996,-768.555,179.199,865.723
1573890240.529,37.109,-22.949,339.844,36.621,404.785
1573890240.533,-38.574,-13.184,-1000.000,-141.113,-697.754
1573890240.537,0.000,-13.184,-419.922,-32.715,-594.238
1573890240.541,101.074,-15.137,-896.484,180.176,624.023
1573890240.545,86.426,-12.695,714.844,116.699,657.227
1573890240.548,-18.555,-15.625,-833.008,-109.863,-477.051
1573890240.552,-16.602,-12.695,-835.938,-84.961,-706.543
1573890240.556,81.055,-8.301,669.922,141.113,339.844
1573890240.560,100.586,-1.465,-904.297,164.062,861.328
1573890240.564,4.395,-2.441,-269.531,-70.312,-208.496
1573890240.568,-37.109,-10.742,-1000.000,-140.137,-830.078
1573890240.572,57.129,-7.812,76.660,81.543,14.648
1573890240.576,117.676,-3.906,-763.184,191.406,971.191
1573890240.580,39.062,0.000,154.297,1.465,145.996
1573890240.584,-39.551,0.000,-1000.000,-165.039,-781.738
1573890240.588,25.391,-4.395,-216.309,-0.488,-321.777
1573890240.591,116.211,-2.930,-779.297,197.266,857.422
1573890240.595,65.918,5.371,358.887,62.500,459.473
1573890240.599,-26.367,2.930,-1000.000,-142.578,-682.617
1573890240.603,13.672,-8.301,-523.438,-34.668,-611.328
1573890240.607,120.117,-2.930,-952.148,190.430,566.406
1573890240.611,108.887,-0.977,641.602,133.301,707.520
1573890240.615,6.348,-2.441,-898.438,-100.098,-426.270
1573890240.619,10.254,0.488,-928.223,-94.727,-815.918
1573890240.623,112.305,1.953,489.746,133.301,227.051
1573890240.627,140.137,2.930,-854.980,180.664,886.719
1573890240.631,66.406,-1.953,-151.367,-33.203,-142.578
1573890240.634,25.391,-14.648,-1000.000,-121.094,-808.594
1573890240.638,113.281,-14.160,-40.039,97.656,-72.754
1573890240.642,174.316,-7.812,-769.531,232.910,963.379
1573890240.646,100.586,-2.441,186.523,57.617,192.871
1573890240.650,29.297,0.977,-1000.000,-101.074,-810.547
1573890240.654,81.055,-5.371,-312.500,41.504,-375.488
1573890240.658,160.645,-9.277,-819.336,233.398,808.594
1573890240.662,119.629,0.000,445.801,122.559,533.691
1573890240.666,29.297,26.855,-1000.000,-86.914,-579.102
1573890240.670,47.852,47.363,-632.812,-19.531,-601.074
1573890240.673,130.859,56.152,906.250,197.754,534.180
1573890240.677,129.395,66.895,855.957,173.828,729.492
1573890240.681,33.203,60.547,-628.418,-61.523,-421.387
1573890240.685,11.230,55.664,-1000.000,-83.496,-820.801
1573890240.689,108.398,58.105,250.977,146.484,171.387
1573890240.693,143.555,62.012,-819.336,209.961,914.551
1573890240.697,53.711,63.477,-43.457,-10.254,-64.941
1573890240.701,9.277,36.621,-1000.000,-119.629,-846.680
1573890240.705,90.332,8.301,-160.645,70.312,-196.777
1573890240.709,146.973,-8.301,-776.855,222.168,935.547
1573890240.713,70.801,-19.531,250.488,54.199,285.645
1573890240.716,1.953,-22.949,-1000.000,-125.000,-762.207
1573890240.720,60.547,-25.391,-332.031,6.836,-446.289
1573890240.724,147.461,-24.902,-830.078,213.867,749.512
1573890240.728,113.770,-25.391,510.254,126.953,582.031
1573890240.732,10.742,-31.738,-1000.000,-97.656,-532.227
1573890240.736,25.391,-38.086,-723.145,-44.434,-677.246
1573890240.740,120.605,-27.344,810.059,187.012,420.410
1573890240.744,119.629,2.441,954.102,177.734,796.387
1573890240.748,15.137,20.996,-521.484,-65.430,-268.555
1573890240.752,-10.742,25.391,-1000.000,-111.816,-769.531
1573890240.756,87.402,36.133,253.418,115.234,95.215
1573890240.759,132.812,50.781,-799.316,201.660,954.102
1573890240.763,46.387,55.664,-5.859,-15.625,48.340
1573890240.767,-20.996,51.270,-1000.000,-141.113,-847.168
1573890240.771,50.781,52.246,-139.648,52.734,-283.203
1573890240.775,122.070,57.617,-770.020,214.844,908.203
1573890240.779,61.523,62.500,318.848,67.871,383.301
1573890240.783,-25.391,51.270,-1000.000,-121.582,-708.984
1573890240.787,10.254,35.156,-375.488,-13.672,-516.602
1573890240.791,104.492,35.645,-856.445,200.195,671.387
1573890240.795,85.938,42.969,608.887,120.605,633.301
1573890240.798,-13.672,42.969,-930.176,-116.699,-501.953
1573890240.802,-13.184,33.203,-789.551,-83.984,-721.191
1573890240.806,86.914,32.715,700.195,154.297,352.539
1573890240.810,95.215,34.180,-909.180,167.480,867.676
1573890240.814,-6.836,20.508,-258.301,-70.801,-184.082
1573890240.818,-36.621,12.207,-1000.000,-133.301,-830.566
1573890240.822,54.199,19.043,71.777,83.496,-23.926
1573890240.826,102.051,20.020,-771.484,187.012,934.570
1573890240.830,23.438,23.926,138.672,-5.371,66.895
1573890240.834,-37.109,22.461,-1000.000,-146.973,-814.453
1573890240.838,29.785,13.184,-250.488,12.695,-308.594
1573890240.841,105.469,12.695,-793.457,192.871,841.309
1573890240.845,51.758,18.066,354.492,65.918,451.172
1573890240.849,-38.574,15.137,-1000.000,-139.160,-668.457
1573890240.853,-5.859,2.441,-576.660,-43.945,-604.004
1573890240.857,84.961,0.000,974.121,172.363,583.008
1573890240.861,65.918,1.953,757.324,118.164,677.246
1573890240.865,-36.133,0.488,-805.664,-111.328,-496.582
1573890240.869,-35.645,6.836,-907.227,-105.957,-757.812
1573890240.873,63.477,-2.441,556.641,130.859,308.594
1573890240.877,84.961,-1.465,-863.770,170.898,875.977
1573890240.881,-8.789,3.418,-156.738,-62.500,-174.805
1573890240.884,-55.176,-6.348,-1000.000,-148.438,-849.121
1573890240.888,32.227,-4.395,-29.297,67.383,-78.125
1573890240.892,88.867,-2.441,-764.648,194.336,967.285
1573890240.896,20.020,-1.465,182.129,6.348,189.941
1573890240.900,-46.875,1.953,-1000.000,-160.645,-880.859
1573890240.904,5.859,-9.766,-241.211,0.488,-499.023
1573890240.908,87.891,-15.137,-791.504,196.289,808.594
1573890240.912,46.387,-6.836,452.637,75.195,522.949
1573890240.916,-43.457,-3.906,-1000.000,-138.672,-659.668
1573890240.920,-18.066,-12.207,-454.102,-57.617,-621.582
1573890240.923,61.523,-24.414,-973.145,163.086,542.480
1573890240.927,48.340,-20.508,958.008,126.465,752.930
1573890240.931,-38.086,-24.414,-475.586,-106.934,-387.695
1573890240.935,-56.152,-46.875,-969.727,-128.418,-827.637
1573890240.939,37.109,-63.965,471.191,105.469,195.801
1573890240.943,78.613,-59.082,-785.645,169.434,894.531
1573890240.947,-10.254,-42.969,28.320,-55.176,-112.305
1573890240.951,-63.965,-46.387,-1000.000,-151.855,-869.629
1573890240.955,21.973,-61.035,-60.547,51.758,-190.430
1573890240.959,98.145,-72.266,-749.512,198.242,939.453
1573890240.963,26.855,-80.078,321.777,30.273,305.664
1573890240.966,-52.734,-100.586,-1000.000,-153.320,-751.465
1573890240.970,1.953,-104.492,-274.414,-8.301,-479.492
1573890240.974,83.984,-101.074,-813.965,200.684,753.906
1573890240.978,54.199,-102.051,620.605,110.352,573.242
1573890240.982,-41.504,-87.891,-926.758,-116.211,-607.422
1573890240.986,-32.715,-101.562,-667.480,-73.242,-707.520
1573890240.990,68.359,-98.145,853.027,161.621,442.383
1573890240.994,69.336,-88.379,-947.266,147.949,788.086
1573890240.998,-33.203,-97.656,-366.211,-95.215,-328.125
1573890241.002,-50.293,-83.008,-999.023,-128.906,-817.383
1573890241.006,48.340,-58.105,405.762,102.051,132.812
1573890241.009,85.449,-44.922,-760.254,185.059,950.684
1573890241.013,6.836,-36.621,117.676,-17.090,45.898
1573890241.017,-45.898,-25.879,-1000.000,-134.277,-824.219
1573890241.021,31.738,-14.160,-124.023,64.453,-276.855
1573890241.025,97.168,-9.766,-754.395,218.750,915.039
1573890241.029,38.086,-14.648,311.523,54.688,379.395
1573890241.033,-11.719,-5.371,-1000.000,-105.957,-692.383
1573890241.037,13.672,4.883,-315.430,7.324,-480.957
1573890241.041,49.805,1.465,-833.496,162.109,702.148
1573890241.045,27.832,-1.465,644.043,76.660,634.766
1573890241.048,-74.219,-2.930,-907.227,-151.855,-529.297
1573890241.052,-97.168,8.789,-744.141,-138.672,-729.004
1573890241.056,-1.953,10.254,781.250,91.797,376.465
1573890241.060,-5.371,-1.953,-955.566,82.031,843.262
1573890241.064,-103.516,9.277,-331.055,-159.180,-251.465
1573890241.068,-133.789,6.348,-1000.000,-215.332,-854.980
1573890241.072,-53.223,-16.113,168.945,9.277,38.086
1573890241.076,-4.883,-10.742,-787.109,113.281,947.754
1573890241.080,-83.008,-9.277,26.855,-100.098,31.250
1573890241.084,-142.578,-29.297,-1000.000,-232.910,-827.148
1573890241.088,-77.148,-38.086,-173.340,-51.758,-282.227
1573890241.091,11.719,-48.828,-777.344,123.535,886.719
1573890241.095,-31.738,-56.641,362.793,-12.207,441.895
1573890241.099,-112.793,-70.312,-1000.000,-205.566,-670.898
1573890241.103,-65.918,-79.102,-425.781,-88.379,-557.617
1573890241.107,25.391,-65.430,-913.086,134.277,615.234
1573890241.111,19.043,-43.945,764.648,82.520,688.477
1573890241.115,-70.801,-37.598,-749.023,-145.020,-383.789
1573890241.119,-72.266,-53.223,-903.320,-123.047,-677.734
1573890241.123,29.785,-70.312,576.660,122.070,314.941
1573890241.127,61.035,-67.871,-874.023,158.203,866.699
1573890241.131,-28.809,-59.082,-191.895,-83.008,-156.738
1573890241.134,-71.289,-59.570,-1000.000,-169.922,-834.961
1573890241.138,16.113,-55.664,-22.461,58.105,-102.051
1573890241.142,68.359,-43.945,-761.719,175.293,936.523
1573890241.146,-8.301,-16.113,212.891,-7.324,173.340
1573890241.150,-75.684,0.000,-1000.000,-156.250,-799.316
1573890241.154,-9.277,-12.207,-218.262,0.977,-388.672
1573890241.158,77.148,-15.137,-785.156,189.453,835.938
1573890241.162,31.250,-9.766,486.816,63.965,514.160
1573890241.166,-65.430,-33.691,-1000.000,-144.531,-633.789
1573890241.170,-30.762,-54.199,-506.836,-65.430,-584.961
1573890241.173,61.035,-61.035,-977.539,155.273,563.965
1573890241.177,56.152,-58.105,899.902,127.930,731.445
1573890241.181,-39.551,-52.734,-612.305,-110.352,-388.672
1573890241.185,-60.059,-62.500,-893.066,-121.094,-764.648
1573890241.189,36.133,-74.219,581.543,106.934,239.746
1573890241.193,64.941,-67.383,-804.199,157.715,902.344
1573890241.197,-19.531,-52.734,-10.254,-61.523,-104.492
1573890241.201,-73.242,-49.805,-1000.000,-173.828,-870.605
1573890241.205,-3.906,-41.504,-11.230,27.832,-178.711
1573890241.209,70.801,-47.852,-747.559,175.293,948.242
1573890241.213,7.324,-60.547,250.488,-0.488,254.395
1573890241.216,-79.590,-67.871,-1000.000,-173.340,-809.570
1573890241.220,-24.414,-45.410,-275.879,-27.344,-464.355
1573890241.224,76.172,-0.488,-797.852,187.012,791.016
1573890241.228,42.480,12.695,475.586,86.426,538.574
1573890241.232,-60.059,12.695,-1000.000,-155.762,-609.375
1573890241.236,-45.898,1.953,-542.969,-95.215,-620.605
1573890241.240,62.500,-0.488,944.824,152.832,494.629
1573890241.244,65.430,16.113,-980.957,138.184,778.809
1573890241.248,-27.832,23.926,-382.812,-94.238,-334.961
1573890241.252,-27.832,23.926,-1000.000,-113.770,-842.285
1573890241.256,51.758,13.184,389.648,93.750,109.863
1573890241.259,73.730,10.742,-770.508,163.574,927.246
1573890241.263,-5.371,17.090,59.570,-39.062,34.180
1573890241.267,-59.570,6.348,-1000.000,-151.367,-762.695
1573890241.271,18.555,-3.906,-95.215,47.363,-227.051
1573890241.275,96.680,3.418,-757.324,197.754,897.461
1573890241.279,34.180,11.719,324.219,41.016,357.910
1573890241.283,-49.805,20.020,-1000.000,-135.742,-676.758
1573890241.287,1.465,11.230,-359.863,-14.648,-452.637
1573890241.291,93.750,8.301,-854.980,198.242,724.121
1573890241.295,68.359,18.555,659.180,125.488,623.047
1573890241.298,-25.391,1.465,-905.762,-102.051,-582.031
1573890241.302,-14.648,-6.348,-708.984,-75.195,-740.234
1573890241.306,77.148,-1.465,833.008,147.461,415.527
1573890241.310,88.867,11.719,-970.215,152.344,818.848
1573890241.314,-1.465,16.602,-356.445,-74.707,-303.711
1573890241.318,-33.203,5.859,-1000.000,-123.535,-846.680
1573890241.322,63.965,12.695,116.699,95.215,45.410
1573890241.326,100.586,22.949,-760.254,192.383,947.754
1573890241.330,21.973,14.648,143.066,-8.789,84.961
1573890241.334,-21.484,-31.250,-1000.000,-142.090,-804.199
1573890241.338,31.250,-59.082,-164.551,14.160,-283.691
1573890241.341,108.398,-47.852,-764.648,194.824,906.250
1573890241.345,73.242,-54.688,335.938,72.754,419.922
1573890241.349,-24.414,-80.566,-1000.000,-145.996,-694.336
1573890241.353,12.207,-87.891,-410.156,-11.719,-547.363
1573890241.357,118.652,-74.707,-866.699,230.957,621.094
1573890241.361,105.957,-82.520,604.492,170.898,678.223
1573890241.365,13.184,-87.891,-935.059,-73.730,-554.688
1573890241.369,9.277,-76.660,-854.980,-66.895,-857.910
1573890241.373,105.469,-66.895,656.250,169.922,315.430
1573890241.377,130.371,-41.504,-982.910,189.453,863.281
1573890241.381,25.879,-28.320,-404.785,-58.105,-215.820
1573890241.384,-26.855,-39.062,-1000.000,-148.926,-866.699
1573890241.388,60.059,-43.945,24.414,62.988,-42.480
1573890241.392,138.672,-42.969,-771.973,203.125,982.910
1573890241.396,71.777,-34.668,178.711,21.484,158.203
1573890241.400,-13.184,-36.621,-1000.000,-131.348,-803.223
1573890241.404,52.246,-47.852,-249.023,59.570,-342.773
1573890241.408,135.254,-36.621,-789.551,235.352,865.723
1573890241.412,93.262,-19.531,415.039,69.336,485.352
1573890241.416,-4.883,-15.625,-1000.000,-123.535,-678.223
1573890241.420,14.160,-16.602,-482.910,-16.602,-600.586
1573890241.423,119.629,-26.367,-966.309,185.547,581.543
1573890241.427,129.395,-23.438,843.750,151.855,723.633
1573890241.431,17.578,-29.785,-635.254,-75.684,-373.535
1573890241.435,4.883,-31.250,-1000.000,-94.727,-752.930
1573890241.439,94.238,-28.809,404.785,138.184,238.770
1573890241.443,110.840,-47.363,-826.172,197.266,895.020
1573890241.447,32.227,-38.086,-81.055,-40.527,-114.746
1573890241.451,-31.250,-11.719,-1000.000,-149.414,-830.566
1573890241.455,31.738,-17.578,-97.656,47.363,-127.441
1573890241.459,112.305,-20.996,-766.602,171.387,958.984
1573890241.463,55.176,-15.625,212.402,27.832,253.906
1573890241.466,-19.043,-35.156,-1000.000,-126.465,-788.086
1573890241.470,46.875,-41.016,-253.418,20.996,-418.945
1573890241.474,129.395,-29.297,-804.199,203.613,811.035
1573890241.478,71.289,-36.621,524.414,85.449,577.148
1573890241.482,-14.160,-43.457,-1000.000,-115.723,-588.867
1573890241.486,16.113,-53.223,-575.684,-41.504,-659.668
1573890241.490,122.070,-46.387,972.656,181.641,511.230
1573890241.494,126.953,-33.203,909.180,167.969,750.488
1573890241.498,22.461,-28.809,-568.359,-66.406,-405.762
1573890241.502,10.254,-34.668,-1000.000,-84.961,-877.441
1573890241.506,91.797,-37.109,356.445,160.156,119.141
1573890241.509,132.324,-22.461,-816.895,208.496,951.660
1573890241.513,59.570,-29.297,-73.730,-6.348,-55.664
1573890241.517,8.789,-37.109,-1000.000,-114.746,-927.246
1573890241.521,87.891,-0.977,-116.699,74.707,-284.180
1573890241.525,145.020,22.949,-768.555,224.609,906.250
1573890241.529,74.219,20.996,291.016,65.430,328.613
1573890241.533,-6.348,19.531,-1000.000,-121.094,-726.074
1573890241.537,35.645,24.414,-324.219,-2.441,-471.191
1573890241.541,127.441,21.484,-829.102,210.938,729.004
1573890241.545,98.145,30.762,566.406,133.789,613.281
1573890241.548,-5.371,43.457,-978.027,-117.188,-528.809
1573890241.552,-7.324,32.715,-714.355,-79.102,-715.820
1573890241.556,93.750,25.879,799.316,172.852,411.133
1573890241.560,106.445,24.902,-961.426,160.156,796.387
1573890241.564,5.859,25.879,-372.559,-70.312,-278.320
1573890241.568,-10.742,33.203,-1000.000,-106.445,-757.812
1573890241.572,73.730,37.598,221.680,116.699,83.984
1573890241.576,103.027,20.020,-764.160,200.684,945.801
1573890241.580,20.996,16.113,128.418,-12.695,34.180
1573890241.584,-25.391,31.250,-1000.000,-145.996,-840.820
1573890241.588,41.992,25.391,-183.105,23.438,-274.902
1573890241.591,102.051,17.578,-769.043,186.035,898.438
1573890241.595,56.152,23.926,347.168,63.477,416.016
1573890241.599,-21.484,28.809,-1000.000,-134.766,-655.273
1573890241.603,4.883,22.949,-375.488,-45.410,-531.738
1573890241.607,99.609,21.973,-883.789,188.477,635.742
1573890241.611,93.750,31.250,758.789,123.047,649.902
1573890241.615,6.348,42.480,-792.480,-109.863,-534.180
1573890241.619,7.812,31.250,-768.555,-76.172,-775.391
1573890241.623,95.215,14.160,747.070,144.531,321.289
1573890241.627,113.770,28.320,-873.047,158.203,856.445
1573890241.631,20.996,34.668,-183.105,-66.895,-229.980
1573890241.634,-10.254,21.484,-1000.000,-150.879,-914.551
1573890241.638,72.754,21.484,115.723,76.660,-69.824
1573890241.642,122.559,28.320,-752.930,212.402,959.473
1573890241.646,43.945,28.320,162.598,10.254,131.836
1573890241.650,-24.414,23.926,-1000.000,-139.648,-812.500
1573890241.654,53.223,22.461,-191.406,25.391,-376.953
1573890241.658,135.742,25.391,-771.973,194.824,834.961
1573890241.662,96.680,23.438,378.418,71.289,432.129
1573890241.666,-13.672,13.672,-1000.000,-128.906,-728.027
1573890241.670,-8.301,8.789,-456.055,-44.922,-643.066
1573890241.673,116.211,1.465,-949.219,188.965,559.570
1573890241.677,113.281,14.160,846.680,139.160,717.285
1573890241.681,15.625,28.320,-651.367,-104.004,-423.340
1573890241.685,-4.395,21.484,-958.984,-80.078,-793.457
1573890241.689,81.055,18.066,528.320,161.133,240.234
1573890241.693,136.230,17.578,-887.695,187.500,854.492
1573890241.697,31.738,22.461,-231.445,-54.688,-221.191
1573890241.701,-30.762,19.043,-1000.000,-140.625,-895.996
1573890241.705,64.453,10.254,6.836,83.984,-120.117
1573890241.709,123.047,-5.371,-758.301,221.680,963.867
1573890241.713,31.250,-14.648,239.746,11.719,229.004
1573890241.716,-35.156,9.766,-1000.000,-153.809,-772.461
1573890241.720,24.902,20.020,-244.629,7.812,-420.410
1573890241.724,104.980,18.555,-805.664,193.359,795.410
1573890241.728,88.379,21.484,587.402,97.168,552.246
1573890241.732,-16.602,12.695,-983.398,-124.023,-602.051
1573890241.736,8.789,9.766,-539.551,-63.965,-619.141
1573890241.740,109.375,4.395,971.680,160.156,517.578
1573890241.744,97.656,-9.277,-990.234,135.254,757.812
1573890241.748,14.648,1.465,-392.090,-91.797,-376.465
1573890241.752,-10.254,6.348,-999.512,-131.836,-823.242
1573890241.756,66.895,-2.930,408.203,94.727,178.711
1573890241.759,112.793,0.977,-770.020,179.688,929.688
1573890241.763,18.066,13.672,62.012,-44.434,-65.918
1573890241.767,-40.039,11.230,-1000.000,-160.156,-875.977
1573890241.771,47.363,-2.441,-61.523,40.527,-221.191
1573890241.775,113.770,4.883,-748.535,187.988,929.199
1573890241.779,67.871,20.020,283.203,38.574,323.242
1573890241.783,-11.719,-9.766,-1000.000,-136.230,-690.430
1573890241.787,22.949,-15.137,-287.598,-21.484,-430.176
1573890241.791,116.211,11.719,-820.801,193.848,746.582
1573890241.795,83.984,14.160,628.418,106.445,608.398
1573890241.798,-18.555,9.277,-946.289,-126.465,-550.781
1573890241.802,-9.766,-3.906,-623.047,-83.496,-684.570
1573890241.806,93.262,-2.441,932.617,147.949,448.730
1573890241.810,107.910,4.883,965.820,155.273,785.645
1573890241.814,14.160,4.883,-464.355,-85.449,-292.969
1573890241.818,-26.367,-3.418,-1000.000,-136.230,-803.223
1573890241.822,65.430,-1.465,288.086,93.262,75.684
1573890241.826,121.582,6.348,-786.621,185.059,937.012
1573890241.830,40.039,9.277,12.695,-13.672,9.277
1573890241.834,-27.832,2.441,-1000.000,-140.137,-846.680
1573890241.838,46.387,-8.789,-138.672,37.109,-293.457
1573890241.841,120.605,-6.836,-768.555,196.289,899.414
1573890241.845,58.594,0.488,351.074,50.293,393.555
1573890241.849,-36.621,-2.930,-1000.000,-149.902,-720.703
1573890241.853,-4.395,-10.254,-371.582,-42.480,-539.062
1573890241.857,97.656,-3.906,-866.211,175.781,666.504
1573890241.861,81.055,0.000,700.684,104.492,662.109
1573890241.865,-21.484,0.977,-840.332,-131.836,-497.559
1573890241.869,-19.043,4.395,-813.965,-90.332,-773.438
1573890241.873,86.426,-9.766,704.102,162.598,344.727
1573890241.877,105.957,-3.906,-934.082,186.035,823.242
1573890241.881,4.883,13.184,-286.133,-49.805,-249.512
1573890241.884,-32.227,-2.930,-1000.000,-136.719,-832.520
1573890241.888,45.898,-10.742,9.277,68.359,-41.016
1573890241.892,95.703,-0.488,-771.973,184.082,938.965
1573890241.896,26.855,2.930,155.762,0.000,118.164
1573890241.900,-29.785,2.441,-1000.000,-144.043,-824.219
1573890241.904,45.898,4.395,-207.031,14.648,-352.539
1573890241.908,120.605,6.348,-777.344,188.477,860.840
1573890241.912,69.824,7.812,345.703,55.664,465.332
1573890241.916,-34.180,4.395,-1000.000,-136.230,-672.363
1573890241.920,-6.348,1.465,-497.559,-37.109,-577.637
1573890241.923,109.863,8.789,-962.891,180.664,616.699
1573890241.927,104.492,13.184,777.832,137.695,715.332
1573890241.931,2.441,4.395,-757.812,-106.445,-410.156
1573890241.935,-10.742,-4.395,-938.477,-121.582,-741.211
1573890241.939,80.566,-0.977,527.344,121.094,287.109
1573890241.943,113.770,21.973,-876.465,180.664,878.906
1573890241.947,37.109,32.227,-198.242,-46.875,-155.762
1573890241.951,-13.184,18.555,-1000.000,-129.883,-844.727
1573890241.955,62.988,8.789,-41.504,81.055,-95.215
1573890241.959,129.395,10.742,-775.879,213.867,970.215
1573890241.963,59.082,7.324,160.645,20.508,188.965
1573890241.966,-20.996,7.324,-1000.000,-150.391,-775.391
1573890241.970,28.320,7.812,-313.477,4.395,-349.609
1573890241.974,117.676,-1.465,-818.848,198.730,815.918
1573890241.978,85.938,3.418,375.488,88.379,508.789
1573890241.982,-15.137,7.324,-1000.000,-128.418,-630.859
1573890241.986,8.301,-3.906,-645.020,-49.316,-631.836
1573890241.990,114.258,-3.418,919.922,182.617,533.691
1573890241.994,105.957,11.230,700.684,149.414,728.516
1573890241.998,-2.441,16.602,-810.059,-107.910,-403.320
1573890242.002,-19.531,12.695,-1000.000,-116.211,-803.711
1573890242.006,79.102,15.137,299.805,135.254,198.242
1573890242.009,109.375,16.602,-855.957,193.359,921.387
1573890242.013,22.461,12.695,-156.250,-27.344,-89.355
1573890242.017,-22.949,2.930,-1000.000,-138.672,-868.652
1573890242.021,47.852,13.184,-105.957,59.570,-186.035
1573890242.025,111.328,28.809,-779.297,208.496,949.219
