timestamps,TP9,AF7,AF8,TP10,Right AUX
1573890394.713,164.062,6.348,-937.988,218.750,812.012
1573890394.716,66.406,7.324,-323.730,-7.324,-270.508
1573890394.720,28.320,10.254,-1000.000,-68.848,-817.383
1573890394.724,123.047,11.230,206.055,150.879,32.227
1573890394.728,173.340,5.859,-764.648,255.371,959.473
1573890394.732,84.961,7.812,107.910,53.711,73.242
1573890394.736,18.555,19.043,-1000.000,-85.938,-814.453
1573890394.740,81.055,13.184,-168.457,82.520,-285.645
1573890394.744,153.320,7.324,-770.508,243.652,881.836
1573890394.748,97.168,13.184,390.137,105.957,424.316
1573890394.752,6.836,10.742,-1000.000,-83.496,-671.875
1573890394.756,45.898,9.277,-413.086,17.578,-524.902
1573890394.759,142.578,17.578,-908.691,228.027,631.348
1573890394.763,121.094,21.484,809.570,169.922,694.824
1573890394.767,17.578,11.719,-696.289,-56.152,-415.039
1573890394.771,17.090,7.812,-906.250,-43.945,-721.191
1573890394.775,120.605,7.324,579.590,186.035,297.363
1573890394.779,134.766,2.930,-861.816,217.773,870.605
1573890394.783,25.391,6.348,-163.086,-8.301,-217.773
1573890394.787,-14.648,9.277,-1000.000,-78.125,-875.000
1573890394.791,71.777,7.324,-33.691,120.605,-41.016
1573890394.795,123.535,4.883,-760.254,230.957,968.750
1573890394.798,50.781,11.230,220.703,63.965,215.332
1573890394.802,-21.484,13.184,-1000.000,-88.379,-744.141
1573890394.806,37.598,10.742,-224.121,54.199,-348.145
1573890394.810,124.023,13.672,-780.762,231.934,834.473
1573890394.814,83.496,8.789,438.477,116.699,491.211
1573890394.818,-7.812,4.395,-1000.000,-84.961,-679.199
1573890394.822,21.973,10.742,-484.375,-6.348,-657.715
1573890394.826,113.770,16.602,-957.520,201.660,553.711
1573890394.830,103.027,21.973,851.562,165.039,721.191
1573890394.834,7.324,21.973,-648.926,-59.082,-468.262
1573890394.838,-11.719,13.672,-972.656,-83.008,-858.887
1573890394.841,87.402,13.184,485.840,141.602,190.430
1573890394.845,123.047,24.902,-838.867,205.078,899.902
1573890394.849,32.227,28.320,-123.535,-10.254,-118.652
1573890394.853,-17.090,26.855,-1000.000,-110.840,-847.656
1573890394.857,64.453,29.785,-58.594,86.426,-157.715
1573890394.861,130.371,32.715,-763.672,221.191,930.664
1573890394.865,61.035,37.598,248.047,47.363,263.184
1573890394.869,-19.531,34.180,-1000.000,-130.859,-787.598
1573890394.873,35.645,34.668,-321.289,3.906,-455.078
1573890394.877,127.441,39.062,-822.754,200.684,765.625
1573890394.881,87.891,34.668,514.160,105.957,564.941
1573890394.884,-8.789,36.621,-1000.000,-99.121,-534.668
1573890394.888,14.648,44.922,-663.574,-36.621,-635.254
1573890394.892,116.211,50.781,882.812,183.594,467.773
1573890394.896,100.586,38.086,922.852,161.133,766.602
1573890394.900,-2.441,20.996,-553.711,-71.289,-381.348
1573890394.904,-10.742,23.438,-1000.000,-100.098,-830.078
1573890394.908,88.379,41.992,279.297,124.023,129.395
1573890394.912,124.023,41.992,-802.246,194.336,935.059
1573890394.916,31.738,32.227,15.625,-14.648,-2.441
1573890394.920,-26.367,31.250,-1000.000,-123.047,-843.262
1573890394.923,56.152,27.832,-172.852,65.430,-260.254
1573890394.927,130.371,31.738,-777.832,207.520,910.156
1573890394.931,56.152,35.645,276.367,49.316,363.281
1573890394.935,-33.691,33.203,-1000.000,-131.348,-729.980
1573890394.939,19.043,40.039,-377.930,-8.301,-501.465
1573890394.943,115.234,29.297,-857.910,189.453,694.336
1573890394.947,91.309,13.184,583.496,111.816,635.254
1573890394.951,0.000,32.227,-965.332,-92.773,-471.191
1573890394.955,10.742,49.316,-768.555,-57.617,-656.250
1573890394.959,108.398,32.715,761.230,165.039,410.156
1573890394.963,114.258,21.484,988.281,169.922,809.082
1573890394.966,6.348,26.367,-456.055,-60.059,-277.832
1573890394.970,-21.484,19.043,-1000.000,-114.258,-861.816
1573890394.974,84.961,22.949,136.719,105.957,6.348
1573890394.978,120.117,24.902,-780.273,198.730,967.285
1573890394.982,15.625,20.996,80.566,-6.348,61.035
1573890394.986,-40.527,25.879,-1000.000,-137.695,-817.383
1573890394.990,41.992,23.926,-183.105,36.133,-272.949
1573890394.994,112.793,28.320,-775.391,198.730,874.512
1573890394.998,60.547,37.109,301.270,67.383,432.617
1573890395.002,-26.855,27.832,-1000.000,-113.770,-657.227
1573890395.006,6.836,21.973,-439.941,-19.043,-548.340
1573890395.009,103.027,30.273,-902.832,185.547,632.812
1573890395.013,86.914,39.551,638.184,133.301,667.480
1573890395.017,-18.066,39.062,-893.066,-97.656,-513.184
1573890395.021,-27.832,29.785,-896.484,-87.402,-799.805
1573890395.025,85.449,31.250,604.980,146.973,295.898
1573890395.029,107.422,36.621,-976.074,169.922,849.609
1573890395.033,-2.930,36.133,-390.625,-59.082,-229.492
1573890395.037,-32.227,34.180,-1000.000,-125.488,-838.867
1573890395.041,61.523,40.039,-0.488,80.566,-24.902
1573890395.045,114.258,50.293,-773.926,188.477,959.473
1573890395.048,40.039,41.504,174.316,8.301,179.199
1573890395.052,-40.039,30.762,-1000.000,-137.695,-755.859
1573890395.056,22.949,29.785,-238.770,17.090,-335.449
1573890395.060,109.863,39.551,-787.598,199.219,829.102
1573890395.064,55.664,43.457,373.535,78.125,498.047
1573890395.068,-44.434,39.062,-1000.000,-120.605,-603.027
1573890395.072,-18.066,35.645,-597.168,-43.457,-602.539
1573890395.076,80.078,22.949,929.688,157.715,538.574
1573890395.080,75.684,24.414,837.891,122.559,723.633
1573890395.084,-28.320,25.879,-697.266,-97.168,-385.742
1573890395.088,-35.645,22.949,-978.027,-97.168,-761.719
1573890395.091,62.500,37.109,462.891,131.836,232.422
1573890395.095,88.867,47.363,-834.961,181.641,887.695
1573890395.099,3.906,34.180,-99.609,-28.809,-102.051
1573890395.103,-51.270,26.367,-1000.000,-125.977,-813.477
1573890395.107,29.297,27.344,-72.754,61.035,-136.230
1573890395.111,98.145,29.785,-766.113,190.918,947.266
1573890395.115,20.508,29.785,204.590,20.508,268.066
1573890395.119,-57.617,18.555,-1000.000,-142.090,-741.211
1573890395.123,6.348,16.113,-271.973,3.906,-436.523
1573890395.127,85.449,25.879,-802.734,190.430,763.672
1573890395.131,41.504,22.949,477.051,83.496,536.621
1573890395.134,-45.898,23.926,-1000.000,-123.047,-589.355
1573890395.138,-17.578,33.203,-563.965,-56.641,-615.723
1573890395.142,86.426,30.762,978.516,167.969,501.465
1573890395.146,84.473,25.879,876.953,155.762,789.062
1573890395.150,-15.137,25.391,-602.539,-69.824,-288.574
1573890395.154,-22.949,20.508,-1000.000,-99.609,-765.137
1573890395.158,84.961,20.996,323.242,124.512,150.391
1573890395.162,124.512,29.297,-825.684,193.848,908.203
1573890395.166,38.574,34.180,-78.125,-11.719,-7.812
1573890395.170,-19.043,32.715,-1000.000,-119.629,-820.801
1573890395.173,55.664,32.715,-119.141,65.918,-235.840
1573890395.177,124.023,37.109,-771.973,202.148,920.898
1573890395.181,54.199,30.762,264.160,44.434,295.410
1573890395.185,-33.691,16.602,-1000.000,-120.605,-742.676
1573890395.189,15.137,18.555,-360.840,-7.324,-480.957
1573890395.193,107.422,31.250,-842.285,188.965,698.242
1573890395.197,79.590,40.527,527.344,113.770,595.215
1573890395.201,-20.020,41.504,-990.723,-103.027,-555.176
1573890395.205,-14.160,39.551,-822.266,-60.059,-714.355
1573890395.209,90.820,43.945,674.805,164.062,378.906
1573890395.213,102.051,44.922,-988.770,165.527,810.059
1573890395.216,-18.066,33.203,-419.922,-66.895,-276.367
1573890395.220,-51.270,22.949,-1000.000,-122.559,-812.012
1573890395.224,55.664,20.508,72.266,94.727,43.457
1573890395.228,98.145,21.484,-782.227,184.082,932.129
1573890395.232,7.812,22.949,110.352,-12.207,89.844
1573890395.236,-51.270,16.602,-1000.000,-137.695,-754.395
1573890395.240,24.902,21.484,-185.547,33.691,-250.000
1573890395.244,99.609,37.109,-775.879,187.012,877.930
1573890395.248,37.109,31.738,290.039,46.875,393.066
1573890395.252,-51.758,21.973,-1000.000,-140.137,-685.547
1573890395.256,-6.348,22.461,-463.379,-41.992,-485.840
1573890395.259,93.750,36.133,-911.621,160.645,664.062
1573890395.263,75.684,45.410,626.953,100.098,668.945
1573890395.267,-24.902,40.039,-928.223,-114.746,-457.031
1573890395.271,-24.414,33.203,-849.609,-93.750,-730.957
1573890395.275,77.637,33.203,629.395,132.812,329.102
1573890395.279,92.773,44.922,-911.621,160.645,858.887
1573890395.283,-10.254,34.668,-279.297,-60.547,-167.480
1573890395.287,-44.434,25.391,-1000.000,-129.395,-804.199
1573890395.291,55.664,39.062,43.457,75.195,-29.297
1573890395.295,115.723,47.363,-773.438,183.594,939.453
1573890395.298,32.227,42.480,124.023,1.953,129.395
1573890395.302,-41.504,37.109,-1000.000,-138.184,-784.668
1573890395.306,26.367,44.434,-216.309,15.137,-338.867
1573890395.310,112.305,50.293,-782.715,190.430,842.285
1573890395.314,59.570,37.598,316.895,64.453,491.699
1573890395.318,-37.598,29.297,-1000.000,-143.555,-613.770
1573890395.322,-1.953,37.598,-480.469,-53.223,-554.688
1573890395.326,102.051,32.227,-970.215,164.062,582.520
1573890395.330,88.867,33.203,814.941,121.582,716.309
1573890395.334,-19.043,34.668,-703.613,-101.074,-394.531
1573890395.338,-26.367,33.203,-943.848,-99.609,-783.203
1573890395.341,82.520,49.316,499.023,129.395,227.539
1573890395.345,108.887,54.199,-832.520,174.805,874.512
1573890395.349,12.207,41.016,-86.914,-41.016,-106.934
1573890395.353,-28.809,35.645,-1000.000,-119.141,-802.734
1573890395.357,64.941,45.410,-29.297,82.031,-134.766
1573890395.361,127.441,43.457,-754.883,206.055,925.293
1573890395.365,44.434,33.691,233.887,27.344,232.910
1573890395.369,-26.855,33.203,-1000.000,-130.371,-740.723
1573890395.373,39.062,37.598,-266.113,13.672,-395.508
1573890395.377,130.859,41.992,-807.617,192.871,780.762
1573890395.381,95.215,46.875,541.992,87.891,544.922
1573890395.384,0.977,54.688,-1000.000,-117.188,-583.496
1573890395.388,25.391,55.664,-551.758,-51.270,-615.723
1573890395.392,123.047,55.176,972.656,161.133,506.348
1573890395.396,118.164,50.781,974.121,138.184,765.625
1573890395.400,17.578,41.992,-456.543,-75.684,-333.008
1573890395.404,4.883,42.969,-1000.000,-96.191,-788.086
1573890395.408,103.027,54.688,359.375,116.211,154.785
1573890395.412,135.742,59.570,-768.066,179.688,921.387
1573890395.416,36.133,47.363,64.941,-32.227,-1.953
1573890395.420,-26.855,37.109,-1000.000,-143.555,-778.809
1573890395.423,59.082,31.250,-102.051,42.480,-190.430
1573890395.427,129.395,30.762,-754.883,183.105,921.387
1573890395.431,53.711,36.133,291.504,29.785,328.613
1573890395.435,-36.133,29.297,-1000.000,-139.648,-691.895
1573890395.439,12.695,34.180,-335.938,-19.043,-443.359
1573890395.443,108.398,42.480,-825.195,176.758,720.703
1573890395.447,76.172,37.109,542.480,95.215,569.824
1573890395.451,-25.391,45.410,-1000.000,-121.094,-561.035
1573890395.455,-17.578,51.270,-637.695,-77.637,-661.621
1573890395.459,79.590,41.992,875.000,144.043,423.340
1573890395.463,87.891,48.340,-981.934,140.137,817.871
1573890395.466,-12.695,36.133,-387.207,-86.426,-241.699
1573890395.470,-46.387,16.113,-1000.000,-126.465,-763.672
1573890395.474,48.340,31.738,264.648,90.332,96.191
1573890395.478,94.238,45.898,-771.484,176.758,917.480
1573890395.482,8.301,45.410,75.684,-13.184,41.992
1573890395.486,-48.340,31.738,-1000.000,-137.207,-749.512
1573890395.490,25.391,13.672,-173.828,26.855,-240.234
1573890395.494,100.586,25.391,-770.996,182.617,887.207
1573890395.498,45.410,38.574,316.895,43.945,351.562
1573890395.502,-48.828,25.879,-1000.000,-148.438,-717.773
1573890395.506,1.465,25.879,-388.672,-36.621,-479.980
1573890395.509,108.398,32.715,-872.559,174.316,651.367
1573890395.513,80.566,23.438,654.297,109.863,614.746
1573890395.517,-17.578,21.973,-866.211,-107.910,-512.695
1573890395.521,-8.301,26.367,-888.184,-83.008,-706.055
1573890395.525,91.309,28.320,595.215,138.184,347.168
1573890395.529,103.516,29.297,-930.176,161.621,827.637
1573890395.533,-0.488,28.320,-304.199,-54.688,-181.641
1573890395.537,-30.762,27.344,-1000.000,-120.117,-780.762
1573890395.541,64.453,28.809,-22.949,83.496,-49.316
1573890395.545,110.352,38.574,-778.320,186.035,929.199
1573890395.548,29.297,42.480,139.648,1.465,120.605
1573890395.552,-42.480,40.527,-1000.000,-139.160,-790.039
1573890395.556,21.973,27.832,-221.191,15.137,-347.656
1573890395.560,107.422,25.391,-785.156,184.082,806.641
1573890395.564,66.895,38.574,382.812,73.730,464.355
1573890395.568,-27.832,41.504,-1000.000,-115.234,-652.344
1573890395.572,-6.348,36.133,-531.250,-36.133,-604.492
1573890395.576,88.379,41.016,-968.750,174.316,565.430
1573890395.580,72.754,45.410,720.215,131.348,709.473
1573890395.584,-28.809,35.156,-831.543,-92.285,-429.199
1573890395.588,-33.691,39.062,-913.086,-90.820,-763.184
1573890395.591,62.500,43.945,558.105,133.301,282.715
1573890395.595,86.426,42.480,-893.555,175.293,880.859
1573890395.599,-7.324,36.621,-231.934,-41.992,-156.250
1573890395.603,-48.340,28.809,-1000.000,-133.301,-825.684
1573890395.607,44.922,39.062,-69.336,63.965,-104.980
1573890395.611,103.516,44.922,-776.367,187.012,921.387
1573890395.615,35.156,38.574,202.148,23.438,192.871
1573890395.619,-36.621,38.574,-1000.000,-135.742,-791.992
1573890395.623,21.973,43.945,-305.664,-4.395,-413.574
1573890395.627,108.398,40.039,-810.059,180.176,788.086
1573890395.631,68.848,33.691,370.117,75.195,496.582
1573890395.634,-22.949,38.086,-1000.000,-125.000,-633.789
1573890395.638,-5.371,39.551,-561.523,-56.152,-626.465
1573890395.642,95.215,38.086,946.777,155.762,502.441
1573890395.646,90.820,40.039,901.367,128.418,768.555
1573890395.650,-14.160,39.062,-595.215,-92.773,-374.023
1573890395.654,-20.996,34.180,-1000.000,-104.004,-808.105
1573890395.658,96.191,48.828,400.879,128.418,208.008
1573890395.662,128.418,52.734,-811.035,193.359,902.344
1573890395.666,19.043,36.621,-22.461,-30.762,-20.508
1573890395.670,-35.645,32.227,-1000.000,-137.207,-710.938
1573890395.673,44.922,27.832,-134.766,54.199,-135.742
1573890395.677,112.793,33.203,-772.461,191.895,906.250
1573890395.681,47.852,40.039,258.301,39.062,288.574
1573890395.685,-38.574,27.832,-1000.000,-127.930,-717.773
1573890395.689,10.742,23.438,-410.645,-7.324,-474.121
1573890395.693,104.004,39.551,-877.930,182.617,690.430
1573890395.697,67.383,43.457,558.594,103.516,585.938
1573890395.701,-37.109,35.645,-1000.000,-108.398,-547.363
1573890395.705,-25.391,30.273,-692.383,-68.359,-655.273
1573890395.709,75.195,35.645,840.332,148.926,448.242
1573890395.713,76.660,37.109,965.332,146.973,791.016
1573890395.716,-26.855,32.227,-494.629,-69.336,-276.367
1573890395.720,-46.387,33.691,-1000.000,-112.793,-774.902
1573890395.724,57.129,35.645,229.980,103.516,106.445
1573890395.728,103.516,32.715,-780.273,190.430,932.617
1573890395.732,16.602,33.691,78.125,-4.395,58.594
1573890395.736,-38.086,31.738,-1000.000,-122.559,-758.301
1573890395.740,40.039,28.809,-158.691,47.852,-255.371
1573890395.744,122.070,42.480,-768.066,203.125,878.418
1573890395.748,63.965,49.316,278.809,64.941,382.812
1573890395.752,-31.738,37.598,-1000.000,-125.977,-693.848
1573890395.756,8.789,34.668,-385.254,-24.902,-515.137
1573890395.759,104.980,35.645,-861.328,179.199,656.250
1573890395.763,84.473,23.926,577.148,118.164,635.742
1573890395.767,-16.602,25.391,-949.707,-99.609,-478.516
1573890395.771,-8.789,43.945,-830.566,-76.660,-717.773
1573890395.775,96.191,41.992,673.340,149.902,324.707
1573890395.779,105.469,21.973,-999.512,164.551,809.082
1573890395.783,-1.953,24.902,-422.852,-65.430,-243.652
1573890395.787,-31.250,39.551,-1000.000,-118.652,-775.879
1573890395.791,62.500,47.852,68.848,93.750,15.625
1573890395.795,103.027,49.316,-771.973,183.105,927.734
1573890395.798,13.672,36.133,140.137,-5.371,114.258
1573890395.802,-59.570,14.160,-1000.000,-144.043,-772.949
1573890395.806,13.672,19.043,-215.332,20.508,-320.312
1573890395.810,98.145,25.879,-780.762,191.895,828.125
1573890395.814,45.898,24.414,331.543,61.523,451.172
1573890395.818,-42.969,28.809,-1000.000,-129.395,-628.418
1573890395.822,-4.883,34.668,-566.406,-37.109,-578.125
1573890395.826,95.215,36.133,979.492,167.969,566.406
1573890395.830,76.172,36.621,719.238,120.117,698.242
1573890395.834,-29.785,31.250,-831.055,-99.121,-445.801
1573890395.838,-35.645,21.973,-936.035,-97.168,-727.539
1573890395.841,61.523,24.414,500.977,125.977,295.410
1573890395.845,85.938,26.367,-858.887,168.457,884.277
1573890395.849,-8.301,21.484,-155.273,-36.133,-97.168
1573890395.853,-46.387,22.949,-1000.000,-120.117,-809.082
1573890395.857,45.410,34.180,-50.781,75.195,-102.051
1573890395.861,104.980,33.691,-769.043,192.383,939.941
1573890395.865,25.391,20.996,186.035,14.160,216.309
1573890395.869,-45.898,22.949,-1000.000,-129.395,-768.555
1573890395.873,19.531,26.367,-263.672,7.812,-395.020
1573890395.877,106.934,34.668,-796.875,180.664,803.223
1573890395.881,63.477,33.203,410.645,82.520,506.836
1573890395.884,-35.645,22.949,-1000.000,-122.559,-617.676
1573890395.888,-2.441,33.691,-612.305,-49.316,-614.258
1573890395.892,93.262,36.621,951.172,169.434,510.742
1573890395.896,83.496,20.508,789.551,133.789,725.586
1573890395.900,-12.207,17.578,-729.980,-88.867,-348.145
1573890395.904,-31.738,22.461,-1000.000,-104.492,-736.328
1573890395.908,66.406,23.926,336.914,115.723,193.359
1573890395.912,106.445,31.738,-851.562,182.129,900.391
1573890395.916,12.695,32.227,-116.699,-28.809,-51.270
1573890395.920,-38.574,21.484,-1000.000,-130.859,-780.273
1573890395.923,51.270,24.414,-99.609,67.383,-145.020
1573890395.927,113.770,29.785,-773.926,201.172,910.645
1573890395.931,33.203,23.438,196.289,32.715,263.672
1573890395.935,-44.922,23.438,-1000.000,-137.207,-734.863
1573890395.939,13.184,20.996,-315.430,-9.277,-416.504
1573890395.943,99.609,30.762,-825.684,181.152,747.070
1573890395.947,59.570,43.457,492.188,90.332,576.172
1573890395.951,-40.527,32.227,-1000.000,-121.094,-505.371
1573890395.955,-23.926,23.438,-683.105,-74.707,-615.234
1573890395.959,75.684,24.902,843.262,143.066,447.266
1573890395.963,75.684,27.344,955.078,132.812,775.391
1573890395.966,-25.391,32.715,-490.234,-88.867,-288.574
1573890395.970,-43.945,29.297,-1000.000,-120.605,-760.254
1573890395.974,53.223,28.809,169.922,92.773,115.723
1573890395.978,91.797,34.180,-800.293,161.621,915.039
1573890395.982,5.371,32.227,28.809,-36.133,7.812
1573890395.986,-59.082,30.762,-1000.000,-149.902,-774.414
1573890395.990,24.414,30.762,-151.367,37.109,-232.910
1573890395.994,106.445,33.203,-772.949,189.453,896.484
1573890395.998,35.156,34.668,267.578,29.297,367.676
1573890396.002,-48.340,38.574,-1000.000,-145.996,-711.426
1573890396.006,6.348,42.969,-433.105,-31.250,-506.836
1573890396.009,95.703,43.457,-903.320,163.574,669.922
1573890396.013,68.359,38.574,642.090,96.680,623.535
1573890396.017,-29.785,32.715,-935.059,-108.887,-497.070
1573890396.021,-18.066,31.250,-742.188,-71.289,-661.133
1573890396.025,90.820,29.785,765.137,145.020,388.184
1573890396.029,104.492,27.832,-930.664,162.109,818.848
1573890396.033,4.883,27.832,-300.293,-53.223,-241.211
1573890396.037,-36.133,29.297,-1000.000,-125.000,-837.891
1573890396.041,53.223,29.297,165.527,83.496,-4.395
1573890396.045,103.516,25.391,-760.742,187.988,952.148
1573890396.048,20.020,19.043,120.117,-3.906,79.590
1573890396.052,-39.062,20.508,-1000.000,-132.324,-851.562
1573890396.056,31.738,25.879,-187.012,34.180,-348.633
1573890396.060,114.746,41.992,-771.484,199.219,847.656
1573890396.064,60.547,39.551,326.172,63.965,416.992
1573890396.068,-34.180,30.273,-1000.000,-134.766,-673.340
1573890396.072,6.348,26.367,-386.230,-32.227,-528.809
1573890396.076,112.793,24.414,-895.996,184.570,619.629
1573890396.080,94.727,25.391,775.391,129.883,645.508
1573890396.084,-15.137,11.230,-746.582,-96.680,-477.051
1573890396.088,-20.996,3.418,-874.023,-86.426,-759.277
1573890396.091,87.891,16.113,603.516,140.625,272.949
1573890396.095,107.910,28.809,-845.215,166.016,870.605
1573890396.099,3.906,23.926,-124.023,-59.082,-137.695
1573890396.103,-41.992,12.207,-1000.000,-129.395,-790.527
1573890396.107,43.457,16.113,41.992,76.660,-71.777
1573890396.111,106.445,22.949,-757.324,191.895,935.547
1573890396.115,27.832,9.277,174.316,9.766,166.016
1573890396.119,-49.805,1.465,-1000.000,-142.578,-787.598
1573890396.123,17.090,14.648,-260.254,7.812,-366.699
1573890396.127,105.469,37.598,-798.828,181.152,813.965
1573890396.131,54.688,37.598,438.477,67.871,481.934
1573890396.134,-48.828,23.438,-1000.000,-131.836,-653.320
1573890396.138,-19.531,28.809,-565.430,-59.082,-622.070
1573890396.142,85.938,36.621,969.727,157.227,528.809
1573890396.146,81.055,35.156,889.160,126.953,750.977
1573890396.150,-19.531,30.273,-600.098,-93.262,-351.074
1573890396.154,-23.926,30.762,-1000.000,-98.633,-762.695
1573890396.158,84.961,41.992,375.000,125.488,218.262
1573890396.162,113.770,46.387,-804.688,178.711,922.363
1573890396.166,5.859,38.086,-50.781,-41.992,-80.078
1573890396.170,-46.387,33.691,-1000.000,-134.277,-809.082
1573890396.173,46.387,31.250,-67.383,63.965,-115.234
1573890396.177,110.840,40.039,-760.742,191.895,949.219
1573890396.181,41.016,36.621,241.699,29.297,303.711
1573890396.185,-28.809,33.203,-1000.000,-124.512,-698.730
1573890396.189,30.273,41.992,-311.035,11.230,-365.723
1573890396.193,114.746,37.598,-811.035,196.777,779.785
1573890396.197,77.637,39.551,450.684,104.004,564.941
1573890396.201,-13.184,47.852,-1000.000,-106.934,-555.176
1573890396.205,-3.418,39.062,-653.320,-63.965,-656.738
1573890396.209,91.797,39.062,879.883,152.344,463.379
1573890396.213,94.727,46.387,912.598,147.461,782.715
1573890396.216,-5.371,33.691,-561.035,-78.613,-250.977
1573890396.220,-21.484,26.855,-1000.000,-113.770,-726.562
1573890396.224,78.125,34.180,301.270,109.863,147.461
1573890396.228,110.840,36.133,-802.246,183.594,929.199
1573890396.232,19.531,25.879,-18.555,-21.484,-9.766
1573890396.236,-30.273,24.414,-1000.000,-133.301,-821.289
1573890396.240,49.805,43.457,-125.488,54.688,-218.262
1573890396.244,117.188,50.293,-769.531,199.707,899.414
1573890396.248,47.852,28.809,265.137,34.180,311.035
1573890396.252,-39.551,24.902,-1000.000,-142.578,-751.465
1573890396.256,4.395,30.762,-357.422,-21.973,-533.691
1573890396.259,92.773,23.438,-850.586,174.316,676.270
1573890396.263,61.523,22.461,590.820,95.215,625.977
1573890396.267,-36.621,6.348,-937.988,-119.141,-530.273
1573890396.271,-21.484,2.930,-819.824,-82.520,-734.863
1573890396.275,82.031,22.949,681.641,142.578,366.211
1573890396.279,96.191,38.086,-967.285,156.250,813.477
1573890396.283,-0.488,36.621,-384.766,-61.523,-245.605
1573890396.287,-41.992,26.855,-1000.000,-117.188,-805.664
1573890396.291,46.387,29.297,88.379,84.961,29.297
1573890396.295,100.586,33.203,-770.508,186.035,952.637
1573890396.298,18.066,32.227,121.094,2.930,86.914
1573890396.302,-43.945,26.367,-1000.000,-132.812,-805.176
1573890396.306,36.133,23.438,-213.867,35.156,-315.918
1573890396.310,114.258,28.320,-779.785,194.336,860.840
1573890396.314,63.965,26.855,350.586,61.035,398.438
1573890396.318,-25.879,27.832,-1000.000,-130.371,-690.918
1573890396.322,5.859,33.203,-423.828,-34.180,-544.922
1573890396.326,113.281,49.316,-901.367,185.547,609.375
1573890396.330,101.074,52.246,719.727,134.766,667.969
1573890396.334,-6.348,36.621,-808.594,-96.191,-461.426
1573890396.338,-7.324,33.203,-905.762,-86.426,-705.566
1573890396.341,98.633,28.320,582.031,143.066,330.078
1573890396.345,122.070,28.809,-894.043,174.805,856.934
1573890396.349,22.949,36.621,-262.207,-50.293,-154.785
1573890396.353,-22.461,41.992,-1000.000,-119.629,-812.500
1573890396.357,68.848,42.969,36.133,97.168,-67.383
1573890396.361,131.836,42.480,-773.926,209.961,946.289
1573890396.365,48.828,39.551,142.090,20.996,155.273
1573890396.369,-24.414,30.273,-1000.000,-125.977,-777.832
1573890396.373,47.852,27.832,-250.000,32.227,-326.660
1573890396.377,124.023,31.250,-792.969,204.590,839.844
1573890396.381,70.312,34.180,348.145,82.520,493.164
1573890396.384,-23.926,34.180,-1000.000,-113.770,-613.770
1573890396.388,0.000,25.391,-521.484,-37.598,-567.871
1573890396.392,102.539,22.949,-995.605,182.129,555.176
1573890396.396,89.844,28.320,798.340,145.020,742.188
1573890396.400,-18.555,24.902,-714.355,-87.402,-357.910
1573890396.404,-24.414,24.414,-979.980,-86.426,-772.461
1573890396.408,73.730,31.738,453.613,135.254,226.074
1573890396.412,99.121,30.273,-847.168,180.176,882.324
1573890396.416,8.301,23.926,-128.906,-29.785,-142.090
1573890396.420,-41.504,20.508,-1000.000,-124.023,-805.176
1573890396.423,43.457,21.973,-102.539,59.570,-132.812
1573890396.427,109.375,29.297,-771.973,186.035,901.367
1573890396.431,27.832,20.508,230.469,20.508,262.207
1573890396.435,-55.176,4.395,-1000.000,-145.020,-770.508
1573890396.439,1.953,7.324,-311.523,-12.207,-471.680
1573890396.443,94.727,20.508,-816.406,177.734,753.906
1573890396.447,58.105,26.367,473.633,87.891,555.664
1573890396.451,-38.574,22.461,-1000.000,-115.723,-566.406
1573890396.455,-16.113,15.625,-616.699,-60.547,-605.469
1573890396.459,81.055,20.508,924.316,151.855,500.488
1573890396.463,81.543,24.414,889.160,141.602,749.512
1573890396.466,-17.090,18.555,-591.797,-75.684,-349.121
1573890396.470,-38.574,15.625,-1000.000,-104.004,-793.457
1573890396.474,67.871,25.879,285.156,115.234,131.836
1573890396.478,109.375,24.902,-805.176,181.641,915.527
1573890396.482,16.113,21.484,-10.742,-20.996,-81.055
1573890396.486,-35.156,30.273,-1000.000,-129.395,-887.695
1573890396.490,45.898,41.504,-133.301,52.246,-230.469
1573890396.494,121.094,38.086,-770.020,201.660,916.016
1573890396.498,54.199,25.391,248.047,46.875,309.082
1573890396.502,-35.156,28.320,-1000.000,-126.465,-733.887
1573890396.506,10.742,28.320,-351.562,-7.812,-455.566
1573890396.509,101.562,27.344,-838.379,184.570,708.008
1573890396.513,67.871,27.832,496.582,106.445,613.281
1573890396.517,-28.809,13.184,-1000.000,-104.004,-479.004
1573890396.521,-20.020,13.672,-750.977,-69.336,-660.156
1573890396.525,79.102,33.691,765.137,144.531,414.062
1573890396.529,92.773,33.691,979.004,145.996,789.062
1573890396.533,-7.812,25.391,-463.379,-77.148,-326.172
1573890396.537,-33.691,26.367,-1000.000,-122.559,-845.703
1573890396.541,67.871,30.273,140.625,93.262,35.156
1573890396.545,119.141,33.203,-774.414,187.500,932.129
1573890396.548,27.832,30.762,102.539,-5.859,79.590
1573890396.552,-36.621,21.973,-1000.000,-130.859,-816.406
1573890396.556,38.574,20.508,-169.922,36.621,-294.434
1573890396.560,111.328,13.672,-770.020,185.547,897.461
1573890396.564,49.316,15.625,303.711,51.758,409.668
1573890396.568,-45.410,22.949,-1000.000,-131.348,-695.801
1573890396.572,-10.254,20.996,-470.215,-40.039,-543.457
1573890396.576,80.078,18.555,-939.453,154.785,624.512
1573890396.580,58.105,17.578,684.082,96.680,666.504
1573890396.584,-44.434,15.137,-869.629,-116.211,-461.914
1573890396.588,-42.480,9.766,-872.070,-90.332,-718.262
1573890396.591,66.895,15.625,614.258,138.672,329.590
1573890396.595,84.961,27.344,-901.367,164.551,843.750
1573890396.599,-10.742,28.809,-252.441,-54.199,-189.941
1573890396.603,-47.852,17.578,-1000.000,-120.117,-802.246
1573890396.607,42.480,18.066,33.691,87.891,-24.902
1573890396.611,104.004,35.156,-770.020,193.848,951.660
1573890396.615,16.602,30.762,148.926,10.254,175.781
1573890396.619,-58.594,15.137,-1000.000,-135.742,-742.676
1573890396.623,18.555,19.043,-248.535,20.020,-353.516
1573890396.627,107.422,29.297,-792.480,200.195,822.754
1573890396.631,58.594,23.438,402.832,84.473,507.812
1573890396.634,-31.250,20.020,-1000.000,-114.258,-592.285
1573890396.638,0.488,30.273,-493.652,-37.109,-534.180
1573890396.642,99.609,28.320,-948.242,176.758,582.520
1573890396.646,92.285,11.719,770.508,140.625,710.938
1573890396.650,-2.441,27.344,-756.836,-84.473,-390.625
1573890396.654,-10.742,41.016,-960.449,-91.309,-736.816
1573890396.658,84.473,34.180,499.023,127.441,262.695
1573890396.662,108.398,32.715,-883.301,175.781,868.652
1573890396.666,11.719,25.879,-208.496,-34.180,-150.879
1573890396.670,-31.738,24.414,-1000.000,-119.141,-808.105
1573890396.673,60.059,30.762,-15.625,76.660,-93.262
1573890396.677,124.023,33.691,-767.090,198.730,924.805
1573890396.681,43.945,37.109,171.875,26.855,225.098
1573890396.685,-36.133,32.227,-1000.000,-129.395,-726.562
1573890396.689,27.344,24.902,-250.977,9.766,-399.414
1573890396.693,114.258,36.133,-807.129,187.012,769.043
1573890396.697,64.941,35.156,524.902,81.055,570.312
1573890396.701,-42.969,18.066,-1000.000,-129.395,-532.227
1573890396.705,-20.508,17.578,-549.805,-62.012,-606.445
1573890396.709,83.496,25.391,974.609,160.645,497.070
1573890396.713,82.520,23.438,954.102,129.883,753.418
1573890396.716,-21.973,19.043,-497.559,-99.121,-320.312
1573890396.720,-37.109,21.484,-1000.000,-121.094,-733.398
1573890396.724,65.430,22.461,385.742,99.609,179.199
1573890396.728,97.656,20.996,-787.598,171.875,900.879
1573890396.732,7.812,20.508,43.457,-32.227,-24.414
1573890396.736,-49.316,16.113,-1000.000,-141.113,-776.367
1573890396.740,27.832,20.996,-116.699,47.852,-181.152
1573890396.744,96.191,27.344,-762.207,184.570,915.527
1573890396.748,22.461,22.949,263.672,18.555,313.477
1573890396.752,-60.059,14.648,-1000.000,-151.367,-702.148
1573890396.756,-0.488,20.020,-375.977,-29.785,-489.746
1573890396.759,98.633,36.133,-860.840,169.922,680.176
1573890396.763,69.824,38.086,611.816,99.121,604.980
1573890396.767,-32.715,36.133,-969.727,-115.723,-535.156
1573890396.771,-17.578,29.297,-655.762,-72.266,-647.461
1573890396.775,89.355,30.762,871.582,155.273,444.336
1573890396.779,91.309,43.457,-990.234,153.320,789.062
1573890396.783,-11.230,47.363,-395.020,-72.266,-267.090
1573890396.787,-36.133,43.457,-1000.000,-108.887,-754.395
1573890396.791,63.965,38.574,226.074,100.586,74.219
1573890396.795,112.793,42.969,-777.344,187.500,907.715
1573890396.798,17.578,51.758,57.617,-2.441,19.531
1573890396.802,-44.434,51.758,-1000.000,-128.906,-792.969
1573890396.806,32.715,54.199,-153.809,51.270,-250.488
1573890396.810,107.422,53.223,-769.531,208.496,864.258
1573890396.814,51.270,41.016,262.695,58.594,373.047
1573890396.818,-41.992,45.898,-1000.000,-128.418,-690.918
1573890396.822,3.418,56.152,-386.230,-19.531,-544.922
1573890396.826,105.957,65.430,-881.348,183.105,625.000
1573890396.830,76.660,60.547,668.457,110.840,648.926
1573890396.834,-28.320,48.828,-862.793,-102.051,-496.094
1573890396.838,-20.996,60.547,-872.559,-72.266,-754.395
1573890396.841,77.637,64.941,615.234,148.438,305.176
1573890396.845,92.285,61.035,-906.738,166.016,842.773
1573890396.849,-7.324,52.734,-291.504,-56.152,-174.805
1573890396.853,-41.016,40.039,-1000.000,-120.605,-795.898
1573890396.857,53.711,55.176,100.098,83.496,-16.602
1573890396.861,104.004,72.266,-764.160,178.711,907.715
1573890396.865,14.160,58.105,155.762,-8.301,114.746
1573890396.869,-54.199,45.898,-1000.000,-145.508,-779.297
1573890396.873,13.184,50.781,-247.559,7.812,-363.770
1573890396.877,88.867,56.641,-792.969,171.875,823.730
1573890396.881,44.922,65.430,383.301,52.246,496.094
1573890396.884,-40.039,58.594,-1000.000,-136.230,-618.164
1573890396.888,0.000,49.316,-541.504,-40.039,-580.078
1573890396.892,96.680,71.289,-988.281,163.574,583.984
1573890396.896,57.129,85.449,777.832,90.820,708.496
1573890396.900,-46.875,83.496,-754.395,-127.930,-384.277
1573890396.904,-43.945,88.379,-960.938,-123.047,-720.215
1573890396.908,43.457,97.656,492.188,84.961,262.695
1573890396.912,60.547,92.285,-871.094,116.211,882.812
1573890396.916,-45.410,81.055,-188.965,-112.305,-131.348
1573890396.920,-106.934,104.004,-1000.000,-215.332,-795.410
1573890396.923,-45.898,128.418,-43.457,-36.621,-88.867
1573890396.927,-7.812,143.066,-770.508,69.336,934.082
1573890396.931,-87.891,154.785,199.707,-114.258,232.910
1573890396.935,-171.387,164.551,-1000.000,-283.691,-746.094
1573890396.939,-118.652,164.551,-307.617,-160.156,-388.672
1573890396.943,-39.551,171.387,-812.988,11.230,791.992
1573890396.947,-99.609,183.594,411.133,-110.352,548.828
1573890396.951,-206.543,166.504,-1000.000,-336.914,-590.820
1573890396.955,-180.664,166.992,-621.582,-264.648,-659.180
1573890396.959,-84.961,207.520,926.758,-36.621,493.652
1573890396.963,-102.051,209.961,822.266,-75.195,762.207
1573890396.966,-196.289,197.754,-685.547,-290.527,-317.871
1573890396.970,-196.777,187.012,-1000.000,-290.039,-767.578
1573890396.974,-87.402,173.828,350.586,-69.336,163.574
1573890396.978,-61.523,179.688,-828.125,-14.648,889.160
1573890396.982,-148.438,191.895,-96.191,-218.750,-81.055
1573890396.986,-185.059,185.059,-1000.000,-304.199,-803.711
1573890396.990,-85.449,185.547,-72.754,-102.539,-166.504
1573890396.994,-0.488,175.781,-764.160,33.203,902.832
1573890396.998,-58.105,155.762,250.977,-106.445,274.902
1573890397.002,-131.836,159.180,-1000.000,-244.629,-774.414
1573890397.006,-65.430,138.184,-306.641,-109.863,-501.953
1573890397.009,42.969,115.234,-827.637,90.820,718.750
1573890397.013,17.578,113.281,582.031,19.531,606.445
1573890397.017,-86.426,100.098,-965.332,-189.941,-494.141
1573890397.021,-59.082,95.215,-700.684,-138.672,-666.992
1573890397.025,65.918,97.656,827.148,104.492,420.410
1573890397.029,81.543,96.680,992.188,115.723,791.992
1573890397.033,-12.207,99.609,-423.340,-111.816,-297.363
1573890397.037,-25.391,96.191,-1000.000,-137.695,-788.086
1573890397.041,79.590,88.379,144.043,87.402,90.820
1573890397.045,123.535,83.496,-773.926,174.316,925.293
1573890397.048,37.109,75.684,99.121,-14.648,42.969
1573890397.052,-23.438,69.824,-1000.000,-135.742,-764.160
1573890397.056,72.266,71.777,-144.531,63.965,-225.098
1573890397.060,144.531,64.453,-763.184,213.867,891.113
1573890397.064,63.477,67.871,344.727,51.758,383.301
1573890397.068,-15.137,72.754,-1000.000,-118.164,-645.996
1573890397.072,27.832,73.242,-351.562,-14.160,-475.586
1573890397.076,123.535,74.219,-846.191,190.430,661.621
1573890397.080,102.539,76.660,643.555,125.488,638.184
1573890397.084,4.395,62.988,-910.156,-88.379,-502.930
1573890397.088,11.230,67.383,-742.676,-46.387,-743.164
1573890397.091,118.652,88.867,773.438,176.270,342.285
1573890397.095,127.930,85.938,-918.945,178.711,845.703
1573890397.099,30.762,77.637,-293.945,-36.133,-210.449
1573890397.103,-7.324,77.148,-1000.000,-91.309,-795.410
1573890397.107,77.148,77.637,190.918,117.188,43.945
1573890397.111,139.648,87.891,-767.090,224.609,961.914
1573890397.115,59.082,86.914,99.609,27.344,98.145
1573890397.119,-23.926,73.730,-1000.000,-116.211,-799.805
1573890397.123,53.223,94.238,-213.379,48.340,-328.613
1573890397.127,149.414,113.281,-780.762,220.215,834.961
1573890397.131,85.938,101.074,328.125,83.496,413.086
1573890397.134,-18.066,89.355,-1000.000,-114.258,-634.766
1573890397.138,17.090,101.074,-416.504,-20.020,-509.277
1573890397.142,117.676,83.984,-919.922,180.664,598.145
1573890397.146,102.051,59.570,792.969,133.789,697.754
1573890397.150,1.953,88.867,-736.816,-80.078,-395.996
1573890397.154,3.418,84.473,-887.207,-72.266,-733.887
1573890397.158,101.562,74.219,600.098,151.367,271.484
1573890397.162,115.234,102.051,-856.934,182.617,870.605
1573890397.166,11.719,101.562,-140.137,-32.227,-145.996
1573890397.170,-30.762,70.312,-1000.000,-103.516,-828.125
1573890397.173,56.152,59.570,-20.996,94.727,-100.098
1573890397.177,117.188,98.145,-765.137,213.867,944.336
1573890397.181,45.410,111.816,208.008,36.133,190.430
1573890397.185,-34.668,101.562,-1000.000,-122.559,-812.988
1573890397.189,33.203,91.797,-324.219,24.414,-452.637
1573890397.193,126.953,97.168,-819.824,197.754,772.461
1573890397.197,75.684,104.004,439.941,88.379,506.836
1573890397.201,-17.090,76.660,-1000.000,-101.562,-626.953
1573890397.205,16.113,81.543,-554.688,-27.832,-605.957
1573890397.209,111.816,101.562,986.328,179.199,544.922
1573890397.213,100.098,99.609,853.516,145.020,726.562
1573890397.216,-4.395,107.422,-661.133,-75.195,-403.809
1573890397.220,-18.555,99.609,-995.605,-89.355,-792.480
1573890397.224,86.914,92.773,422.852,125.000,176.758
1573890397.228,124.512,102.539,-814.941,188.477,927.246
1573890397.232,20.508,99.121,-47.363,-18.066,-77.148
1573890397.236,-28.809,92.773,-1000.000,-125.000,-840.332
1573890397.240,64.453,104.492,-81.055,64.941,-140.625
1573890397.244,127.441,108.398,-763.672,208.984,923.340
1573890397.248,49.316,106.934,226.074,41.992,304.199
1573890397.252,-35.156,106.934,-1000.000,-134.277,-701.660
1573890397.256,21.484,94.727,-308.105,0.977,-439.453
1573890397.259,112.305,101.562,-813.477,192.383,752.441
1573890397.263,65.430,112.793,440.918,95.703,557.129
1573890397.267,-33.691,114.746,-1000.000,-107.422,-616.211
1573890397.271,-15.625,111.816,-655.762,-54.688,-723.145
1573890397.275,84.473,113.770,855.469,161.133,435.059
1573890397.279,94.238,126.953,969.727,155.273,787.598
1573890397.283,-9.277,115.723,-491.699,-66.406,-338.379
1573890397.287,-27.832,106.934,-1000.000,-92.285,-837.891
1573890397.291,66.406,93.262,276.855,126.953,110.840
1573890397.295,103.516,102.539,-780.273,199.707,927.246
1573890397.298,23.438,132.812,51.758,-3.906,-0.488
1573890397.302,-34.180,131.348,-1000.000,-122.559,-791.504
1573890397.306,34.668,116.699,-140.625,47.852,-218.262
1573890397.310,104.492,101.562,-766.602,191.406,906.738
1573890397.314,51.270,94.727,274.902,53.711,362.305
1573890397.318,-22.949,114.258,-1000.000,-115.723,-702.148
1573890397.322,16.602,124.023,-383.301,-12.207,-494.141
1573890397.326,103.516,115.723,-878.418,185.547,674.316
1573890397.330,76.660,113.770,648.926,119.629,651.367
1573890397.334,-23.438,108.887,-895.020,-97.168,-459.473
1573890397.338,-15.625,101.074,-829.590,-66.406,-695.801
1573890397.341,89.844,104.980,685.547,155.762,372.559
1573890397.345,96.191,102.539,-922.363,160.645,829.590
1573890397.349,-14.160,87.891,-315.918,-62.012,-230.469
1573890397.353,-36.133,96.680,-1000.000,-110.840,-792.480
1573890397.357,76.172,101.562,136.719,109.863,30.762
1573890397.361,119.629,92.285,-766.113,207.520,948.730
1573890397.365,27.832,89.355,127.441,14.160,108.398
1573890397.369,-30.273,110.352,-1000.000,-119.141,-781.250
1573890397.373,39.551,113.770,-184.082,40.039,-290.527
1573890397.377,112.793,91.797,-771.973,198.730,873.047
1573890397.381,62.988,113.281,399.414,73.730,442.383
1573890397.384,-30.273,109.375,-1000.000,-115.234,-648.926
1573890397.388,-0.488,105.469,-399.414,-26.855,-547.363
1573890397.392,102.051,114.746,-888.672,187.988,609.375
1573890397.396,82.031,105.469,780.273,137.695,698.730
1573890397.400,-25.391,101.074,-758.301,-94.238,-426.758
1573890397.404,-21.484,112.305,-865.234,-80.566,-713.379
1573890397.408,89.844,119.141,665.527,150.391,319.824
1573890397.412,107.910,110.352,-910.645,178.223,852.539
1573890397.416,5.371,108.887,-278.809,-42.969,-188.477
1573890397.420,-42.480,115.234,-1000.000,-125.488,-834.473
1573890397.423,37.109,108.887,57.129,73.242,-63.477
1573890397.427,98.145,108.398,-758.789,190.430,943.359
1573890397.431,30.273,122.559,200.684,17.090,179.688
1573890397.435,-45.410,115.723,-1000.000,-133.301,-706.055
1573890397.439,12.207,112.305,-234.863,12.695,-299.316
1573890397.443,93.750,117.188,-787.109,184.570,815.918
1573890397.447,55.176,119.141,445.801,75.195,515.625
1573890397.451,-27.344,125.488,-1000.000,-114.746,-607.422
1573890397.455,-10.742,135.742,-563.477,-47.363,-622.559
1573890397.459,84.473,136.719,973.633,165.527,512.695
1573890397.463,73.730,136.719,875.977,132.812,750.488
1573890397.466,-26.855,149.902,-609.375,-78.125,-377.930
1573890397.470,-19.043,149.902,-1000.000,-74.219,-839.844
1573890397.474,70.801,132.812,367.676,128.418,145.020
1573890397.478,90.820,139.160,-830.078,175.293,877.930
1573890397.482,-5.859,152.344,-74.707,-37.109,-98.145
1573890397.486,-56.641,157.227,-1000.000,-136.230,-851.562
1573890397.490,31.738,166.992,-117.676,51.758,-162.109
1573890397.494,77.148,158.203,-775.391,166.504,944.336
1573890397.498,-1.465,153.320,215.820,-4.883,284.180
1573890397.502,-62.500,156.738,-1000.000,-157.715,-701.172
1573890397.506,9.766,160.645,-384.766,-16.602,-426.758
1573890397.509,83.008,164.062,-852.539,158.203,745.117
1573890397.513,1.465,152.344,477.051,36.621,582.520
1573890397.517,-109.863,152.344,-1000.000,-185.547,-572.754
1573890397.521,-92.773,162.109,-716.309,-134.277,-651.367
1573890397.525,-0.488,175.781,822.266,83.496,462.891
1573890397.529,-10.742,161.621,882.812,68.359,806.152
1573890397.533,-129.883,156.738,-599.121,-183.105,-287.598
1573890397.537,-157.715,170.898,-1000.000,-229.492,-811.035
1573890397.541,-74.707,164.062,179.199,-18.555,136.230
1573890397.545,-52.246,164.062,-838.379,49.805,942.383
1573890397.548,-143.555,158.203,-92.285,-147.949,11.230
1573890397.552,-205.566,153.809,-1000.000,-267.090,-780.762
1573890397.556,-137.695,152.832,-159.668,-97.656,-201.660
1573890397.560,-63.477,147.949,-788.574,50.781,897.461
1573890397.564,-113.281,148.926,219.727,-84.473,371.582
1573890397.568,-190.430,146.973,-1000.000,-255.859,-694.824
1573890397.572,-145.996,145.020,-413.086,-140.137,-529.785
1573890397.576,-41.992,134.277,-880.371,70.312,673.340
1573890397.580,-53.223,126.953,512.695,15.625,611.816
1573890397.584,-145.996,118.164,-1000.000,-186.523,-532.227
1573890397.588,-118.652,105.957,-829.102,-139.160,-694.336
1573890397.591,10.254,93.262,647.949,102.539,381.348
1573890397.595,22.949,80.566,-985.840,116.211,836.426
1573890397.599,-68.359,71.289,-425.293,-93.750,-218.262
1573890397.603,-69.824,62.012,-1000.000,-125.000,-792.480
1573890397.607,48.340,65.918,103.516,100.098,44.922
1573890397.611,112.305,69.824,-775.879,207.520,926.758
1573890397.615,27.344,59.082,116.211,32.227,97.168
1573890397.619,-26.855,52.734,-1000.000,-87.891,-787.109
1573890397.623,63.965,46.875,-208.496,81.055,-323.242
1573890397.627,155.762,51.758,-782.227,258.301,864.746
1573890397.631,102.539,54.199,336.426,135.254,421.875
1573890397.634,14.648,31.738,-1000.000,-52.734,-671.387
1573890397.638,60.547,26.367,-513.672,55.664,-527.344
1573890397.642,166.504,40.039,-958.984,269.531,627.930
1573890397.646,154.785,48.340,700.684,212.891,654.785
1573890397.650,64.453,50.781,-867.188,1.465,-524.414
1573890397.654,74.219,45.410,-856.445,27.344,-757.324
1573890397.658,171.875,45.898,629.395,252.930,322.754
1573890397.662,193.848,48.340,-896.973,277.344,877.441
1573890397.666,100.586,47.363,-244.629,63.477,-201.172
1573890397.670,53.711,39.062,-1000.000,-16.602,-853.027
1573890397.673,140.137,36.133,26.855,177.734,-50.293
1573890397.677,205.566,36.621,-767.090,289.551,944.336
1573890397.681,123.047,36.133,173.828,105.957,197.754
1573890397.685,47.363,45.898,-1000.000,-39.062,-764.160
1573890397.689,112.305,47.363,-257.812,106.934,-377.441
1573890397.693,193.359,53.223,-792.969,274.414,820.801
1573890397.697,145.996,62.988,380.859,159.180,516.602
1573890397.701,49.805,58.105,-1000.000,-40.527,-616.211
1573890397.705,81.055,51.758,-520.996,33.203,-593.750
1573890397.709,183.594,53.223,-970.703,246.094,569.336
1573890397.713,161.621,59.570,737.305,203.613,738.770
1573890397.716,51.758,65.918,-787.109,-25.879,-415.039
1573890397.720,42.969,65.918,-965.332,-37.109,-791.992
1573890397.724,138.672,67.383,464.844,185.059,239.258
1573890397.728,169.922,78.613,-852.539,230.957,895.996
1573890397.732,71.777,73.242,-148.926,14.160,-111.816
1573890397.736,16.113,68.848,-1000.000,-71.777,-853.516
1573890397.740,105.957,73.730,-55.176,121.094,-138.672
1573890397.744,166.504,64.453,-771.973,242.676,918.945
1573890397.748,86.914,59.570,189.941,78.125,200.195
1573890397.752,11.230,62.500,-1000.000,-83.984,-779.785
1573890397.756,65.430,56.641,-328.613,52.734,-454.590
1573890397.759,145.020,62.500,-829.590,241.211,747.559
1573890397.763,104.492,69.336,482.910,134.277,569.336
1573890397.767,7.324,64.941,-1000.000,-74.707,-599.609
1573890397.771,33.691,70.312,-660.156,-12.207,-686.035
1573890397.775,133.789,60.059,875.977,200.684,476.074
1573890397.779,124.023,56.152,896.973,177.734,774.414
1573890397.783,19.531,69.824,-577.637,-52.246,-340.820
1573890397.787,0.488,65.918,-1000.000,-73.242,-788.574
1573890397.791,99.121,68.359,199.707,139.648,147.949
1573890397.795,135.254,66.895,-798.828,196.777,920.898
1573890397.798,48.340,51.758,26.855,-2.930,8.301
1573890397.802,-0.977,46.875,-1000.000,-107.422,-798.340
1573890397.806,76.172,51.758,-133.301,77.637,-223.633
1573890397.810,138.184,55.176,-766.113,221.191,925.293
1573890397.814,76.660,57.129,285.645,73.730,364.258
1573890397.818,-3.906,58.594,-1000.000,-98.145,-729.004
1573890397.822,48.828,46.875,-350.098,23.926,-497.559
1573890397.826,145.508,46.387,-839.355,219.727,705.566
1573890397.830,105.957,58.594,555.664,135.742,610.840
1573890397.834,0.000,46.387,-987.305,-77.148,-555.176
1573890397.838,19.531,39.062,-737.793,-38.086,-689.941
1573890397.841,129.395,48.828,791.992,180.664,437.012
1573890397.845,136.719,52.246,988.770,180.664,803.223
1573890397.849,38.086,58.594,-458.496,-39.062,-295.410
1573890397.853,9.277,55.176,-1000.000,-85.449,-824.219
1573890397.857,104.492,45.410,185.547,128.418,86.426
1573890397.861,149.902,53.711,-788.086,215.332,972.168
1573890397.865,56.641,54.688,42.969,11.719,55.664
1573890397.869,-14.648,43.457,-1000.000,-119.141,-830.566
1573890397.873,56.152,43.945,-187.988,50.293,-289.062
1573890397.877,139.160,51.270,-779.785,215.820,885.742
1573890397.881,82.520,50.781,281.738,80.078,445.312
1573890397.884,-11.230,43.945,-1000.000,-114.746,-666.016
1573890397.888,21.973,38.574,-394.043,-17.090,-528.320
1573890397.892,121.094,43.457,-881.348,192.383,670.898
1573890397.896,100.098,44.922,658.203,124.512,656.738
1573890397.900,-8.301,41.992,-881.836,-93.262,-473.633
1573890397.904,1.953,41.504,-850.098,-62.988,-719.727
1573890397.908,98.633,40.039,645.996,145.020,331.055
1573890397.912,101.074,41.016,-917.969,166.016,845.703
1573890397.916,10.742,41.992,-282.715,-41.504,-191.406
1573890397.920,-25.879,41.504,-1000.000,-99.121,-807.617
1573890397.923,60.059,39.062,24.414,96.191,-38.574
1573890397.927,128.906,32.715,-770.996,204.102,938.965
1573890397.931,58.594,35.156,164.551,35.645,118.652
1573890397.935,-23.438,41.504,-1000.000,-119.141,-785.156
1573890397.939,49.805,44.922,-264.160,37.109,-325.684
1573890397.943,135.254,55.176,-795.410,219.727,834.473
1573890397.947,78.613,55.664,388.184,96.191,484.863
1573890397.951,2.930,55.664,-1000.000,-90.820,-665.527
1573890397.955,38.086,54.688,-502.930,-18.555,-627.930
1573890397.959,130.859,46.387,-961.426,187.012,566.406
1573890397.963,123.047,48.828,761.230,163.086,708.496
1573890397.966,22.461,56.152,-767.578,-51.270,-437.988
1573890397.970,19.043,58.594,-952.148,-60.547,-730.469
1573890397.974,132.324,63.965,502.441,160.156,285.645
1573890397.978,169.434,78.613,-859.863,216.309,898.926
1573890397.982,61.523,80.078,-177.246,4.395,-140.625
1573890397.986,5.859,63.965,-1000.000,-96.680,-880.371
1573890397.990,95.703,58.594,-23.438,97.168,-124.023
1573890397.994,157.227,71.777,-761.230,231.934,953.613
1573890397.998,94.238,81.055,212.402,61.035,216.309
1573890398.002,20.020,69.824,-1000.000,-93.750,-741.699
1573890398.006,57.129,67.871,-256.836,51.270,-359.375
1573890398.009,138.672,76.660,-789.551,229.492,789.551
1573890398.013,96.191,75.684,409.668,115.723,527.832
1573890398.017,-2.441,68.359,-1000.000,-97.168,-611.816
1573890398.021,20.020,53.223,-529.297,-40.039,-651.855
1573890398.025,120.605,52.246,-990.234,180.664,505.371
1573890398.029,121.582,59.570,835.449,169.922,750.000
1573890398.033,6.836,55.664,-680.176,-64.941,-415.527
1573890398.037,-16.113,58.105,-979.492,-106.445,-836.426
1573890398.041,84.473,66.406,426.270,113.281,161.133
1573890398.045,100.586,61.523,-788.574,187.500,909.668
1573890398.048,-0.488,56.152,41.504,-24.414,-43.457
1573890398.052,-42.480,52.246,-1000.000,-142.578,-819.336
1573890398.056,46.875,50.293,-93.750,41.504,-185.547
1573890398.060,117.676,58.105,-755.859,189.941,921.387
1573890398.064,48.828,54.199,269.043,31.738,316.895
1573890398.068,-26.367,46.875,-1000.000,-142.090,-744.629
1573890398.072,21.973,47.363,-320.801,-19.043,-511.230
1573890398.076,107.422,48.828,-830.566,173.828,721.680
1573890398.080,80.078,50.293,575.684,96.191,590.820
1573890398.084,-17.578,44.922,-951.660,-115.723,-537.598
1573890398.088,3.906,46.387,-787.109,-71.777,-691.406
1573890398.091,103.027,53.223,723.633,150.391,406.250
1573890398.095,104.004,54.199,-974.121,154.785,788.574
1573890398.099,2.441,50.781,-412.598,-66.406,-292.969
1573890398.103,-27.832,49.316,-1000.000,-121.582,-758.301
1573890398.107,77.148,47.852,216.309,95.703,89.355
1573890398.111,121.094,48.828,-777.344,185.059,923.828
1573890398.115,23.438,54.199,82.520,-16.602,48.340
1573890398.119,-31.738,37.109,-1000.000,-126.465,-810.547
1573890398.123,47.363,24.902,-178.223,37.598,-260.742
1573890398.127,109.863,43.945,-771.484,172.852,899.902
1573890398.131,52.246,52.246,321.289,45.898,367.188
1573890398.134,-30.762,41.992,-1000.000,-131.836,-724.609
1573890398.138,11.230,42.969,-379.395,-31.738,-550.781
1573890398.142,106.934,51.758,-862.793,164.062,641.113
1573890398.146,80.566,48.828,644.043,97.656,659.668
1573890398.150,-17.090,44.922,-891.113,-107.910,-451.172
1573890398.154,-11.230,40.527,-856.934,-91.797,-697.754
1573890398.158,84.473,41.016,677.734,123.047,356.445
1573890398.162,100.098,44.922,-992.676,154.785,833.984
1573890398.166,-1.465,43.457,-443.359,-74.707,-230.957
1573890398.170,-42.969,38.574,-1000.000,-145.020,-813.965
1573890398.173,56.641,38.574,98.145,76.660,22.461
1573890398.177,111.816,40.039,-772.461,187.012,964.355
1573890398.181,26.855,38.086,132.324,-1.953,91.309
1573890398.185,-39.551,34.180,-1000.000,-141.602,-829.590
1573890398.189,31.250,32.227,-209.961,27.344,-337.891
1573890398.193,106.934,34.180,-780.762,196.289,854.004
1573890398.197,48.340,34.668,368.652,62.988,455.078
1573890398.201,-44.434,22.949,-1000.000,-129.883,-650.391
1573890398.205,-3.418,27.344,-527.344,-38.574,-558.594
1573890398.209,95.215,36.621,-980.469,169.922,606.445
1573890398.213,77.637,37.109,762.695,120.117,692.871
1573890398.216,-24.902,37.598,-777.344,-101.562,-434.570
1573890398.220,-25.391,41.504,-930.176,-91.309,-735.352
1573890398.224,92.773,48.828,513.184,140.625,268.555
1573890398.228,122.070,51.270,-854.004,180.664,855.469
1573890398.232,18.066,46.875,-127.930,-32.227,-143.066
1573890398.236,-20.508,42.969,-1000.000,-111.328,-800.781
1573890398.240,74.707,46.387,-71.777,84.961,-112.305
1573890398.244,130.859,41.504,-768.555,206.543,941.406
1573890398.248,47.852,35.156,190.430,34.668,234.375
1573890398.252,-21.973,50.781,-1000.000,-125.977,-756.836
1573890398.256,46.387,61.035,-251.465,19.531,-397.461
1573890398.259,125.977,50.781,-797.363,203.125,786.133
1573890398.263,82.031,43.945,460.449,95.215,551.758
1573890398.267,-11.719,41.016,-1000.000,-111.816,-587.891
1573890398.271,2.930,35.645,-540.039,-44.922,-656.250
1573890398.275,100.098,41.016,979.492,179.199,498.047
1573890398.279,97.656,37.109,926.758,149.414,759.277
1573890398.283,-4.395,31.250,-558.594,-73.730,-357.422
1573890398.287,-19.531,31.250,-987.793,-84.473,-759.277
1573890398.291,77.148,21.973,451.660,126.465,207.520
1573890398.295,110.352,29.297,-807.129,191.895,888.184
1573890398.298,16.602,32.227,-31.250,-2.441,-64.453
1573890398.302,-36.621,19.531,-1000.000,-110.840,-778.809
1573890398.306,51.270,23.438,-77.148,64.941,-173.340
1573890398.310,123.047,31.738,-759.766,199.219,910.156
1573890398.314,52.734,25.879,237.793,44.434,303.223
1573890398.318,-28.320,27.832,-1000.000,-124.023,-701.660
1573890398.322,24.414,32.715,-288.574,5.371,-435.547
1573890398.326,114.746,38.574,-819.336,203.613,738.281
1573890398.330,84.473,43.457,561.035,110.352,564.453
1573890398.334,-15.137,31.250,-990.723,-108.398,-567.871
1573890398.338,-8.301,26.855,-651.367,-58.594,-666.992
1573890398.341,90.332,35.645,895.020,164.062,433.105
1573890398.345,93.262,36.133,946.777,152.832,763.184
1573890398.349,-11.719,37.109,-512.207,-78.613,-340.332
1573890398.353,-31.250,24.902,-1000.000,-108.887,-767.578
1573890398.357,71.289,24.902,301.758,110.840,127.930
1573890398.361,110.840,42.480,-774.902,189.941,907.227
1573890398.365,24.414,43.945,85.449,-4.395,26.367
1573890398.369,-39.551,33.203,-1000.000,-126.953,-805.176
1573890398.373,33.203,31.250,-162.598,46.387,-278.809
1573890398.377,107.422,29.785,-769.043,204.102,885.742
1573890398.381,43.457,21.484,320.801,54.688,395.996
1573890398.384,-41.016,24.902,-1000.000,-131.348,-716.797
1573890398.388,3.906,32.715,-439.941,-16.602,-539.062
1573890398.392,99.121,39.551,-902.832,189.941,666.016
1573890398.396,85.938,41.504,670.410,123.047,682.129
1573890398.400,-10.742,42.480,-854.492,-93.750,-453.125
1573890398.404,-10.742,41.504,-908.203,-68.848,-758.301
1573890398.408,90.332,40.039,566.406,154.297,331.543
1573890398.412,103.516,37.598,-918.945,167.480,844.238
1573890398.416,1.465,34.668,-327.148,-59.082,-266.602
1573890398.420,-36.621,36.133,-1000.000,-123.047,-853.027
1573890398.423,64.941,29.297,138.184,83.984,29.297
1573890398.427,125.488,32.227,-764.648,179.199,955.078
1573890398.431,27.832,33.203,134.277,-5.859,81.543
1573890398.435,-46.387,28.320,-1000.000,-129.395,-786.133
1573890398.439,33.691,28.320,-219.727,29.297,-308.594
1573890398.443,119.141,22.461,-781.250,187.012,854.004
1573890398.447,63.965,26.855,349.121,68.848,481.445
1573890398.451,-30.762,30.273,-1000.000,-119.141,-613.770
1573890398.455,0.977,26.855,-468.262,-33.691,-538.574
1573890398.459,95.215,25.879,-905.273,175.293,614.258
1573890398.463,74.219,30.762,615.723,124.512,693.359
1573890398.466,-27.832,28.320,-918.457,-104.004,-465.820
1573890398.470,-33.691,20.020,-908.203,-92.773,-766.602
1573890398.474,64.453,20.020,536.621,138.184,290.039
1573890398.478,82.031,18.555,-898.438,172.363,858.887
1573890398.482,-23.926,13.184,-243.652,-51.270,-158.691
1573890398.486,-60.547,9.277,-1000.000,-131.836,-773.438
1573890398.490,38.086,18.066,-41.504,68.848,-67.383
1573890398.494,100.586,32.715,-778.320,180.176,922.363
1573890398.498,23.438,31.250,158.203,7.324,201.172
1573890398.502,-57.129,27.344,-1000.000,-139.648,-763.184
1573890398.506,7.812,27.344,-264.160,6.348,-396.973
1573890398.509,100.586,23.926,-798.828,185.059,809.082
1573890398.513,60.547,18.066,392.090,84.473,491.211
1573890398.517,-35.156,21.484,-1000.000,-124.023,-661.133
1573890398.521,-10.742,26.367,-643.066,-62.988,-642.090
1573890398.525,100.098,26.367,908.203,164.551,515.137
1573890398.529,104.492,26.367,763.672,148.438,727.051
1573890398.533,6.348,26.855,-731.934,-63.965,-365.723
1573890398.537,-1.465,24.414,-1000.000,-72.754,-747.070
1573890398.541,101.562,28.809,219.727,146.973,198.242
1573890398.545,133.301,36.133,-850.586,209.473,896.484
1573890398.548,49.805,36.621,-133.789,5.371,-88.867
1573890398.552,11.230,33.691,-1000.000,-88.379,-783.203
1573890398.556,108.398,33.203,-90.332,115.723,-97.656
1573890398.560,174.316,39.551,-773.926,244.629,950.684
1573890398.564,104.980,41.504,215.332,81.543,278.809
1573890398.568,37.598,36.133,-1000.000,-71.777,-726.562
1573890398.572,96.191,33.691,-335.938,61.523,-443.359
1573890398.576,185.547,32.227,-825.195,254.883,739.746
1573890398.580,146.484,29.297,427.246,170.410,567.871
1573890398.584,45.898,25.879,-1000.000,-45.410,-574.219
1573890398.588,62.988,21.973,-725.098,-5.859,-668.945
1573890398.591,165.039,18.066,801.270,217.773,454.590
1573890398.595,160.156,18.555,902.344,207.520,769.531
1573890398.599,58.105,35.156,-588.867,-21.484,-350.098
1573890398.603,39.062,44.434,-1000.000,-49.316,-824.707
1573890398.607,128.418,35.156,194.824,170.898,111.816
1573890398.611,159.668,28.320,-828.125,238.281,938.477
1573890398.615,70.312,22.949,-56.641,25.391,-13.184
1573890398.619,11.230,20.996,-1000.000,-92.773,-818.359
1573890398.623,83.008,18.066,-178.223,88.867,-207.031
1573890398.627,153.320,19.531,-786.621,234.375,912.109
1573890398.631,87.402,26.367,260.254,83.984,397.949
1573890398.634,-2.930,17.090,-1000.000,-94.727,-669.922
1573890398.638,40.527,6.348,-387.207,20.508,-507.812
1573890398.642,127.441,12.207,-864.746,214.844,669.434
1573890398.646,94.238,18.555,553.223,127.930,645.996
1573890398.650,-5.371,17.578,-984.375,-90.332,-504.883
1573890398.654,9.766,23.438,-775.391,-50.781,-718.262
1573890398.658,109.863,25.391,724.121,165.527,388.672
1573890398.662,116.699,16.113,-961.914,174.805,819.336
1573890398.666,19.043,13.672,-362.793,-43.457,-263.672
1573890398.670,-13.672,12.695,-1000.000,-101.562,-829.102
1573890398.673,77.637,12.695,90.332,104.980,0.977
1573890398.677,127.930,18.555,-766.113,196.777,923.828
1573890398.681,37.598,15.625,158.691,4.395,138.184
1573890398.685,-30.273,5.859,-1000.000,-128.418,-778.809
1573890398.689,45.898,1.953,-219.727,38.086,-342.773
1573890398.693,123.535,8.301,-778.809,200.684,871.094
1573890398.697,62.500,12.695,369.141,66.895,443.359
1573890398.701,-28.809,6.836,-1000.000,-125.977,-686.523
1573890398.705,11.719,2.930,-440.918,-27.832,-576.172
1573890398.709,110.352,6.836,-917.969,180.176,598.633
1573890398.713,90.820,15.137,745.605,123.047,697.754
1573890398.716,-16.113,13.672,-770.996,-98.633,-457.031
1573890398.720,-15.625,6.836,-926.758,-87.402,-825.195
1573890398.724,89.355,-0.488,541.016,137.207,265.625
1573890398.728,102.051,-3.418,-848.145,172.852,898.438
1573890398.732,-1.465,-2.441,-164.551,-44.922,-164.062
1573890398.736,-36.621,1.465,-1000.000,-124.512,-833.984
1573890398.740,58.594,6.836,40.039,84.961,-33.691
1573890398.744,114.746,-1.953,-757.324,200.684,952.637
1573890398.748,41.016,-5.859,182.129,18.066,162.109
1573890398.752,-25.391,4.395,-1000.000,-133.789,-767.578
1573890398.756,40.527,17.578,-233.398,21.484,-334.961
1573890398.759,129.395,20.020,-783.203,204.102,842.773
1573890398.763,78.125,12.695,354.980,86.914,497.070
1573890398.767,-23.438,10.742,-1000.000,-117.188,-644.531
1573890398.771,3.906,12.207,-580.566,-41.016,-604.004
1573890398.775,104.492,3.906,988.770,175.781,558.105
1573890398.779,94.727,3.418,697.266,140.137,679.199
1573890398.783,-9.277,15.625,-856.445,-86.426,-464.844
1573890398.787,-20.996,19.531,-943.359,-94.238,-750.977
1573890398.791,84.473,22.461,463.379,134.277,233.398
1573890398.795,115.723,16.113,-832.520,185.059,913.086
1573890398.798,17.578,9.277,-83.496,-31.738,-98.145
1573890398.802,-33.691,13.184,-1000.000,-126.465,-839.844
1573890398.806,55.176,13.672,-74.219,66.406,-134.277
1573890398.810,120.605,13.672,-766.113,191.895,936.035
1573890398.814,44.922,15.137,210.449,33.691,251.953
1573890398.818,-33.691,8.301,-1000.000,-130.371,-821.777
1573890398.822,26.367,4.883,-312.012,-5.371,-486.816
1573890398.826,118.164,12.207,-816.895,184.570,761.230
1573890398.830,77.148,18.066,440.430,91.309,549.805
1573890398.834,-20.020,18.555,-1000.000,-116.699,-586.426
1573890398.838,-3.418,13.184,-765.625,-67.871,-660.156
1573890398.841,113.770,19.531,736.816,164.551,462.891
1573890398.845,128.418,24.414,947.266,166.992,781.738
1573890398.849,-1.953,6.348,-540.039,-78.125,-309.082
1573890398.853,-35.156,1.953,-1000.000,-114.258,-778.809
1573890398.857,61.035,0.488,241.211,106.445,133.301
1573890398.861,89.844,-1.465,-813.965,166.992,920.898
1573890398.865,-3.906,-6.348,-24.902,-38.086,-22.461
1573890398.869,-63.477,-12.695,-1000.000,-151.855,-832.031
1573890398.873,19.043,-13.672,-163.086,34.668,-235.840
1573890398.877,84.961,-16.113,-775.391,184.570,931.152
1573890398.881,27.832,-6.348,280.273,45.898,335.449
1573890398.884,-48.828,-2.441,-1000.000,-121.094,-785.645
1573890398.888,0.977,7.324,-354.980,-10.254,-528.809
1573890398.892,93.750,17.578,-847.656,190.430,697.754
1573890398.896,66.406,10.254,594.727,115.234,637.207
1573890398.900,-30.762,0.000,-945.801,-105.957,-522.949
1573890398.904,-22.949,-2.441,-807.617,-62.988,-694.336
1573890398.908,82.031,2.441,725.586,166.016,408.203
1573890398.912,93.750,5.371,985.840,168.457,814.453
1573890398.916,1.953,5.859,-487.793,-48.828,-265.625
1573890398.920,-20.020,0.000,-1000.000,-98.633,-795.410
1573890398.923,78.125,-6.348,181.152,112.793,84.473
1573890398.927,124.512,-8.789,-771.973,208.496,945.312
1573890398.931,32.227,-9.277,115.723,9.766,59.570
1573890398.935,-27.832,0.977,-1000.000,-117.676,-761.719
1573890398.939,47.363,3.418,-175.293,52.734,-243.164
1573890398.943,121.582,4.883,-770.020,212.402,882.324
1573890398.947,64.453,6.348,337.891,73.730,437.012
1573890398.951,-31.250,3.906,-1000.000,-118.652,-682.617
1573890398.955,3.418,8.301,-441.895,-17.578,-557.617
1573890398.959,101.562,14.160,-907.227,184.570,634.277
1573890398.963,80.566,14.160,694.824,117.676,649.414
1573890398.966,-24.902,9.766,-852.539,-108.887,-515.625
1573890398.970,-17.578,4.883,-858.887,-82.520,-781.738
1573890398.974,85.449,0.977,625.000,145.020,308.594
1573890398.978,99.121,2.930,-895.020,162.598,863.770
1573890398.982,-1.953,5.859,-211.914,-55.176,-107.422
1573890398.986,-40.527,0.488,-1000.000,-116.211,-785.645
1573890398.990,52.246,2.930,-23.438,89.355,-78.613
1573890398.994,108.887,7.812,-773.438,202.148,967.773
1573890398.998,31.250,9.277,146.973,21.484,188.477
1573890399.002,-42.480,2.441,-1000.000,-130.371,-786.621
1573890399.006,19.043,0.000,-252.930,19.531,-370.117
1573890399.009,101.562,8.789,-796.387,191.406,835.938
1573890399.013,56.152,10.254,406.738,77.148,529.297
1573890399.017,-36.621,8.789,-1000.000,-117.188,-573.242
1573890399.021,-4.883,6.348,-568.848,-41.016,-576.172
1573890399.025,95.215,4.883,981.445,174.805,565.430
1573890399.029,83.008,3.418,824.219,147.949,733.398
1573890399.033,-18.066,-4.395,-703.613,-79.102,-362.793
1573890399.037,-24.902,-4.395,-979.980,-90.820,-745.117
1573890399.041,77.637,0.977,472.656,134.277,227.539
1573890399.045,107.910,0.977,-870.117,182.617,887.207
1573890399.048,16.113,2.441,-181.152,-30.762,-120.605
1573890399.052,-31.250,-3.418,-1000.000,-124.512,-833.984
1573890399.056,52.734,-1.953,-83.984,70.312,-141.602
1573890399.060,122.070,12.207,-772.949,210.449,941.406
1573890399.064,50.781,17.090,198.242,41.992,241.699
1573890399.068,-32.227,7.812,-1000.000,-133.789,-770.996
1573890399.072,32.715,2.441,-276.855,9.277,-417.480
1573890399.076,129.395,10.254,-807.617,199.219,789.551
1573890399.080,91.309,6.836,479.492,98.633,543.945
1573890399.084,-2.930,-13.672,-1000.000,-102.539,-566.895
1573890399.088,19.043,-9.766,-624.023,-45.898,-614.746
1573890399.091,119.141,17.578,939.941,177.734,499.023
1573890399.095,114.258,19.531,810.547,154.785,718.750
1573890399.099,23.926,14.648,-689.941,-52.734,-387.695
1573890399.103,4.395,19.531,-1000.000,-76.172,-803.223
1573890399.107,69.336,9.766,303.711,99.609,120.605
1573890399.111,86.426,11.719,-795.898,152.832,916.504
1573890399.115,-7.324,3.418,12.207,-48.340,0.000
1573890399.119,-84.961,-5.859,-1000.000,-185.059,-815.918
1573890399.123,-24.414,11.230,-119.629,-22.949,-227.539
1573890399.127,43.457,25.879,-767.090,118.164,932.129
1573890399.131,-24.414,29.785,277.344,-44.922,360.352
1573890399.134,-110.840,27.344,-1000.000,-219.727,-695.801
1573890399.138,-76.660,22.949,-425.781,-118.652,-520.020
1573890399.142,17.578,26.855,-886.230,80.566,688.965
1573890399.146,-8.301,18.555,586.426,6.348,612.793
1573890399.150,-112.305,-4.883,-981.445,-221.191,-585.938
1573890399.154,-92.285,-1.465,-748.047,-174.316,-730.469
1573890399.158,5.859,4.883,771.484,48.340,396.973
1573890399.162,17.578,9.766,-977.051,58.105,806.641
1573890399.166,-67.383,11.719,-398.926,-146.973,-289.551
1573890399.170,-93.750,6.836,-1000.000,-180.664,-854.492
1573890399.173,0.000,2.441,191.895,43.945,60.059
1573890399.177,62.500,10.742,-769.043,142.578,953.125
1573890399.181,-19.531,18.555,107.910,-56.152,99.121
1573890399.185,-81.055,9.766,-1000.000,-180.664,-765.625
1573890399.189,8.301,2.441,-189.941,-0.977,-270.508
1573890399.193,95.703,12.695,-773.926,165.527,896.973
1573890399.197,38.086,17.578,334.473,35.156,426.270
1573890399.201,-48.340,14.160,-1000.000,-156.738,-654.785
1573890399.205,-0.488,0.000,-425.781,-49.316,-526.367
1573890399.209,103.027,4.395,-880.371,167.480,629.395
1573890399.213,78.613,28.809,610.352,96.191,678.223
1573890399.216,-28.809,27.832,-942.383,-127.930,-459.961
1573890399.220,-25.879,17.578,-809.082,-98.145,-740.234
1573890399.224,77.148,18.555,687.500,132.324,336.426
1573890399.228,92.285,17.578,-927.246,153.320,859.375
1573890399.232,-12.695,8.789,-302.246,-76.172,-215.820
1573890399.236,-41.016,13.672,-1000.000,-136.230,-851.562
1573890399.240,56.641,9.277,55.664,76.660,-26.367
1573890399.244,111.328,8.789,-776.367,182.129,928.711
1573890399.248,37.109,18.555,116.699,-0.977,139.160
1573890399.252,-33.691,16.113,-1000.000,-141.113,-750.977
1573890399.256,32.715,21.484,-212.891,14.160,-338.867
1573890399.259,118.164,28.809,-783.691,185.059,844.238
1573890399.263,72.754,28.809,404.297,71.777,490.723
1573890399.267,-20.996,15.137,-1000.000,-124.512,-670.898
1573890399.271,15.137,12.207,-468.750,-36.133,-625.977
1573890399.275,119.141,17.090,-937.500,183.105,576.172
1573890399.279,98.145,19.531,774.414,129.395,694.336
1573890399.283,-12.695,19.531,-726.074,-100.098,-446.777
1573890399.287,-18.555,13.672,-956.055,-98.145,-762.207
1573890399.291,85.449,6.836,449.219,126.465,249.023
1573890399.295,109.375,2.441,-810.547,173.340,892.578
1573890399.298,12.695,7.324,-52.246,-45.898,-83.984
1573890399.302,-36.621,9.277,-1000.000,-136.230,-782.227
1573890399.306,40.527,7.324,24.414,65.918,-76.172
1573890399.310,103.027,6.836,-747.070,193.848,957.520
1573890399.314,32.227,11.719,231.445,22.949,205.078
1573890399.318,-45.410,2.930,-1000.000,-139.648,-780.762
1573890399.322,8.789,0.977,-226.562,-1.953,-385.254
1573890399.326,97.168,4.883,-792.969,185.059,811.035
1573890399.330,59.082,0.977,537.598,85.449,550.781
1573890399.334,-33.691,10.254,-1000.000,-122.559,-616.211
1573890399.338,-18.066,6.348,-537.598,-67.871,-676.758
1573890399.341,78.125,1.953,985.352,152.832,488.770
1573890399.345,70.801,3.418,972.656,136.719,758.301
1573890399.349,-34.668,0.977,-487.305,-97.656,-329.102
1573890399.353,-43.945,11.719,-973.145,-119.141,-762.207
1573890399.357,61.523,15.625,485.840,111.816,186.035
1573890399.361,91.309,5.859,-804.199,180.176,915.039
1573890399.365,-9.277,0.977,-22.949,-37.109,-59.570
1573890399.369,-58.105,-7.812,-1000.000,-147.949,-817.871
1573890399.373,30.762,-2.930,-95.215,47.363,-181.641
1573890399.377,105.469,18.066,-760.742,196.777,934.082
1573890399.381,38.574,13.184,282.227,43.945,296.387
1573890399.384,-46.875,1.953,-1000.000,-130.859,-734.863
1573890399.388,12.207,13.672,-309.570,-2.930,-452.148
1573890399.392,109.863,11.230,-814.453,194.824,731.934
1573890399.396,71.289,10.254,502.930,101.074,575.195
1573890399.400,-27.344,17.090,-1000.000,-112.305,-583.496
1573890399.404,-12.695,-0.488,-660.156,-63.477,-693.848
1573890399.408,88.867,5.371,856.445,159.180,432.617
1573890399.412,95.215,14.648,989.746,162.109,799.316
1573890399.416,-6.836,4.883,-424.805,-59.082,-302.246
1573890399.420,-28.809,1.465,-1000.000,-97.656,-854.492
1573890399.423,62.988,6.836,159.180,116.211,37.109
1573890399.427,97.656,16.602,-779.785,189.453,944.336
1573890399.431,7.812,17.578,84.961,-16.113,86.914
1573890399.435,-47.363,13.672,-1000.000,-137.207,-787.598
1573890399.439,40.527,16.113,-185.547,44.922,-285.156
1573890399.443,116.211,13.184,-774.414,200.195,902.832
1573890399.447,54.688,12.207,308.105,59.570,412.598
1573890399.451,-36.621,-7.812,-1000.000,-127.930,-715.332
1573890399.455,5.371,-24.414,-387.207,-19.043,-545.898
1573890399.459,105.469,11.719,-865.234,193.848,674.316
1573890399.463,74.707,23.926,627.441,118.164,651.367
1573890399.466,-33.691,11.719,-896.973,-104.004,-479.492
1573890399.470,-31.738,0.000,-897.461,-82.520,-724.121
1573890399.474,67.383,-1.953,588.379,132.324,335.449
1573890399.478,96.191,-4.883,-916.016,168.457,851.074
1573890399.482,1.953,-5.859,-309.570,-46.875,-231.934
1573890399.486,-50.781,6.836,-1000.000,-126.465,-863.770
1573890399.490,32.227,14.648,73.242,77.637,2.441
1573890399.494,88.867,15.137,-767.578,176.270,981.934
1573890399.498,13.184,5.371,139.160,-7.812,119.141
1573890399.502,-62.500,3.418,-1000.000,-145.020,-794.922
1573890399.506,10.742,10.742,-207.520,18.066,-308.105
1573890399.509,99.609,10.254,-777.832,191.406,863.281
1573890399.513,41.016,7.324,314.941,55.664,447.266
1573890399.517,-57.129,11.719,-1000.000,-142.090,-666.504
1573890399.521,-18.555,10.742,-464.844,-46.875,-563.965
1573890399.525,83.496,10.742,-932.617,167.480,606.934
1573890399.529,69.336,10.742,703.613,121.094,684.570
1573890399.533,-29.785,8.301,-825.195,-100.586,-480.469
1573890399.537,-30.762,11.230,-904.297,-88.379,-790.039
1573890399.541,81.055,13.672,545.898,142.578,254.883
1573890399.545,110.840,12.695,-852.051,182.617,890.625
1573890399.548,12.695,-0.488,-146.973,-36.133,-187.988
1573890399.552,-28.320,10.254,-1000.000,-117.676,-911.621
1573890399.556,61.523,21.973,-6.348,84.473,-95.215
1573890399.560,117.188,10.254,-762.695,205.566,960.938
1573890399.564,37.598,12.207,184.570,28.809,212.402
1573890399.568,-36.621,15.625,-1000.000,-130.371,-781.250
1573890399.572,23.926,16.602,-257.812,13.672,-420.898
1573890399.576,107.910,24.414,-795.898,193.359,782.715
1573890399.580,63.965,19.531,424.805,84.473,548.828
1573890399.584,-30.273,16.602,-1000.000,-111.816,-615.234
1573890399.588,-4.883,11.719,-627.930,-41.992,-653.320
1573890399.591,96.191,4.395,902.832,169.434,504.395
1573890399.595,88.379,11.230,895.508,139.160,750.488
1573890399.599,-13.184,9.277,-607.422,-88.379,-326.172
1573890399.603,-27.344,9.277,-1000.000,-96.191,-758.301
1573890399.607,75.195,16.602,391.113,127.930,184.570
1573890399.611,107.422,20.020,-823.242,180.176,909.180
1573890399.615,11.719,20.508,-72.266,-30.273,-54.688
1573890399.619,-36.621,5.859,-1000.000,-128.418,-826.660
1573890399.623,41.992,5.859,-82.031,62.988,-150.879
1573890399.627,98.633,4.395,-763.672,195.312,956.055
1573890399.631,33.203,-9.277,246.582,35.156,334.473
1573890399.634,-45.898,1.953,-1000.000,-136.719,-695.801
1573890399.638,7.324,15.625,-308.594,-9.766,-449.219
1573890399.642,101.562,21.484,-820.312,187.012,757.812
1573890399.646,65.430,20.508,531.250,91.309,593.262
1573890399.650,-29.297,17.090,-1000.000,-117.188,-541.016
1573890399.654,-7.812,17.578,-714.355,-63.965,-640.137
1573890399.658,92.285,18.555,847.656,156.738,457.520
1573890399.662,98.145,19.043,909.180,158.691,795.898
1573890399.666,-6.348,15.625,-598.145,-71.289,-339.355
1573890399.670,-37.598,-1.465,-1000.000,-118.652,-850.098
1573890399.673,56.641,-3.906,267.578,104.004,119.629
1573890399.677,101.562,14.160,-786.621,188.965,957.031
1573890399.681,14.160,20.508,51.270,-7.324,11.230
1573890399.685,-43.945,8.301,-1000.000,-128.418,-849.609
1573890399.689,28.320,4.395,-152.832,45.898,-282.227
1573890399.693,98.633,27.344,-767.090,201.172,892.090
1573890399.697,41.016,34.668,309.082,59.570,395.508
1573890399.701,-43.457,18.066,-1000.000,-124.023,-698.242
1573890399.705,6.348,15.137,-361.816,-11.719,-496.582
1573890399.709,104.980,34.180,-853.027,199.707,698.730
1573890399.713,73.730,11.230,623.535,121.094,610.352
1573890399.716,-33.203,-1.953,-915.527,-102.051,-491.211
1573890399.720,-21.484,20.996,-805.664,-66.406,-666.992
1573890399.724,81.055,15.137,706.055,156.250,369.629
1573890399.728,92.285,12.695,-952.637,165.527,834.961
1573890399.732,-2.441,11.719,-340.820,-59.082,-236.816
1573890399.736,-31.738,8.789,-1000.000,-119.629,-843.750
1573890399.740,58.105,14.648,80.566,88.867,11.719
1573890399.744,108.398,21.484,-781.250,191.406,960.449
1573890399.748,30.762,24.902,106.445,9.277,127.930
1573890399.752,-39.062,21.973,-1000.000,-128.906,-787.109
1573890399.756,23.926,19.531,-247.070,28.809,-342.285
1573890399.759,97.168,22.949,-794.922,194.824,843.750
1573890399.763,34.668,20.020,376.465,54.199,456.543
1573890399.767,-54.688,23.926,-1000.000,-141.602,-637.207
1573890399.771,-17.578,30.762,-466.309,-41.504,-570.801
1573890399.775,77.637,32.227,-919.922,162.598,586.426
1573890399.779,46.875,31.250,700.195,92.773,696.289
1573890399.783,-62.500,31.250,-821.289,-136.719,-486.816
1573890399.787,-55.176,33.203,-948.730,-121.094,-817.871
1573890399.791,42.969,39.551,516.602,97.168,278.809
1573890399.795,56.641,43.945,-922.363,120.605,862.305
1573890399.798,-52.246,43.457,-306.641,-106.445,-180.664
1573890399.802,-113.770,39.062,-1000.000,-203.125,-833.008
1573890399.806,-30.273,42.480,-21.973,-6.348,-76.660
1573890399.810,24.414,42.480,-779.297,116.211,948.242
1573890399.814,-60.547,46.387,153.320,-72.266,176.270
1573890399.818,-140.137,66.895,-1000.000,-235.840,-794.922
1573890399.822,-87.891,76.660,-268.555,-90.820,-374.023
1573890399.826,-4.395,86.914,-801.270,88.379,832.031
1573890399.830,-51.270,84.961,392.578,-25.879,513.672
1573890399.834,-148.926,68.848,-1000.000,-229.492,-600.586
1573890399.838,-117.188,64.941,-604.980,-150.879,-570.312
1573890399.841,-9.277,74.219,957.520,73.730,544.434
1573890399.845,-14.160,69.336,723.145,41.504,734.375
1573890399.849,-113.281,51.270,-807.617,-179.688,-361.816
1573890399.853,-112.305,45.898,-979.004,-173.340,-755.371
1573890399.857,0.488,54.688,420.898,61.035,218.262
1573890399.861,38.086,56.152,-835.449,128.418,882.812
1573890399.865,-48.828,41.504,-104.004,-83.496,-80.078
1573890399.869,-89.355,33.691,-1000.000,-181.641,-762.695
1573890399.873,3.418,27.832,-67.383,22.461,-137.695
1573890399.877,78.613,24.902,-765.625,164.062,939.453
1573890399.881,14.160,20.020,233.398,2.930,267.578
1573890399.884,-55.664,10.742,-1000.000,-151.367,-828.125
1573890399.888,4.395,8.301,-335.449,-8.301,-469.238
1573890399.892,99.121,-3.418,-832.031,186.035,756.836
1573890399.896,70.801,1.465,514.160,98.633,569.824
1573890399.900,-21.484,3.906,-1000.000,-101.562,-542.480
1573890399.904,4.395,-10.254,-768.066,-40.527,-685.547
1573890399.908,106.445,-16.602,733.887,180.176,427.734
1573890399.912,115.234,-6.348,-989.746,174.805,801.270
1573890399.916,23.926,5.859,-469.727,-41.992,-289.551
1573890399.920,-0.977,-3.906,-1000.000,-78.613,-773.926
1573890399.923,97.168,-12.695,331.055,138.184,139.648
1573890399.927,141.602,-15.137,-770.020,220.215,927.734
1573890399.931,49.805,-23.438,82.031,17.090,19.043
1573890399.935,-4.883,-25.391,-1000.000,-95.215,-817.871
1573890399.939,74.707,-15.625,-135.742,90.332,-274.414
1573890399.943,142.090,-21.484,-759.766,238.770,912.598
1573890399.947,84.961,-24.414,315.918,90.820,334.473
1573890399.951,0.000,-17.578,-1000.000,-94.727,-717.285
1573890399.955,41.992,-23.926,-325.684,17.578,-469.727
1573890399.959,142.578,-13.184,-836.914,230.469,670.898
1573890399.963,114.258,-1.465,633.789,152.832,636.719
1573890399.966,4.395,-19.531,-930.176,-75.684,-517.578
1573890399.970,12.695,-24.414,-672.852,-41.992,-730.957
1573890399.974,118.652,-16.113,853.027,188.477,412.109
1573890399.978,127.930,-11.719,-952.637,197.266,819.336
1573890399.982,26.855,-16.113,-331.055,-31.738,-319.336
1573890399.986,-1.953,-20.020,-1000.000,-85.449,-898.926
1573890399.990,91.797,-18.555,174.316,130.371,23.926
1573890399.994,142.578,-13.672,-758.301,226.074,949.707
1573890399.998,59.570,-12.207,135.742,32.227,61.523
1573890400.002,-6.836,-9.277,-1000.000,-103.027,-802.734
1573890400.006,67.383,-5.371,-162.598,64.941,-267.090
1573890400.009,138.672,-15.625,-765.625,224.121,866.211
1573890400.013,82.031,-12.695,369.629,84.473,402.344
1573890400.017,-2.930,-9.277,-1000.000,-101.562,-645.020
1573890400.021,25.391,-24.902,-395.508,-6.836,-537.598
1573890400.025,119.629,-17.090,-876.465,202.637,625.977
1573890400.029,101.074,-13.672,708.984,145.996,676.270
1573890400.033,-4.395,-22.461,-806.641,-77.148,-508.789
1573890400.037,-2.441,-9.766,-898.438,-62.988,-832.031
1573890400.041,102.051,4.883,549.316,156.250,250.000
1573890400.045,115.234,0.977,-855.957,183.105,863.281
1573890400.048,13.184,-8.789,-149.902,-30.762,-174.316
1573890400.052,-26.855,-11.719,-1000.000,-107.910,-829.102
1573890400.056,62.500,-22.461,43.457,93.750,-47.852
1573890400.060,112.305,-29.785,-753.906,205.566,951.172
1573890400.064,32.227,-8.789,194.824,27.344,201.172
1573890400.068,-34.180,5.371,-1000.000,-119.629,-800.293
1573890400.072,30.273,-8.789,-244.141,28.809,-423.340
1573890400.076,113.770,-18.555,-786.621,207.031,819.824
1573890400.080,68.848,2.930,402.344,95.215,493.652
1573890400.084,-22.949,7.812,-1000.000,-104.004,-647.949
1573890400.088,3.418,-7.324,-490.234,-32.715,-576.660
1573890400.091,106.934,-9.277,-958.496,184.082,582.520
1573890400.095,98.145,-4.395,820.801,148.438,712.891
1573890400.099,-12.695,-9.277,-689.453,-91.309,-459.473
1573890400.103,-26.367,-14.160,-977.539,-100.586,-812.988
1573890400.107,74.219,-11.230,468.262,127.930,220.703
1573890400.111,103.027,-15.625,-844.238,179.199,904.297
1573890400.115,11.719,-28.320,-129.883,-31.250,-90.820
1573890400.119,-29.297,-15.137,-1000.000,-123.047,-839.355
1573890400.123,50.293,2.441,-84.961,68.848,-144.531
1573890400.127,108.887,5.859,-774.414,195.312,947.754
1573890400.131,34.180,6.348,182.617,22.949,280.762
1573890400.134,-44.922,4.395,-1000.000,-139.648,-688.477
1573890400.138,12.695,1.953,-291.992,0.977,-386.230
1573890400.142,98.145,-3.418,-815.430,186.523,765.625
1573890400.146,60.547,-2.441,487.793,84.961,540.039
1573890400.150,-38.086,-5.371,-1000.000,-123.535,-594.727
1573890400.154,-17.578,-13.672,-629.395,-60.059,-645.508
1573890400.158,93.262,-8.301,906.250,171.875,464.355
1573890400.162,100.586,3.906,926.758,160.645,778.320
1573890400.166,-0.977,-3.418,-548.828,-62.500,-321.777
1573890400.170,-34.180,-12.695,-1000.000,-97.656,-782.227
1573890400.173,68.848,-9.277,310.547,122.559,170.898
1573890400.177,123.535,-4.883,-791.504,207.031,937.012
1573890400.181,31.250,-12.695,29.785,5.371,26.855
1573890400.185,-22.461,-27.832,-1000.000,-105.957,-777.832
1573890400.189,57.129,-14.648,-145.508,64.453,-223.633
1573890400.193,123.535,4.883,-767.578,202.148,896.973
1573890400.197,69.824,2.930,288.086,65.430,358.398
1573890400.201,-7.812,-4.883,-1000.000,-106.445,-658.203
1573890400.205,33.691,-5.859,-354.492,9.766,-490.234
1573890400.209,122.070,0.000,-841.797,207.031,689.941
1573890400.213,94.238,-0.977,556.641,125.977,624.023
1573890400.216,0.977,-3.906,-966.309,-78.125,-516.113
1573890400.220,10.254,-7.324,-823.730,-40.039,-685.547
1573890400.224,104.980,-7.324,681.152,172.363,390.137
1573890400.228,119.141,-1.465,-957.520,182.129,813.477
1573890400.232,23.438,0.488,-388.184,-35.645,-264.648
1573890400.236,-6.348,-4.883,-1000.000,-85.449,-836.426
1573890400.240,89.844,-10.742,171.875,127.930,47.852
1573890400.244,130.859,2.930,-767.578,214.355,955.078
1573890400.248,44.434,3.906,106.445,15.137,69.336
1573890400.252,-17.578,4.883,-1000.000,-112.793,-830.566
1573890400.256,55.664,11.719,-166.504,63.477,-294.922
1573890400.259,126.465,7.812,-768.066,221.680,893.066
1573890400.263,60.547,12.207,283.691,73.730,396.484
1573890400.267,-22.949,17.090,-1000.000,-110.840,-692.383
1573890400.271,11.719,11.230,-417.480,-10.254,-556.152
1573890400.275,104.004,12.207,-880.859,192.383,634.766
1573890400.279,84.473,19.043,567.383,134.277,631.836
1573890400.283,-22.949,3.906,-966.797,-95.215,-540.039
1573890400.287,-21.973,-0.488,-813.477,-74.707,-718.750
1573890400.291,83.496,15.625,657.715,157.227,356.445
1573890400.295,99.609,13.184,-916.992,183.594,847.656
1573890400.298,3.906,11.230,-269.043,-33.203,-213.379
1573890400.302,-30.273,16.602,-1000.000,-101.074,-860.352
1573890400.306,55.176,12.207,24.902,101.562,-51.270
1573890400.310,111.328,12.695,-769.531,213.867,973.145
1573890400.314,40.527,16.113,144.531,36.133,156.250
1573890400.318,-35.156,14.160,-1000.000,-119.629,-809.570
1573890400.322,24.902,-1.953,-232.422,29.297,-376.465
1573890400.326,107.910,-12.695,-789.062,207.031,825.195
1573890400.330,56.152,3.906,392.578,84.961,518.555
1573890400.334,-33.691,12.695,-1000.000,-116.211,-586.914
1573890400.338,-0.977,-5.371,-571.777,-28.320,-583.496
1573890400.341,96.680,-3.906,979.980,190.918,569.336
1573890400.345,89.355,8.301,776.367,146.973,701.172
1573890400.349,-14.160,5.371,-754.883,-79.590,-428.711
1573890400.353,-24.902,3.418,-980.957,-86.426,-796.387
1573890400.357,76.172,5.371,451.660,141.602,222.656
1573890400.361,99.609,3.418,-864.746,184.082,890.625
1573890400.365,6.836,8.301,-171.875,-37.598,-150.879
1573890400.369,-34.668,5.371,-1000.000,-124.512,-858.398
1573890400.373,52.734,7.812,-105.469,70.801,-118.652
1573890400.377,116.211,14.648,-774.902,198.730,946.289
1573890400.381,46.387,8.301,220.703,31.738,230.957
1573890400.384,-27.832,6.348,-1000.000,-129.883,-766.602
1573890400.388,25.391,16.113,-276.367,10.254,-430.664
1573890400.392,114.258,21.973,-802.246,201.172,790.527
1573890400.396,76.660,16.602,452.148,98.633,570.801
1573890400.400,-19.531,13.184,-1000.000,-106.445,-626.953
1573890400.404,6.348,14.648,-652.344,-34.668,-692.383
1573890400.408,99.609,8.301,911.133,182.129,507.324
1573890400.412,96.680,6.836,842.773,155.762,759.277
1573890400.416,-4.883,7.812,-682.129,-75.195,-410.645
1573890400.420,-28.320,5.371,-1000.000,-104.004,-865.723
1573890400.423,75.195,12.207,345.215,116.211,157.227
1573890400.427,113.770,15.625,-826.660,185.059,920.410
1573890400.431,19.043,-0.488,-61.035,-20.996,-35.645
1573890400.435,-33.203,-1.465,-1000.000,-126.953,-820.801
1573890400.439,46.387,15.137,-122.070,58.105,-214.355
1573890400.443,108.887,10.254,-769.043,198.242,936.035
1573890400.447,39.062,10.254,273.926,40.527,363.281
1573890400.451,-49.316,3.906,-1000.000,-139.648,-701.172
1573890400.455,-0.977,0.000,-356.934,-19.531,-463.867
1573890400.459,93.262,4.883,-840.820,175.293,737.793
1573890400.463,60.547,-1.465,542.969,86.914,570.312
1573890400.466,-35.156,0.488,-1000.000,-126.953,-561.035
1573890400.470,-23.438,1.465,-715.820,-80.078,-686.035
1573890400.474,75.195,-0.977,809.082,146.973,410.156
1573890400.478,85.938,0.488,998.047,144.531,811.035
1573890400.482,-16.113,-2.930,-424.316,-83.496,-261.719
1573890400.486,-42.969,1.465,-1000.000,-124.023,-815.918
1573890400.490,55.176,3.906,149.902,90.820,63.477
1573890400.494,101.562,1.953,-793.945,178.711,958.496
1573890400.498,17.090,-0.488,45.410,-15.625,18.066
1573890400.502,-42.969,1.953,-1000.000,-140.625,-871.094
1573890400.506,40.039,6.836,-214.355,37.109,-309.570
1573890400.509,118.164,10.254,-786.621,192.871,876.465
1573890400.513,46.875,8.789,320.312,50.293,393.066
1573890400.517,-47.363,4.883,-1000.000,-131.348,-684.570
1573890400.521,-2.441,-1.465,-381.348,-29.785,-472.168
1573890400.525,89.844,-2.441,-872.070,174.316,681.641
1573890400.529,62.012,11.719,674.805,111.328,670.898
1573890400.533,-29.785,1.953,-871.582,-111.328,-491.211
1573890400.537,-12.207,0.977,-818.848,-81.055,-753.418
1573890400.541,87.891,18.555,697.754,147.461,356.445
1573890400.545,100.586,18.555,-935.059,165.039,850.586
1573890400.548,8.301,21.484,-321.777,-60.059,-204.102
1573890400.552,-24.902,16.602,-1000.000,-119.629,-836.914
1573890400.556,68.848,10.254,88.379,97.656,-11.230
1573890400.560,121.582,12.695,-763.672,197.754,973.145
1573890400.564,43.945,14.648,146.973,6.348,161.621
1573890400.568,-18.066,17.090,-1000.000,-127.930,-768.555
1573890400.572,44.434,9.766,-199.219,31.250,-329.102
1573890400.576,125.977,9.277,-774.902,202.637,866.699
1573890400.580,75.195,-2.930,381.836,78.613,452.148
1573890400.584,-22.949,-12.207,-1000.000,-130.859,-697.754
1573890400.588,6.348,0.000,-437.012,-48.828,-596.191
1573890400.591,116.699,3.906,-905.273,184.570,587.402
1573890400.595,104.980,14.160,732.910,145.508,692.383
1573890400.599,-32.227,13.672,-809.082,-114.746,-503.418
1573890400.603,-57.129,10.254,-856.445,-127.930,-841.309
1573890400.607,50.293,6.836,603.516,103.027,246.094
1573890400.611,82.031,11.719,-825.684,145.996,887.695
1573890400.615,-15.625,7.324,-66.406,-70.312,-110.352
1573890400.619,-61.035,-6.348,-1000.000,-155.273,-826.172
1573890400.623,23.438,-8.301,21.484,44.922,-133.301
1573890400.627,83.008,6.348,-750.977,165.527,939.941
1573890400.631,10.254,16.113,226.562,-11.719,205.078
1573890400.634,-65.430,4.395,-1000.000,-164.551,-795.410
1573890400.638,-11.719,3.418,-286.133,-23.926,-404.297
1573890400.642,71.777,0.488,-809.082,152.344,789.551
1573890400.646,30.273,-6.348,496.582,47.852,531.250
1573890400.650,-60.547,-4.883,-1000.000,-153.809,-624.512
1573890400.654,-25.879,-7.324,-584.961,-81.543,-633.301
1573890400.658,79.102,-1.953,954.102,146.484,536.621
1573890400.662,78.125,7.324,936.523,129.883,730.957
1573890400.666,-32.715,-4.883,-551.270,-97.656,-350.098
1573890400.670,-52.246,-15.137,-982.422,-114.746,-740.723
1573890400.673,59.082,-3.906,453.613,110.352,198.242
1573890400.677,102.539,2.441,-801.270,176.270,924.805
1573890400.681,12.695,-7.324,-12.695,-30.273,-75.684
1573890400.685,-39.551,-2.930,-1000.000,-131.348,-871.582
1573890400.689,41.016,5.859,-84.961,58.594,-176.270
1573890400.693,109.375,8.301,-759.277,194.336,946.289
1573890400.697,42.969,0.488,248.047,32.715,288.086
1573890400.701,-37.598,-8.301,-1000.000,-142.090,-729.980
1573890400.705,17.090,-2.441,-296.875,-14.160,-429.688
1573890400.709,111.816,1.465,-807.617,184.570,755.371
1573890400.713,75.195,3.906,478.516,103.516,588.379
1573890400.716,-24.414,6.348,-1000.000,-111.328,-552.246
1573890400.720,-10.742,0.000,-635.254,-70.312,-656.738
1573890400.724,85.449,-7.324,887.695,153.809,456.055
1573890400.728,89.844,-5.859,961.426,151.855,795.410
1573890400.732,-15.137,-6.836,-483.887,-75.195,-308.105
1573890400.736,-41.504,-9.766,-1000.000,-117.676,-836.914
1573890400.740,55.176,-3.906,233.887,102.051,67.383
1573890400.744,97.656,9.766,-803.223,187.012,936.523
1573890400.748,13.672,13.184,-1.465,-15.137,15.625
1573890400.752,-41.504,16.113,-1000.000,-130.859,-831.055
1573890400.756,36.133,14.160,-148.438,48.828,-250.488
1573890400.759,104.492,-0.488,-771.484,194.824,893.066
1573890400.763,37.598,-3.418,318.359,50.293,385.742
1573890400.767,-49.316,-3.906,-1000.000,-129.883,-700.195
1573890400.771,0.000,2.930,-381.836,-22.949,-522.461
1573890400.775,97.656,12.207,-857.422,186.523,670.898
1573890400.779,63.965,0.000,599.121,118.164,640.137
1573890400.783,-34.180,0.488,-927.246,-106.445,-524.902
1573890400.787,-11.230,9.766,-827.148,-74.219,-752.441
1573890400.791,89.355,3.906,644.043,155.273,343.262
1573890400.795,87.402,3.906,-919.434,156.738,844.727
1573890400.798,-16.113,2.930,-276.855,-77.148,-200.684
1573890400.802,-50.293,7.324,-1000.000,-133.789,-763.184
1573890400.806,38.574,3.906,39.062,76.660,44.922
1573890400.810,90.332,1.465,-767.578,182.129,967.285
1573890400.814,11.719,5.859,147.461,-3.906,96.191
1573890400.818,-60.547,-5.371,-1000.000,-154.297,-840.332
1573890400.822,8.789,-4.883,-199.707,9.766,-340.820
1573890400.826,92.285,6.348,-774.414,189.941,848.633
1573890400.830,41.016,15.625,343.262,63.965,426.758
1573890400.834,-43.457,6.348,-1000.000,-129.395,-670.898
1573890400.838,-7.324,-7.324,-437.988,-36.621,-532.715
1573890400.841,91.797,-3.906,-905.762,178.223,625.000
1573890400.845,78.125,7.812,700.195,134.277,673.340
1573890400.849,-22.949,4.883,-846.680,-83.008,-487.793
1573890400.853,-23.926,-5.859,-864.258,-85.449,-773.438
1573890400.857,78.613,-16.113,619.141,135.254,280.762
1573890400.861,98.633,-20.020,-878.906,177.246,900.391
1573890400.865,7.324,-4.883,-198.730,-41.504,-142.090
1573890400.869,-33.203,10.254,-1000.000,-119.141,-878.418
1573890400.873,44.434,11.230,-23.926,81.055,-138.184
1573890400.877,106.445,6.348,-772.949,194.336,914.551
1573890400.881,32.715,7.812,147.949,12.695,170.898
1573890400.884,-38.086,14.160,-1000.000,-136.230,-822.266
1573890400.888,24.902,16.113,-238.281,16.602,-435.547
1573890400.892,109.863,15.625,-794.922,201.660,789.551
1573890400.896,63.477,1.465,448.242,88.867,527.832
1573890400.900,-37.598,-9.766,-1000.000,-124.512,-604.492
1573890400.904,-10.742,2.441,-545.410,-55.176,-625.977
1573890400.908,90.332,6.836,991.699,159.668,527.832
1573890400.912,76.172,-0.488,861.328,122.559,754.883
1573890400.916,-28.320,-3.418,-616.699,-106.934,-371.094
1573890400.920,-40.039,6.836,-1000.000,-106.934,-804.688
1573890400.923,65.430,14.648,339.355,118.164,187.012
1573890400.927,96.191,15.137,-811.523,169.922,921.387
1573890400.931,0.000,8.301,-40.527,-36.621,-61.523
1573890400.935,-49.316,0.000,-1000.000,-136.230,-812.500
1573890400.939,33.691,4.395,-109.863,57.617,-148.438
1573890400.943,99.609,8.301,-766.602,194.824,957.520
1573890400.947,25.879,8.789,243.652,20.020,285.645
1573890400.951,-57.617,2.441,-1000.000,-151.367,-769.043
1573890400.955,-1.465,6.348,-315.918,-12.207,-441.406
1573890400.959,87.402,14.160,-821.289,179.688,755.371
1573890400.963,53.711,15.625,508.301,84.961,583.496
1573890400.966,-41.016,8.301,-1000.000,-125.977,-548.828
1573890400.970,-19.531,9.766,-770.508,-67.871,-697.754
1573890400.974,94.727,26.367,751.465,158.691,422.852
1573890400.978,94.727,8.301,975.586,153.809,789.062
1573890400.982,-19.043,-7.324,-501.465,-76.660,-295.410
1573890400.986,-41.016,2.441,-1000.000,-116.211,-847.656
1573890400.990,63.965,1.953,247.559,106.445,54.199
1573890400.994,107.910,4.395,-780.762,187.988,953.125
1573890400.998,8.301,6.836,53.223,-14.160,40.039
1573890401.002,-50.781,11.230,-1000.000,-141.113,-836.426
1573890401.006,32.715,15.137,-140.137,42.969,-279.297
1573890401.009,105.469,9.277,-766.602,201.660,899.902
1573890401.013,44.434,13.184,258.789,40.527,382.324
1573890401.017,-38.086,11.230,-1000.000,-145.508,-712.891
1573890401.021,9.277,7.812,-362.305,-23.926,-515.137
1573890401.025,105.469,5.859,-849.609,183.594,692.871
1573890401.029,79.590,11.230,552.734,110.352,626.953
1573890401.033,-24.414,10.254,-981.445,-114.258,-544.922
1573890401.037,-10.742,1.465,-765.625,-83.984,-712.402
1573890401.041,94.238,4.395,733.398,145.996,402.344
1573890401.045,94.727,5.859,-964.844,166.504,843.750
1573890401.048,-4.395,1.953,-370.117,-58.594,-264.648
1573890401.052,-34.668,1.465,-1000.000,-120.605,-838.867
1573890401.056,50.293,1.465,131.836,95.703,63.965
1573890401.060,92.285,-4.883,-775.879,186.523,968.750
1573890401.064,8.301,0.488,94.238,-10.742,102.539
1573890401.068,-51.758,5.859,-1000.000,-153.809,-771.973
1573890401.072,17.090,0.000,-195.312,8.789,-277.832
1573890401.076,94.238,2.930,-777.832,178.711,862.305
1573890401.080,48.828,10.742,348.633,51.270,452.148
1573890401.084,-48.340,-1.953,-1000.000,-146.484,-643.066
1573890401.088,-15.137,-6.836,-495.117,-53.711,-552.734
1573890401.091,85.938,-5.371,-957.520,163.574,617.188
1573890401.095,65.430,-4.883,724.609,101.074,695.801
1573890401.099,-33.203,12.695,-816.406,-122.559,-455.566
1573890401.103,-38.574,4.395,-908.203,-107.422,-777.832
1573890401.107,64.941,-10.254,559.082,119.141,301.758
1573890401.111,88.867,4.395,-886.719,157.715,875.977
1573890401.115,-18.066,16.113,-200.195,-59.570,-170.410
1573890401.119,-51.758,14.648,-1000.000,-136.230,-858.398
1573890401.123,46.875,12.207,-84.473,63.477,-98.145
1573890401.127,103.516,16.602,-775.391,187.012,960.938
1573890401.131,20.996,11.719,181.641,9.277,172.363
1573890401.134,-55.664,0.488,-1000.000,-146.484,-798.340
1573890401.138,6.836,-7.812,-245.605,6.348,-346.680
1573890401.142,93.750,-11.719,-789.551,187.988,842.773
1573890401.146,45.898,-2.930,379.395,70.312,482.422
1573890401.150,-49.316,5.371,-1000.000,-130.859,-667.969
1573890401.154,-15.137,11.230,-559.570,-51.758,-637.207
1573890401.158,86.914,18.066,990.234,162.598,535.156
1573890401.162,75.195,13.672,794.434,132.324,747.559
1573890401.166,-27.832,-11.230,-736.816,-99.609,-424.805
1573890401.170,-29.785,-13.672,-1000.000,-109.375,-852.051
1573890401.173,76.660,10.254,440.918,124.512,205.566
1573890401.177,97.656,19.043,-887.207,170.898,908.691
1573890401.181,-5.371,19.043,-238.770,-53.223,-101.562
1573890401.185,-52.734,10.254,-1000.000,-142.090,-793.457
1573890401.189,36.621,6.836,-62.500,61.523,-102.539
1573890401.193,102.051,16.602,-772.461,189.941,939.941
1573890401.197,31.738,14.648,241.699,23.438,277.832
1573890401.201,-41.992,7.324,-1000.000,-137.695,-748.047
1573890401.205,13.672,3.906,-324.219,-7.812,-454.590
1573890401.209,97.168,6.836,-826.660,186.523,745.605
1573890401.213,59.082,3.418,520.020,91.309,556.641
1573890401.216,-38.574,-8.301,-1000.000,-124.023,-558.594
1573890401.220,-15.625,8.789,-616.211,-53.711,-642.578
1573890401.224,81.055,13.672,899.414,167.969,463.379
1573890401.228,76.660,-11.719,987.793,138.672,809.082
1573890401.232,-22.461,-12.207,-443.848,-85.938,-250.488
1573890401.236,-44.922,-1.465,-1000.000,-110.352,-790.039
1573890401.240,54.688,-1.465,289.551,107.910,108.887
1573890401.244,92.773,0.000,-787.109,184.082,947.754
1573890401.248,10.742,11.719,52.734,-13.672,44.922
1573890401.252,-48.340,16.602,-1000.000,-134.766,-822.754
1573890401.256,21.973,12.695,-166.504,29.785,-279.297
1573890401.259,98.633,15.625,-770.020,177.734,917.969
1573890401.263,35.156,9.766,319.824,33.203,352.539
1573890401.267,-39.062,-4.395,-1000.000,-140.625,-673.828
1573890401.271,9.766,-13.184,-340.820,-23.926,-441.406
1573890401.275,92.773,-2.441,-844.727,177.734,697.266
1573890401.279,66.406,8.301,639.648,95.215,604.004
1573890401.283,-31.250,1.953,-919.434,-128.418,-584.961
1573890401.287,-24.902,-0.977,-714.355,-83.984,-760.742
1573890401.291,79.102,8.789,817.383,143.066,377.930
1573890401.295,95.215,2.441,-962.891,149.414,813.965
1573890401.298,-6.836,-10.254,-373.047,-73.242,-260.742
1573890401.302,-33.691,-3.906,-1000.000,-124.023,-828.613
1573890401.306,70.312,5.859,234.375,94.238,33.203
1573890401.310,116.211,7.812,-759.766,187.500,958.496
1573890401.314,30.273,10.254,115.234,-8.301,82.031
1573890401.318,-41.016,4.883,-1000.000,-143.066,-808.105
1573890401.322,22.949,0.488,-170.410,31.738,-294.434
1573890401.326,103.027,12.695,-768.066,205.566,879.883
1573890401.330,41.992,11.719,345.215,55.176,444.336
1573890401.334,-44.434,2.441,-1000.000,-145.020,-666.016
1573890401.338,-5.859,4.883,-395.508,-41.504,-556.152
1573890401.341,91.797,10.742,-865.234,179.688,638.672
1573890401.345,67.383,8.301,620.117,118.164,671.387
1573890401.349,-42.480,10.254,-907.715,-118.652,-447.754
1573890401.353,-25.391,9.277,-832.520,-95.703,-700.195
1573890401.357,66.895,6.348,647.949,127.930,338.379
1573890401.361,80.566,6.836,-898.438,155.273,859.375
1573890401.365,-4.883,2.930,-239.746,-61.035,-214.844
1573890401.369,-42.969,6.348,-1000.000,-141.113,-886.230
1573890401.373,38.574,0.977,43.457,66.406,-67.383
1573890401.377,91.309,-12.695,-763.184,182.129,970.215
1573890401.381,20.020,-2.441,180.664,-4.395,164.551
1573890401.384,-41.992,7.324,-1000.000,-150.879,-792.969
1573890401.388,16.113,-0.977,-271.484,3.906,-357.910
1573890401.392,89.355,-2.930,-799.316,174.316,830.078
1573890401.396,45.410,7.812,415.039,54.199,519.043
1573890401.400,-39.551,4.883,-1000.000,-132.324,-645.996
1573890401.404,-9.766,0.000,-568.359,-47.852,-602.539
1573890401.408,81.055,5.859,987.793,158.691,580.078
1573890401.412,56.641,2.441,808.594,105.469,739.258
1573890401.416,-49.316,-2.930,-714.355,-113.281,-406.250
1573890401.420,-43.457,-8.789,-995.117,-107.422,-830.078
1573890401.423,54.688,-6.836,434.570,109.375,206.543
1573890401.427,82.031,0.977,-843.262,166.016,916.504
1573890401.431,-7.324,-5.859,-139.648,-41.016,-128.906
1573890401.435,-51.758,-8.789,-1000.000,-136.230,-877.441
1573890401.439,31.250,0.000,-72.754,54.688,-125.977
1573890401.443,85.449,1.953,-769.531,186.035,940.430
1573890401.447,29.297,-2.930,214.355,22.949,259.277
1573890401.451,-47.363,3.418,-1000.000,-149.414,-724.609
1573890401.455,-1.465,7.812,-291.016,-5.371,-426.270
1573890401.459,95.703,14.160,-805.664,189.453,766.602
1573890401.463,69.336,13.184,437.012,84.473,574.219
1573890401.466,-31.250,9.277,-1000.000,-112.305,-595.215
1573890401.470,-17.090,10.254,-627.441,-52.246,-666.016
1573890401.474,83.984,7.812,915.527,154.297,493.164
1573890401.478,72.754,7.812,875.488,134.277,770.508
1573890401.482,-23.926,2.930,-614.258,-75.195,-335.938
1573890401.486,-32.227,-1.465,-1000.000,-98.145,-799.805
1573890401.490,63.477,0.488,327.148,106.934,141.602
1573890401.494,104.004,3.418,-835.938,174.805,915.039
1573890401.498,9.766,12.695,-108.887,-23.926,-21.973
1573890401.502,-47.852,20.508,-1000.000,-134.277,-824.707
1573890401.506,36.133,20.020,-112.305,48.340,-238.770
1573890401.509,101.562,11.719,-770.508,188.477,927.734
1573890401.513,33.203,15.625,287.109,42.480,360.352
1573890401.517,-45.410,22.949,-1000.000,-128.418,-701.172
1573890401.521,3.418,0.488,-343.750,-18.555,-459.961
1573890401.525,99.609,-17.090,-830.078,188.965,712.891
1573890401.529,68.848,-2.441,516.602,113.770,589.355
1573890401.533,-32.715,4.883,-1000.000,-103.516,-578.125
1573890401.537,-18.555,11.719,-745.117,-62.012,-725.098
1573890401.541,80.078,16.113,747.070,161.621,406.738
1573890401.545,84.961,11.719,-981.934,154.297,797.852
1573890401.548,-19.531,11.230,-373.535,-75.684,-237.305
1573890401.552,-41.016,-0.977,-1000.000,-113.281,-770.996
1573890401.556,65.918,7.812,51.270,102.051,39.551
1573890401.560,109.375,19.043,-776.367,192.383,954.102
1573890401.564,23.926,2.441,112.793,3.906,69.824
1573890401.568,-29.297,4.883,-1000.000,-119.141,-798.828
1573890401.572,39.062,12.695,-167.480,43.457,-258.789
1573890401.576,108.887,12.207,-768.555,197.754,896.484
1573890401.580,50.293,10.254,322.754,60.059,404.297
1573890401.584,-31.738,8.301,-1000.000,-132.812,-675.781
1573890401.588,18.066,9.277,-401.367,-32.715,-529.297
1573890401.591,108.398,10.742,-880.859,173.828,637.695
1573890401.595,76.660,10.742,671.875,110.840,649.414
1573890401.599,-27.832,11.719,-872.070,-112.305,-530.762
1573890401.603,-13.184,12.695,-835.449,-80.078,-774.414
1573890401.607,94.238,3.906,675.293,148.926,328.125
1573890401.611,109.863,12.207,-935.547,170.898,853.027
1573890401.615,12.695,12.207,-317.871,-48.340,-241.699
1573890401.619,-37.109,-8.789,-1000.000,-125.000,-836.426
1573890401.623,46.875,-7.324,18.555,77.148,-8.789
1573890401.627,104.492,-6.836,-778.320,177.734,948.730
1573890401.631,28.809,-6.348,122.559,-14.160,161.133
1573890401.634,-43.457,6.348,-1000.000,-153.809,-813.965
1573890401.638,19.531,7.324,-217.285,12.695,-382.324
1573890401.642,108.398,16.602,-785.156,186.523,835.449
1573890401.646,60.547,27.344,404.297,72.266,471.680
1573890401.650,-18.066,23.438,-1000.000,-105.469,-656.250
1573890401.654,20.508,26.855,-479.980,-21.973,-593.750
1573890401.658,101.074,22.949,-943.359,173.828,584.473
1573890401.662,83.496,15.137,790.527,126.465,713.867
1573890401.666,-9.277,6.348,-720.703,-96.191,-460.449
1573890401.670,-20.508,0.977,-971.191,-99.121,-791.016
1573890401.673,83.008,17.090,460.449,123.535,246.094
1573890401.677,115.234,22.949,-838.867,182.617,875.000
1573890401.681,10.254,0.488,-110.840,-24.902,-116.699
1573890401.685,-24.902,7.324,-1000.000,-120.605,-810.059
1573890401.689,56.152,25.879,-47.852,81.543,-105.957
1573890401.693,102.051,23.438,-763.672,210.938,956.543
1573890401.697,40.527,22.461,218.262,32.715,249.512
1573890401.701,-37.109,20.020,-1000.000,-131.348,-766.113
1573890401.705,23.438,21.484,-286.621,12.695,-425.293
1573890401.709,125.977,28.809,-803.223,196.289,780.273
1573890401.713,73.242,11.230,439.453,81.543,570.801
1573890401.716,-33.203,-3.418,-1000.000,-122.559,-596.191
1573890401.720,-2.441,8.301,-616.699,-56.152,-689.453
1573890401.724,98.633,20.020,921.387,165.527,497.070
1573890401.728,90.820,20.996,889.160,154.297,744.141
1573890401.732,-3.906,22.461,-606.934,-67.383,-397.949
1573890401.736,-17.578,12.207,-1000.000,-93.262,-805.176
1573890401.740,74.707,11.230,346.680,124.023,170.898
1573890401.744,110.352,19.043,-798.340,182.617,945.801
1573890401.748,13.184,20.996,-3.418,-23.926,-25.879
1573890401.752,-43.945,20.020,-1000.000,-129.395,-818.848
1573890401.756,39.551,10.742,-114.258,47.852,-178.223
1573890401.759,108.887,14.648,-766.113,192.383,933.594
1573890401.763,39.551,11.719,242.676,37.598,337.402
1573890401.767,-40.527,10.742,-1000.000,-139.160,-741.211
1573890401.771,6.836,13.184,-361.816,-15.625,-510.742
1573890401.775,104.004,10.254,-842.773,184.082,707.520
1573890401.779,72.754,17.578,497.559,102.539,614.746
1573890401.783,-19.531,24.902,-1000.000,-114.746,-539.551
1573890401.787,0.977,17.090,-683.105,-63.477,-682.617
1573890401.791,93.750,15.625,827.637,158.203,436.523
1573890401.795,82.520,23.438,-998.535,141.602,819.336
1573890401.798,-28.320,15.625,-429.688,-88.867,-262.695
1573890401.802,-43.457,4.883,-1000.000,-127.441,-834.961
1573890401.806,58.594,4.883,215.332,93.750,42.969
1573890401.810,100.098,5.859,-776.367,175.293,948.730
1573890401.814,8.301,10.742,69.336,-22.461,56.152
1573890401.818,-47.363,25.879,-1000.000,-138.672,-880.371
1573890401.822,30.762,23.438,-158.691,35.645,-336.426
1573890401.826,109.375,13.672,-769.531,188.477,868.652
1573890401.830,49.316,19.531,322.266,44.922,381.836
1573890401.834,-37.598,25.879,-1000.000,-133.789,-657.227
1573890401.838,19.531,18.555,-428.711,-29.297,-511.719
1573890401.841,101.074,10.742,-902.344,166.504,646.973
1573890401.845,62.500,18.555,673.828,103.027,665.527
1573890401.849,-27.832,16.602,-862.305,-112.305,-474.609
1573890401.853,-24.902,8.789,-888.184,-87.891,-725.098
1573890401.857,77.637,12.207,597.168,137.207,336.426
1573890401.861,100.586,12.207,-895.996,158.203,860.840
1573890401.865,3.418,8.301,-256.348,-58.105,-166.992
1573890401.869,-25.391,14.648,-1000.000,-112.793,-798.828
1573890401.873,66.406,11.719,8.789,95.215,-22.949
1573890401.877,106.445,8.301,-766.113,189.453,938.477
1573890401.881,17.578,21.484,174.316,-10.254,153.320
1573890401.884,-45.898,19.043,-1000.000,-151.367,-798.828
1573890401.888,18.555,10.742,-190.430,9.277,-377.441
1573890401.892,93.750,20.508,-775.879,179.199,847.168
1573890401.896,54.688,28.809,436.035,67.871,515.625
1573890401.900,-33.691,7.812,-1000.000,-129.883,-611.328
1573890401.904,-2.441,-4.395,-468.750,-47.363,-597.168
1573890401.908,103.027,8.789,-931.152,170.898,587.891
1573890401.912,87.402,16.602,817.871,128.418,709.961
1573890401.916,-20.996,12.207,-731.445,-102.051,-453.613
1573890401.920,-19.043,7.812,-875.000,-93.262,-761.719
1573890401.923,80.566,20.020,637.695,138.184,292.480
1573890401.927,101.562,18.555,-885.742,163.574,866.699
1573890401.931,7.324,16.113,-189.453,-54.199,-134.766
1573890401.935,-38.574,15.625,-1000.000,-131.348,-786.133
1573890401.939,51.758,7.324,18.555,71.289,-87.402
1573890401.943,106.934,-2.930,-755.859,178.223,943.848
1573890401.947,22.461,-9.766,229.492,1.465,219.727
1573890401.951,-49.805,-0.977,-1000.000,-139.160,-751.953
1573890401.955,6.836,9.277,-260.742,3.418,-386.719
1573890401.959,89.844,9.766,-794.922,181.152,805.176
1573890401.963,45.898,5.371,479.004,73.242,521.973
1573890401.966,-42.480,5.859,-1000.000,-128.418,-662.598
1573890401.970,-16.602,3.906,-543.945,-56.152,-645.996
1573890401.974,77.148,-2.930,990.723,161.621,531.738
1573890401.978,82.520,-0.488,899.414,137.695,737.305
1573890401.982,-20.996,15.137,-575.195,-89.355,-418.457
1573890401.986,-46.387,15.625,-1000.000,-108.398,-856.934
1573890401.990,50.293,11.719,391.113,113.770,169.922
1573890401.994,91.797,13.184,-817.871,175.293,909.668
1573890401.998,-8.789,4.883,-44.922,-41.016,-59.082
1573890402.002,-63.477,-3.418,-1000.000,-142.578,-824.707
1573890402.006,28.809,-0.977,-142.090,47.852,-234.375
1573890402.009,90.820,2.930,-770.996,177.734,922.852
1573890402.013,20.508,7.324,275.879,20.020,328.613
1573890402.017,-52.246,-4.395,-1000.000,-140.625,-757.812
1573890402.021,-7.812,-8.789,-316.895,-20.020,-511.719
1573890402.025,86.914,14.648,-827.148,172.852,720.703
1573890402.029,56.152,13.184,563.965,94.727,612.305
1573890402.033,-50.293,0.488,-991.699,-129.395,-591.309
1573890402.037,-28.320,-4.883,-666.992,-74.219,-729.980
1573890402.041,83.984,4.395,879.883,155.273,444.336
1573890402.045,81.055,23.438,950.195,143.066,807.617
1573890402.048,-26.367,22.461,-502.441,-85.938,-279.297
1573890402.052,-36.133,16.602,-1000.000,-121.094,-786.621
1573890402.056,61.523,9.277,245.117,107.910,122.070
1573890402.060,92.773,16.602,-773.926,181.152,954.590
1573890402.064,4.395,24.414,80.078,-23.926,46.875
1573890402.068,-42.480,12.695,-1000.000,-131.836,-816.406
1573890402.072,43.945,3.906,-163.086,50.781,-245.117
1573890402.076,104.980,0.000,-768.555,196.777,923.340
1573890402.080,33.203,5.859,291.992,59.570,385.254
1573890402.084,-48.340,9.277,-1000.000,-119.141,-712.402
1573890402.088,-1.465,7.812,-372.559,-27.344,-529.785
1573890402.091,93.262,17.090,-863.281,178.223,680.664
1573890402.095,68.848,12.207,631.348,113.281,634.277
1573890402.099,-22.949,3.418,-909.668,-108.887,-526.855
1573890402.103,-22.949,8.789,-820.801,-73.730,-720.703
1573890402.107,70.312,14.160,696.777,152.832,364.746
1573890402.111,95.703,17.090,-954.102,166.016,836.426
1573890402.115,5.371,14.648,-349.121,-49.805,-209.473
1573890402.119,-33.691,10.254,-1000.000,-113.770,-829.102
1573890402.123,58.594,15.137,113.281,93.750,-10.742
1573890402.127,105.469,13.672,-763.184,190.918,952.148
1573890402.131,20.508,15.137,145.020,-0.488,123.535
1573890402.134,-34.180,6.836,-1000.000,-125.977,-749.023
1573890402.138,31.250,-4.395,-226.074,25.879,-305.176
1573890402.142,104.980,8.301,-784.668,186.523,852.539
1573890402.146,48.828,21.973,390.137,70.801,479.492
1573890402.150,-41.992,16.602,-1000.000,-120.117,-613.770
1573890402.154,-5.859,10.742,-490.234,-37.109,-516.602
1573890402.158,90.820,8.789,-950.684,174.316,625.488
1573890402.162,95.215,8.789,786.621,133.789,702.637
1573890402.166,-3.906,14.160,-741.211,-90.820,-473.633
1573890402.170,-15.137,-2.441,-935.059,-89.355,-780.762
1573890402.173,80.078,-11.230,534.668,133.301,299.316
1573890402.177,101.074,10.254,-849.609,178.223,879.395
1573890402.181,14.648,24.902,-138.672,-31.250,-197.754
1573890402.185,-30.273,15.137,-1000.000,-115.723,-888.184
1573890402.189,48.828,14.648,-26.367,78.125,-81.543
1573890402.193,116.211,20.020,-758.301,202.148,958.496
1573890402.197,40.039,13.184,213.867,28.320,216.797
1573890402.201,-37.598,21.484,-1000.000,-129.883,-740.723
1573890402.205,27.832,25.391,-240.234,13.184,-360.352
1573890402.209,111.816,9.277,-784.668,195.312,808.105
1573890402.213,72.266,-0.977,420.898,85.449,537.598
1573890402.216,-17.578,5.371,-1000.000,-117.676,-618.164
1573890402.220,2.441,10.254,-579.590,-48.340,-653.809
1573890402.224,99.121,9.277,979.980,167.480,536.133
1573890402.228,88.379,14.160,776.367,136.719,725.098
1573890402.232,-18.066,17.578,-737.793,-91.309,-419.434
1573890402.236,-25.879,12.695,-1000.000,-100.098,-804.199
1573890402.240,68.359,-2.930,391.113,117.188,203.613
1573890402.244,91.797,0.000,-856.445,167.480,912.109
1573890402.248,-0.488,-2.930,-169.922,-39.062,-69.824
1573890402.252,-48.828,-3.906,-1000.000,-131.836,-763.672
1573890402.256,31.738,4.395,-56.152,59.570,-88.379
1573890402.259,104.004,4.883,-766.113,195.801,950.195
1573890402.263,38.574,11.719,249.023,35.645,291.504
1573890402.267,-45.410,16.602,-1000.000,-131.348,-750.488
1573890402.271,14.160,17.090,-301.270,1.465,-489.746
1573890402.275,106.934,17.578,-812.012,187.500,749.512
1573890402.279,69.336,23.926,490.723,96.680,569.336
1573890402.283,-23.438,18.555,-1000.000,-103.027,-621.094
1573890402.287,-4.395,6.348,-666.504,-50.781,-698.730
1573890402.291,90.332,-0.977,849.121,157.227,455.566
1573890402.295,88.379,7.324,988.770,136.230,783.203
1573890402.298,-10.254,7.812,-450.684,-76.660,-331.543
1573890402.302,-30.762,6.348,-1000.000,-103.516,-822.754
1573890402.306,58.594,22.949,264.648,110.840,123.535
1573890402.310,99.121,27.344,-767.578,185.547,931.152
1573890402.314,10.742,21.973,83.984,-19.531,9.766
1573890402.318,-51.270,14.160,-1000.000,-135.254,-828.125
1573890402.322,27.344,11.230,-137.207,44.434,-259.766
1573890402.326,107.910,14.160,-760.254,198.242,901.855
1573890402.330,42.480,9.277,304.199,50.781,386.230
1573890402.334,-44.434,2.441,-1000.000,-132.324,-694.824
1573890402.338,3.418,6.348,-327.637,-23.926,-522.949
1573890402.341,90.332,16.602,-860.352,174.316,672.363
1573890402.345,64.453,18.555,725.098,110.352,688.477
1573890402.349,-32.715,9.766,-831.055,-103.516,-428.223
1573890402.353,-27.832,11.719,-711.426,-82.520,-686.523
1573890402.357,71.289,7.812,828.613,142.578,389.160
1573890402.361,89.844,9.277,-929.199,164.551,834.473
1573890402.365,-7.324,20.996,-291.504,-59.570,-228.027
1573890402.369,-39.551,17.090,-1000.000,-115.234,-789.062
1573890402.373,49.805,14.160,145.996,94.238,39.062
1573890402.377,97.168,20.020,-773.926,187.500,927.734
1573890402.381,20.508,22.949,77.148,1.953,77.148
1573890402.384,-44.922,22.949,-1000.000,-130.371,-741.211
1573890402.388,29.297,24.414,-165.527,32.227,-248.047
1573890402.392,108.398,31.738,-771.973,195.312,858.887
1573890402.396,49.805,30.273,379.395,64.941,410.645
1573890402.400,-38.574,36.133,-1000.000,-122.559,-674.805
1573890402.404,0.977,36.621,-395.508,-29.785,-522.949
1573890402.408,96.680,17.090,-886.230,170.898,634.277
1573890402.412,75.684,12.695,754.395,113.281,684.082
1573890402.416,-24.414,15.137,-762.695,-103.027,-501.953
1573890402.420,-28.809,17.578,-902.832,-85.938,-810.059
1573890402.423,75.684,27.344,574.219,136.230,273.438
1573890402.427,98.145,19.043,-852.539,162.598,861.816
1573890402.431,-4.395,8.789,-155.762,-55.664,-191.406
1573890402.435,-52.734,18.066,-1000.000,-130.859,-887.207
1573890402.439,29.297,21.484,33.203,72.754,-98.633
1573890402.443,92.285,19.531,-759.277,187.012,961.914
1573890402.447,17.090,16.602,189.453,7.812,170.898
1573890402.451,-52.246,22.949,-1000.000,-138.672,-787.109
1573890402.455,8.789,27.344,-262.695,5.859,-375.977
1573890402.459,85.449,20.996,-797.363,172.852,810.059
1573890402.463,45.898,21.484,439.453,66.406,523.926
1573890402.466,-46.387,9.277,-1000.000,-123.535,-637.207
1573890402.470,-18.066,2.441,-631.836,-47.852,-637.207
1573890402.474,83.008,24.902,903.809,162.109,539.551
1573890402.478,73.730,29.297,897.461,122.070,753.906
1573890402.482,-28.809,10.742,-641.113,-102.051,-394.043
1573890402.486,-44.434,0.977,-954.102,-110.352,-821.289
1573890402.490,48.340,5.859,493.164,111.328,201.172
1573890402.494,77.148,13.184,-813.965,165.527,916.016
1573890402.498,-11.230,16.602,-35.645,-41.992,-81.055
1573890402.502,-61.523,17.578,-1000.000,-137.207,-802.734
1573890402.506,28.320,17.578,-77.148,55.176,-121.582
1573890402.509,92.773,12.207,-759.766,187.012,938.965
1573890402.513,16.602,13.184,234.863,24.414,302.734
1573890402.517,-56.641,22.949,-1000.000,-142.090,-731.934
1573890402.521,-0.977,18.555,-273.926,-18.555,-429.199
1573890402.525,95.215,18.555,-798.340,172.363,760.254
1573890402.529,62.500,6.348,458.496,83.496,592.773
1573890402.533,-37.598,-7.324,-1000.000,-127.441,-557.129
1573890402.537,-16.113,18.555,-578.613,-71.289,-689.453
1573890402.541,96.191,21.973,916.504,153.320,450.195
1573890402.545,95.703,12.695,-994.141,146.973,818.848
1573890402.548,-15.625,19.531,-419.434,-77.148,-292.480
1573890402.552,-32.227,20.020,-1000.000,-111.328,-835.938
1573890402.556,72.266,18.555,354.492,110.352,130.859
1573890402.560,104.980,18.066,-786.133,180.664,924.805
1573890402.564,5.859,17.090,19.043,-24.902,-5.371
1573890402.568,-51.758,14.648,-1000.000,-138.672,-786.133
1573890402.572,24.414,18.066,-117.676,40.039,-210.938
1573890402.576,96.680,21.484,-763.672,185.547,885.254
1573890402.580,30.273,18.066,310.059,38.086,355.469
1573890402.584,-58.105,7.324,-1000.000,-138.184,-672.852
1573890402.588,-5.859,1.953,-381.348,-26.367,-497.070
1573890402.591,88.379,12.695,-861.328,173.828,680.664
1573890402.595,53.711,16.602,612.793,97.168,623.535
1573890402.599,-46.387,10.254,-927.734,-112.793,-533.203
1573890402.603,-24.902,14.160,-807.129,-66.406,-684.082
1573890402.607,83.008,28.809,714.355,155.762,411.621
1573890402.611,87.891,23.438,-973.633,154.297,799.805
1573890402.615,-13.184,12.695,-378.906,-65.430,-288.574
1573890402.619,-48.828,8.301,-1000.000,-110.352,-815.918
1573890402.623,48.340,5.859,25.879,88.379,15.625
1573890402.627,94.238,20.508,-776.367,175.293,915.527
1573890402.631,8.789,25.879,130.859,-9.766,65.430
1573890402.634,-52.734,20.020,-1000.000,-135.254,-836.914
1573890402.638,13.184,20.508,-171.875,29.297,-311.523
1573890402.642,93.750,21.973,-769.531,190.918,876.953
1573890402.646,43.457,20.996,348.145,61.035,407.227
1573890402.650,-42.969,9.277,-1000.000,-126.953,-700.195
1573890402.654,-1.953,-5.371,-454.102,-24.902,-561.523
1573890402.658,93.750,10.254,-912.598,181.152,615.234
1573890402.662,72.754,25.391,707.520,122.559,663.086
1573890402.666,-27.832,18.555,-857.910,-103.027,-449.707
1573890402.670,-26.855,18.066,-834.961,-91.309,-702.148
1573890402.673,68.359,22.461,687.012,135.742,335.938
1573890402.677,87.402,24.414,-936.523,165.039,845.215
1573890402.681,-4.883,16.113,-321.777,-53.223,-162.109
1573890402.685,-46.387,14.160,-1000.000,-127.930,-780.762
1573890402.689,43.457,22.461,58.105,76.660,-39.062
1573890402.693,102.051,24.902,-764.160,192.871,944.336
1573890402.697,21.484,26.367,180.664,16.113,164.062
1573890402.701,-50.781,25.879,-1000.000,-133.301,-786.133
1573890402.705,20.020,13.672,-237.305,10.742,-358.887
1573890402.709,104.004,10.254,-786.621,180.176,829.102
1573890402.713,45.410,19.043,428.223,63.477,491.699
1573890402.716,-48.340,14.648,-1000.000,-130.371,-613.281
1573890402.720,-15.137,21.484,-506.836,-47.363,-603.516
1573890402.724,87.891,35.156,-970.703,167.969,544.434
1573890402.728,81.055,41.504,834.961,132.324,712.402
1573890402.732,-24.902,28.809,-672.363,-89.355,-453.125
1573890402.736,-43.457,17.578,-989.746,-105.957,-803.223
1573890402.740,42.480,27.832,453.125,95.215,234.863
1573890402.744,64.941,29.297,-856.934,142.090,891.113
1573890402.748,-35.645,27.832,-148.438,-67.383,-101.074
1573890402.752,-85.938,41.016,-1000.000,-162.109,-814.453
1573890402.756,-6.348,44.434,-123.535,20.996,-130.371
1573890402.759,38.574,47.363,-778.320,125.977,938.477
1573890402.763,-49.805,55.664,229.004,-52.246,289.062
1573890402.767,-125.000,60.059,-1000.000,-214.355,-669.434
1573890402.771,-72.754,70.312,-319.336,-88.867,-384.766
1573890402.775,-0.488,86.426,-819.336,81.543,748.047
1573890402.779,-52.734,85.449,452.637,-36.621,566.406
1573890402.783,-165.527,72.266,-1000.000,-261.230,-551.270
1573890402.787,-152.832,68.359,-718.750,-211.914,-650.391
1573890402.791,-55.176,73.730,828.125,6.348,471.191
1573890402.795,-64.941,71.289,874.512,-18.066,771.484
1573890402.798,-168.945,80.566,-639.160,-250.000,-330.566
1573890402.802,-181.152,96.680,-1000.000,-273.438,-777.344
1573890402.806,-85.449,102.539,280.762,-62.012,164.551
1573890402.810,-44.922,109.375,-806.641,11.230,932.617
1573890402.814,-130.859,106.445,-21.973,-192.383,-1.953
1573890402.818,-188.477,92.285,-1000.000,-308.594,-850.586
1573890402.822,-101.562,78.613,-132.812,-117.676,-261.719
1573890402.826,-23.926,83.008,-771.973,40.039,908.203
1573890402.830,-83.496,76.660,244.629,-93.262,326.172
1573890402.834,-154.297,58.105,-1000.000,-255.859,-743.164
1573890402.838,-94.727,61.523,-347.168,-128.418,-479.980
1573890402.841,6.836,64.941,-842.285,79.102,720.215
1573890402.845,-20.020,54.199,543.945,2.930,607.910
1573890402.849,-105.957,51.270,-1000.000,-196.777,-512.207
1573890402.853,-75.684,49.316,-725.098,-140.137,-647.461
1573890402.857,31.738,38.574,800.781,89.844,415.039
1573890402.861,56.152,37.109,980.469,107.422,801.270
1573890402.865,-32.227,32.227,-452.148,-108.398,-287.109
1573890402.869,-57.617,11.719,-1000.000,-148.438,-826.660
1573890402.873,48.828,-0.977,177.246,79.590,33.691
1573890402.877,104.980,4.395,-770.020,173.828,925.293
1573890402.881,28.809,10.742,112.305,-13.672,93.262
1573890402.884,-22.949,1.465,-1000.000,-127.441,-754.883
1573890402.888,57.617,-14.160,-199.219,52.734,-274.414
1573890402.892,142.090,-5.371,-778.320,217.773,868.164
1573890402.896,95.703,4.883,348.145,92.285,433.594
1573890402.900,10.254,-6.348,-1000.000,-85.938,-655.273
1573890402.904,54.688,-10.254,-514.160,16.113,-534.668
1573890402.908,152.344,-4.883,-968.750,225.098,619.141
1573890402.912,126.953,-3.906,723.633,166.016,670.898
1573890402.916,24.902,-6.348,-844.238,-51.270,-425.293
1573890402.920,26.367,-18.066,-852.539,-28.320,-692.871
1573890402.923,127.441,-24.414,645.508,197.754,326.660
1573890402.927,140.137,-20.508,-898.926,222.168,853.027
1573890402.931,43.457,-14.648,-249.512,0.977,-171.875
1573890402.935,8.789,-8.789,-1000.000,-67.383,-770.996
1573890402.939,99.121,-9.277,66.895,134.766,-5.371
1573890402.943,160.156,-3.418,-766.113,243.652,948.730
1573890402.947,82.520,-7.324,165.527,66.406,149.902
1573890402.951,1.465,-21.484,-1000.000,-78.613,-810.547
1573890402.955,65.430,-19.043,-239.258,68.848,-382.324
1573890402.959,150.879,-15.625,-786.621,237.793,811.523
1573890402.963,100.098,-9.766,387.695,123.047,482.910
1573890402.966,2.441,-4.395,-1000.000,-75.684,-624.023
1573890402.970,28.809,-4.395,-493.164,1.465,-580.078
1573890402.974,137.695,10.254,-940.430,214.844,567.871
1573890402.978,130.859,10.742,714.844,172.852,712.402
1573890402.982,22.461,-12.695,-808.594,-55.664,-441.895
1573890402.986,18.066,-14.648,-958.008,-55.176,-804.688
1573890402.990,118.652,-2.441,499.023,169.922,244.141
1573890402.994,147.461,8.301,-901.367,215.332,867.188
1573890402.998,54.199,13.184,-264.648,5.859,-148.926
1573890403.002,12.695,13.184,-1000.000,-75.684,-822.754
1573890403.006,103.516,7.812,-22.949,115.723,-122.559
1573890403.009,163.574,10.742,-766.113,236.328,912.598
1573890403.013,84.473,20.020,226.562,66.406,254.883
1573890403.017,1.953,15.137,-1000.000,-89.844,-724.609
1573890403.021,55.664,9.277,-279.297,41.016,-435.547
1573890403.025,141.602,10.254,-799.316,215.820,764.160
1573890403.029,104.004,15.625,436.523,116.211,530.762
1573890403.033,5.371,12.207,-1000.000,-86.426,-668.945
1573890403.037,24.902,14.160,-595.703,-23.926,-705.566
1573890403.041,123.535,18.066,917.969,187.500,471.191
1573890403.045,114.746,13.184,933.594,164.551,756.348
1573890403.048,9.766,8.301,-511.230,-53.223,-290.039
1573890403.052,-9.766,-4.395,-1000.000,-77.148,-763.672
1573890403.056,86.426,0.977,246.094,132.324,124.023
1573890403.060,119.629,19.531,-788.574,198.242,928.711
1573890403.064,24.414,20.996,27.344,0.488,9.766
1573890403.068,-33.691,11.719,-1000.000,-100.586,-791.016
1573890403.072,42.480,16.113,-132.812,80.566,-198.242
1573890403.076,108.398,23.926,-766.113,213.867,900.879
1573890403.080,46.387,21.484,261.719,62.500,330.566
1573890403.084,-34.668,14.160,-1000.000,-110.352,-699.219
1573890403.088,13.672,4.883,-331.055,3.906,-489.746
1573890403.091,114.258,10.742,-841.797,210.449,690.430
1573890403.095,83.984,23.926,610.840,128.906,591.309
1573890403.099,-20.508,21.973,-951.660,-94.238,-549.805
1573890403.103,-4.395,24.902,-704.102,-48.828,-717.285
1573890403.107,97.168,36.133,827.148,172.363,399.902
1573890403.111,104.004,38.574,-974.609,169.434,805.176
1573890403.115,2.930,25.879,-404.297,-54.688,-285.156
1573890403.119,-24.414,21.484,-1000.000,-105.469,-791.504
1573890403.123,70.312,42.480,248.535,104.492,88.867
1573890403.127,103.027,21.973,-778.809,185.547,928.711
1573890403.131,17.578,-2.930,58.594,-2.441,66.406
1573890403.134,-26.367,31.250,-1000.000,-116.699,-778.320
1573890403.138,31.738,50.293,-131.836,23.926,-247.559
1573890403.142,89.355,57.617,-762.207,158.691,881.348
1573890403.146,14.648,57.129,306.152,10.254,383.301
1573890403.150,-76.172,56.641,-1000.000,-168.945,-651.367
1573890403.154,-27.832,75.684,-324.707,-66.406,-506.348
1573890403.158,31.250,25.391,-874.512,95.215,632.324
1573890403.162,-1.953,49.805,793.945,29.297,670.410
1573890403.166,-130.371,118.652,-741.211,-204.590,-479.980
1573890403.170,-161.133,52.246,-792.969,-228.516,-745.117
1573890403.173,-61.523,87.402,722.656,-26.367,318.848
1573890403.177,13.672,127.441,-855.957,47.852,834.961
1573890403.181,-92.285,65.430,-153.809,-166.992,-188.965
1573890403.185,-226.562,74.219,-1000.000,-326.660,-794.922
1573890403.189,-73.730,153.809,166.504,-77.637,-34.180
1573890403.193,-55.664,200.195,-740.234,-1.953,918.457
1573890403.197,-252.930,151.367,228.027,-290.527,187.500
1573890403.201,-314.453,172.363,-1000.000,-424.805,-722.656
1573890403.205,-215.332,208.008,-178.711,-254.883,-338.867
1573890403.209,-95.215,208.008,-797.852,-53.711,802.246
1573890403.213,-136.719,222.168,652.344,-162.109,433.105
1573890403.216,-252.441,255.371,-923.828,-376.953,-622.559
1573890403.220,-203.613,233.887,-342.285,-277.832,-564.941
1573890403.224,-89.355,217.285,-954.102,-57.129,551.758
1573890403.228,-110.840,248.535,-862.305,-96.680,693.848
1573890403.232,-189.453,279.785,-164.551,-293.945,-389.648
1573890403.236,-172.852,269.043,-567.383,-272.461,-716.797
1573890403.240,-52.734,263.672,868.652,-33.203,244.141
1573890403.244,4.883,328.125,-749.512,39.551,827.148
1573890403.248,-117.188,318.359,188.965,-184.570,-158.203
1573890403.252,-194.336,255.371,-496.094,-298.340,-775.879
1573890403.256,-72.754,249.512,858.887,-83.984,-63.965
1573890403.259,-8.789,264.648,-892.578,39.062,919.434
1573890403.263,-70.312,266.602,879.395,-100.586,169.434
1573890403.267,-121.582,263.184,800.293,-228.516,-740.234
1573890403.271,-52.734,259.277,975.098,-91.309,-398.438
1573890403.275,59.570,249.512,-981.934,119.141,734.375
1573890403.279,0.488,257.812,986.816,4.395,514.648
1573890403.283,-116.699,237.305,-998.047,-218.262,-575.195
1573890403.287,-49.316,241.699,999.512,-102.051,-606.445
