timestamps,TP9,AF7,AF8,TP10,Right AUX
1573890864.652,129.395,48.828,-807.617,186.523,937.988
1573890864.656,39.551,41.016,-32.227,-8.789,-24.414
1573890864.660,-10.742,42.480,-1000.000,-105.469,-822.266
1573890864.664,76.660,45.898,-83.008,76.172,-188.477
1573890864.668,145.508,48.828,-760.742,210.938,956.543
1573890864.672,75.195,44.434,223.633,57.617,300.293
1573890864.675,-4.883,42.480,-1000.000,-114.258,-776.367
1573890864.679,44.434,37.598,-290.527,13.672,-440.430
1573890864.683,137.207,35.645,-818.359,200.684,768.555
1573890864.687,99.609,45.410,536.621,105.469,589.355
1573890864.691,-0.488,38.574,-1000.000,-103.027,-607.422
1573890864.695,14.648,21.484,-691.406,-53.711,-718.750
1573890864.699,108.398,28.320,836.426,163.086,456.543
1573890864.703,106.934,37.109,-990.723,159.180,810.059
1573890864.707,4.395,32.227,-432.129,-53.711,-259.766
1573890864.711,-16.113,26.855,-1000.000,-87.891,-805.176
1573890864.715,76.172,29.785,297.363,114.258,82.520
1573890864.718,114.258,25.879,-771.973,187.012,955.566
1573890864.722,22.461,11.719,71.289,-1.953,26.855
1573890864.726,-43.945,16.602,-1000.000,-116.699,-836.426
1573890864.730,35.645,28.809,-164.551,47.363,-264.648
1573890864.734,109.375,34.180,-767.090,191.406,914.062
1573890864.738,41.016,25.391,335.449,54.199,420.898
1573890864.742,-48.828,20.508,-1000.000,-126.465,-708.496
1573890864.746,-2.441,22.949,-338.867,-20.996,-544.922
1573890864.750,94.727,20.020,-840.820,177.246,687.500
1573890864.754,64.453,16.113,646.484,94.727,662.109
1573890864.758,-37.598,13.184,-905.762,-112.793,-476.562
1573890864.761,-20.508,5.371,-772.949,-67.871,-709.961
1573890864.765,81.055,6.348,775.879,151.367,357.910
1573890864.769,91.797,20.996,-990.234,157.715,842.773
1573890864.773,-4.883,20.020,-422.852,-56.152,-246.094
1573890864.777,-47.363,8.301,-1000.000,-115.723,-828.613
1573890864.781,48.340,11.230,141.113,87.402,29.785
1573890864.785,94.727,13.672,-778.320,185.547,963.867
1573890864.789,2.930,9.766,88.379,-1.953,108.887
1573890864.793,-55.664,11.719,-1000.000,-131.836,-833.496
1573890864.797,32.227,19.531,-177.246,33.203,-351.074
1573890864.800,110.352,18.066,-773.926,194.336,882.812
1573890864.804,39.551,5.859,355.469,59.082,451.172
1573890864.808,-44.434,7.812,-1000.000,-126.953,-693.359
1573890864.812,2.441,19.531,-465.820,-25.391,-592.285
1573890864.816,101.074,22.949,-928.711,184.570,602.539
1573890864.820,79.102,24.902,739.258,127.930,683.594
1573890864.824,-28.809,20.508,-810.547,-87.891,-495.117
1573890864.828,-25.391,20.996,-877.930,-79.102,-761.719
1573890864.832,84.961,29.297,606.445,141.602,302.734
1573890864.836,107.910,33.203,-877.930,187.012,872.070
1573890864.840,10.742,28.320,-188.965,-23.438,-214.355
1573890864.843,-23.438,27.832,-1000.000,-97.168,-921.875
1573890864.847,66.406,32.715,-42.480,100.586,-117.188
1573890864.851,117.188,31.738,-769.043,203.613,965.332
1573890864.855,36.133,33.203,198.242,27.344,197.266
1573890864.859,-42.480,27.832,-1000.000,-118.652,-824.707
1573890864.863,15.625,22.461,-302.246,26.367,-428.711
1573890864.867,99.121,25.391,-809.570,193.359,806.641
1573890864.871,50.781,25.391,418.945,80.078,508.301
1573890864.875,-43.457,29.297,-1000.000,-112.305,-692.383
1573890864.879,-13.184,34.180,-533.691,-41.992,-688.477
1573890864.883,81.055,25.879,-997.559,168.457,523.438
1573890864.886,66.895,18.555,837.402,130.371,768.066
1573890864.890,-30.762,26.855,-666.504,-80.566,-376.465
1573890864.894,-31.738,32.715,-1000.000,-79.102,-809.082
1573890864.898,61.035,30.762,423.828,134.766,202.148
1573890864.902,83.496,28.320,-840.820,186.035,926.270
1573890864.906,-4.883,19.043,-132.324,-25.879,-84.473
1573890864.910,-54.199,20.020,-1000.000,-115.234,-897.461
1573890864.914,36.621,27.832,-79.590,80.566,-200.684
1573890864.918,104.980,31.250,-769.531,205.078,958.984
1573890864.922,27.832,30.762,209.473,49.805,296.875
1573890864.925,-45.410,23.926,-1000.000,-104.492,-717.773
1573890864.929,22.461,22.949,-306.152,18.555,-424.316
1573890864.933,118.164,30.762,-818.359,203.125,753.418
1573890864.937,73.242,32.715,491.699,107.910,559.570
1573890864.941,-29.785,27.832,-1000.000,-102.051,-607.910
1573890864.945,-4.395,27.832,-633.789,-52.246,-676.758
1573890864.949,106.934,32.715,906.250,164.551,465.820
1573890864.953,104.980,30.762,924.316,153.809,796.387
1573890864.957,-7.324,22.949,-554.688,-70.312,-301.758
1573890864.961,-28.809,27.832,-1000.000,-96.191,-778.809
1573890864.965,76.172,34.668,294.434,110.840,142.578
1573890864.968,108.887,36.621,-783.691,177.246,942.383
1573890864.972,12.695,33.203,41.992,-10.254,5.859
1573890864.976,-46.875,20.996,-1000.000,-120.605,-829.102
1573890864.980,36.621,29.785,-140.137,46.875,-260.254
1573890864.984,105.469,41.992,-767.578,181.641,896.484
1573890864.988,28.809,31.250,289.551,39.551,358.398
1573890864.992,-54.688,22.949,-1000.000,-128.906,-815.430
1573890864.996,3.418,30.762,-402.344,-15.137,-649.902
1573890865.000,107.422,38.574,-858.398,186.035,666.992
1573890865.004,72.266,31.250,534.668,109.375,622.559
1573890865.008,-41.016,23.926,-982.422,-96.191,-543.457
1573890865.011,-25.391,21.973,-846.191,-59.082,-676.758
1573890865.015,85.938,27.344,621.094,142.578,416.016
1573890865.019,86.914,36.133,-935.547,153.320,845.703
1573890865.023,-20.996,31.250,-353.027,-57.129,-239.746
1573890865.027,-43.945,26.855,-1000.000,-109.375,-901.367
1573890865.031,50.293,24.902,141.113,97.168,-4.395
1573890865.035,105.469,26.367,-768.555,190.918,970.703
1573890865.039,26.367,26.855,115.234,8.789,95.215
1573890865.043,-43.945,27.832,-1000.000,-117.676,-804.199
1573890865.047,32.715,30.273,-202.637,38.574,-297.363
1573890865.050,113.281,26.367,-777.344,188.965,900.391
1573890865.054,51.758,29.785,331.543,65.918,444.336
1573890865.058,-30.762,39.551,-1000.000,-111.328,-734.375
1573890865.062,11.719,41.504,-456.055,-21.484,-630.859
1573890865.066,103.027,43.457,-895.508,178.223,622.070
1573890865.070,82.520,42.969,593.750,128.418,671.875
1573890865.074,-28.320,34.180,-946.777,-95.703,-455.078
1573890865.078,-22.949,30.762,-872.070,-77.637,-720.703
1573890865.082,89.844,38.574,578.613,151.855,303.711
1573890865.086,103.027,36.621,-882.812,181.152,879.395
1573890865.090,-2.930,23.926,-206.543,-30.762,-174.316
1573890865.093,-36.621,23.926,-1000.000,-105.469,-859.375
1573890865.097,61.035,33.691,-7.812,93.262,-49.805
1573890865.101,117.188,37.598,-770.020,204.590,969.727
1573890865.105,36.621,31.738,142.090,26.855,153.809
1573890865.109,-39.551,30.273,-1000.000,-115.234,-847.168
1573890865.113,32.227,37.109,-229.004,35.156,-407.715
1573890865.117,114.746,37.109,-787.598,201.660,826.172
1573890865.121,52.246,31.738,410.156,81.543,532.227
1573890865.125,-46.875,22.461,-1000.000,-117.188,-586.914
1573890865.129,-13.184,23.438,-525.391,-44.922,-579.590
1573890865.133,90.820,27.832,-985.352,171.387,559.082
1573890865.136,69.336,27.344,813.965,131.836,750.977
1573890865.140,-37.598,25.391,-676.270,-83.008,-351.562
1573890865.144,-33.203,26.855,-1000.000,-77.637,-804.199
1573890865.148,69.336,30.762,336.914,128.418,176.270
1573890865.152,95.215,32.227,-836.914,179.199,910.156
1573890865.156,6.348,29.785,-89.844,-17.578,-110.352
1573890865.160,-31.738,30.762,-1000.000,-102.539,-894.531
1573890865.164,53.711,30.273,-113.281,80.078,-186.035
1573890865.168,109.375,22.949,-770.508,197.754,956.543
1573890865.172,36.133,17.090,226.562,31.738,271.484
1573890865.175,-41.992,21.973,-1000.000,-123.047,-797.852
1573890865.179,13.184,25.879,-293.457,13.184,-482.910
1573890865.183,104.492,25.391,-805.176,187.988,767.090
1573890865.187,60.059,28.320,423.828,92.773,558.594
1573890865.191,-42.480,24.414,-1000.000,-112.305,-641.602
1573890865.195,-19.043,24.414,-640.625,-57.617,-745.117
1573890865.199,91.309,31.250,887.695,167.480,437.012
1573890865.203,98.633,30.762,914.062,155.762,785.156
1573890865.207,-6.836,26.855,-578.125,-63.965,-306.152
1573890865.211,-25.391,22.949,-1000.000,-87.891,-812.012
1573890865.215,77.637,25.879,327.148,117.676,130.371
1573890865.218,112.305,30.762,-813.965,179.688,931.641
1573890865.222,18.066,24.414,-58.105,-8.301,-21.484
1573890865.226,-38.086,20.020,-1000.000,-119.141,-827.148
1573890865.230,39.551,18.555,-130.371,48.828,-246.094
1573890865.234,101.562,15.137,-773.926,192.383,935.547
1573890865.238,26.367,15.625,236.328,45.410,368.164
1573890865.242,-59.570,16.602,-1000.000,-127.441,-729.492
1573890865.246,-12.207,14.160,-338.379,-21.973,-498.535
1573890865.250,81.543,15.625,-832.031,171.875,720.703
1573890865.254,50.781,19.531,495.605,96.191,601.562
1573890865.258,-50.293,17.578,-1000.000,-122.070,-604.980
1573890865.261,-25.391,23.438,-746.582,-73.242,-777.832
1573890865.265,85.938,18.066,764.160,148.926,378.418
1573890865.269,80.566,6.348,-999.512,140.137,829.102
1573890865.273,-18.555,7.324,-426.270,-75.195,-307.129
1573890865.277,-38.086,16.113,-1000.000,-113.770,-879.883
1573890865.281,62.988,19.531,106.445,91.309,35.645
1573890865.285,106.934,21.973,-787.109,176.270,975.586
1573890865.289,16.602,23.926,65.918,-7.324,64.453
1573890865.293,-40.527,19.043,-1000.000,-130.859,-830.566
1573890865.297,35.156,25.879,-221.680,27.344,-296.387
1573890865.300,109.375,26.367,-788.086,183.594,888.672
1573890865.304,56.152,16.113,334.473,64.453,441.895
1573890865.308,-33.203,8.789,-1000.000,-116.211,-675.781
1573890865.312,-1.465,1.953,-421.875,-27.832,-545.410
1573890865.316,83.984,6.836,-887.695,155.762,637.207
1573890865.320,54.199,13.672,647.461,93.750,677.246
1573890865.324,-44.922,11.719,-887.207,-104.980,-486.816
1573890865.328,-38.086,10.742,-880.859,-82.031,-751.953
1573890865.332,66.895,11.719,597.168,129.883,337.402
1573890865.336,80.566,8.301,-899.414,150.879,881.836
1573890865.340,-15.137,9.277,-264.648,-62.500,-156.738
1573890865.343,-46.875,13.184,-1000.000,-133.789,-822.266
1573890865.347,42.969,14.160,41.504,67.383,-54.199
1573890865.351,95.215,10.254,-763.184,177.246,963.867
1573890865.355,15.625,9.766,167.969,-2.930,182.617
1573890865.359,-40.527,18.066,-1000.000,-138.672,-782.715
1573890865.363,32.227,17.090,-222.656,18.555,-349.609
1573890865.367,109.375,14.160,-780.273,177.734,851.074
1573890865.371,58.105,16.602,364.258,58.105,500.000
1573890865.375,-35.156,9.766,-1000.000,-118.652,-662.598
1573890865.379,2.441,8.789,-500.488,-29.785,-606.445
1573890865.383,106.445,20.508,-943.848,177.734,580.078
1573890865.386,96.191,26.367,716.797,139.160,722.168
1573890865.390,-4.395,17.090,-836.914,-74.219,-443.848
1573890865.394,-17.578,9.277,-903.320,-81.055,-830.566
1573890865.398,80.566,12.695,538.574,128.418,227.539
1573890865.402,102.539,21.484,-829.102,172.852,909.668
1573890865.406,-3.906,19.531,-85.938,-36.621,-139.648
1573890865.410,-52.734,12.695,-1000.000,-129.395,-901.367
1573890865.414,33.203,15.137,-20.996,57.617,-152.832
1573890865.418,87.402,10.742,-757.324,181.152,952.148
1573890865.422,7.812,3.906,208.984,16.602,226.562
1573890865.425,-62.988,8.301,-1000.000,-131.348,-766.602
1573890865.429,-1.953,13.184,-278.809,4.883,-469.727
1573890865.433,86.426,9.766,-807.617,170.898,732.422
1573890865.437,44.922,7.812,488.281,73.242,575.195
1573890865.441,-51.758,13.672,-1000.000,-121.094,-635.742
1573890865.445,-21.484,16.602,-646.973,-61.035,-737.793
1573890865.449,81.543,17.578,887.207,150.879,464.355
1573890865.453,63.965,14.648,947.266,122.559,788.574
1573890865.457,-37.109,8.301,-543.945,-94.727,-318.359
1573890865.461,-43.457,7.812,-1000.000,-110.352,-780.273
1573890865.465,54.199,12.207,365.723,101.074,143.555
1573890865.468,84.473,9.277,-795.898,165.527,937.012
1573890865.472,-13.672,9.766,4.883,-40.039,44.434
1573890865.476,-62.500,3.418,-1000.000,-147.949,-792.969
1573890865.480,20.508,7.324,-148.438,33.691,-223.633
1573890865.484,89.355,22.461,-768.555,170.898,943.848
1573890865.488,24.414,20.996,279.297,21.973,350.586
1573890865.492,-61.523,15.625,-1000.000,-138.672,-724.121
1573890865.496,-8.301,16.113,-327.637,-19.043,-473.145
1573890865.500,98.145,20.020,-824.219,174.316,732.910
1573890865.504,63.965,17.090,527.344,90.332,603.516
1573890865.508,-43.945,4.883,-1000.000,-117.188,-567.383
1573890865.511,-30.762,0.977,-743.652,-71.777,-728.027
1573890865.515,73.242,11.719,793.945,137.207,390.137
1573890865.519,77.148,20.020,952.148,136.230,813.965
1573890865.523,-27.344,11.230,-522.461,-80.566,-234.375
1573890865.527,-49.805,12.695,-1000.000,-114.746,-824.707
1573890865.531,52.246,24.414,194.336,93.262,7.812
1573890865.535,92.285,15.137,-801.758,168.945,950.684
1573890865.539,3.418,3.906,-0.488,-14.160,74.707
1573890865.543,-58.105,18.555,-1000.000,-126.465,-795.898
1573890865.547,20.508,25.879,-166.992,39.062,-296.387
1573890865.550,96.191,21.973,-777.344,182.129,887.207
1573890865.554,27.832,17.090,315.918,43.945,399.902
1573890865.558,-55.176,7.812,-1000.000,-129.883,-780.273
1573890865.562,-0.977,7.324,-439.941,-23.438,-618.652
1573890865.566,92.773,8.301,-892.090,168.457,647.461
1573890865.570,62.500,12.695,608.398,102.539,654.785
1573890865.574,-41.016,17.090,-946.289,-104.980,-562.012
1573890865.578,-27.832,12.207,-819.824,-79.102,-807.129
1573890865.582,80.078,15.137,666.504,136.230,323.730
1573890865.586,90.820,18.555,-917.969,151.855,872.070
1573890865.590,-15.137,19.043,-281.250,-60.547,-211.426
1573890865.593,-41.992,18.555,-1000.000,-120.117,-890.625
1573890865.597,50.781,19.043,33.691,75.195,-20.996
1573890865.601,97.168,18.066,-768.066,177.734,-997.070
1573890865.605,19.043,15.137,152.832,1.465,175.781
1573890865.609,-43.457,8.301,-1000.000,-129.883,-765.625
1573890865.613,27.832,12.695,-226.562,20.996,-329.102
1573890865.617,105.469,25.391,-784.180,183.105,858.398
1573890865.621,49.805,23.438,372.559,68.848,472.168
1573890865.625,-41.016,12.207,-1000.000,-124.023,-650.879
1573890865.629,-4.883,15.137,-528.809,-49.316,-594.238
1573890865.633,87.891,22.461,-980.957,150.391,562.012
1573890865.636,62.988,23.438,781.250,110.352,716.797
1573890865.640,-44.434,18.066,-759.277,-104.980,-474.609
1573890865.644,-53.711,12.695,-935.547,-108.398,-834.961
1573890865.648,49.316,15.137,524.902,107.910,241.211
1573890865.652,72.266,12.207,-854.004,147.461,909.668
1573890865.656,-30.273,4.883,-169.434,-61.035,-111.816
1573890865.660,-67.871,4.395,-1000.000,-142.578,-859.375
1573890865.664,22.461,15.625,3.418,47.852,-95.215
1573890865.668,83.496,20.996,-762.695,172.363,987.305
1573890865.672,3.418,18.066,177.734,7.324,228.516
1573890865.675,-66.895,20.020,-1000.000,-143.066,-787.598
1573890865.679,4.883,23.926,-261.719,1.465,-435.547
1573890865.683,87.891,20.508,-796.387,176.270,803.711
1573890865.687,43.945,15.137,431.641,72.266,511.719
1573890865.691,-42.480,16.113,-1000.000,-121.094,-670.898
1573890865.695,-10.742,13.184,-553.711,-56.641,-648.438
1573890865.699,89.844,3.418,984.375,154.785,515.625
1573890865.703,80.078,9.766,851.074,131.348,756.836
1573890865.707,-20.020,8.789,-649.414,-83.496,-359.863
1573890865.711,-24.902,4.883,-1000.000,-97.168,-765.625
1573890865.715,87.891,12.695,389.648,117.676,189.453
1573890865.718,120.605,14.648,-802.734,175.781,929.688
1573890865.722,12.695,14.160,-10.254,-28.809,-36.621
1573890865.726,-36.621,15.137,-1000.000,-129.883,-851.562
1573890865.730,52.734,15.625,-106.445,51.270,-198.242
1573890865.734,119.141,13.672,-763.672,187.988,948.242
1573890865.738,43.945,8.301,259.277,32.715,354.492
1573890865.742,-42.480,8.789,-1000.000,-125.000,-746.094
1573890865.746,9.766,14.648,-355.469,-4.883,-508.789
1573890865.750,101.562,14.160,-835.938,170.410,718.750
1573890865.754,64.941,13.184,503.418,88.379,624.023
1573890865.758,-33.203,11.719,-1000.000,-108.887,-550.293
1573890865.761,-17.578,1.953,-791.504,-70.312,-719.238
1573890865.765,77.637,6.836,711.914,139.160,428.223
1573890865.769,76.172,22.461,995.605,137.207,796.387
1573890865.773,-23.926,20.996,-477.539,-76.172,-312.988
1573890865.777,-47.363,8.301,-1000.000,-113.281,-851.562
1573890865.781,49.316,10.254,233.887,90.332,54.199
1573890865.785,89.844,17.090,-777.832,167.969,972.168
1573890865.789,-5.859,13.672,72.266,-23.438,83.008
1573890865.793,-68.848,13.184,-1000.000,-135.742,-839.844
1573890865.797,12.207,16.113,-189.453,34.180,-331.543
1573890865.800,89.355,16.113,-775.879,183.105,881.348
1573890865.804,27.832,15.137,289.062,50.293,421.387
1573890865.808,-54.688,15.625,-1000.000,-130.371,-721.680
1573890865.812,-7.812,17.578,-381.836,-26.367,-589.844
1573890865.816,97.168,20.996,-850.586,178.711,667.480
1573890865.820,75.195,21.973,550.293,112.305,637.695
1573890865.824,-37.598,24.902,-992.676,-104.004,-545.898
1573890865.828,-32.715,21.973,-796.875,-78.613,-754.883
1573890865.832,78.125,22.949,698.730,137.695,348.633
1573890865.836,96.680,26.367,-944.336,160.156,831.055
1573890865.840,-6.836,21.973,-334.961,-59.082,-252.441
1573890865.843,-40.039,22.461,-1000.000,-127.441,-821.289
1573890865.847,58.594,22.461,56.641,78.125,-13.184
1573890865.851,111.816,21.484,-785.156,177.734,948.730
1573890865.855,20.508,22.461,88.379,-5.371,78.613
1573890865.859,-56.152,20.020,-1000.000,-134.766,-854.004
1573890865.863,20.508,19.531,-207.520,31.738,-323.242
1573890865.867,103.027,26.367,-782.227,195.312,883.301
1573890865.871,41.504,24.414,356.934,70.801,443.359
1573890865.875,-52.734,18.066,-1000.000,-112.305,-758.789
1573890865.879,-14.160,9.277,-479.492,-31.738,-646.973
1573890865.883,86.426,7.324,-939.941,165.527,587.402
1573890865.886,65.430,7.812,732.910,125.977,724.609
1573890865.890,-47.363,9.766,-788.086,-90.820,-437.500
1573890865.894,-48.340,12.207,-965.820,-89.844,-814.941
1573890865.898,54.199,13.672,453.125,120.117,234.863
1573890865.902,71.289,12.695,-862.305,156.250,875.000
1573890865.906,-21.973,13.184,-173.340,-43.457,-124.023
1573890865.910,-58.594,15.137,-1000.000,-121.582,-826.172
1573890865.914,32.715,15.625,-7.812,72.754,-104.980
1573890865.918,98.145,25.391,-762.207,189.453,974.121
1573890865.922,21.484,30.273,190.918,20.508,208.008
1573890865.925,-60.059,26.855,-1000.000,-126.465,-836.426
1573890865.929,9.277,27.344,-268.066,13.672,-437.988
1573890865.933,104.980,28.320,-795.898,186.523,799.805
1573890865.937,55.176,23.926,394.531,80.078,541.504
1573890865.941,-41.992,23.438,-1000.000,-115.723,-618.652
1573890865.945,-10.742,21.973,-578.613,-48.340,-661.621
1573890865.949,90.820,25.391,954.590,157.715,502.930
1573890865.953,81.543,26.855,862.305,130.371,768.555
1573890865.957,-25.391,21.973,-657.227,-88.379,-374.512
1573890865.961,-34.668,25.391,-1000.000,-103.516,-772.949
1573890865.965,76.660,37.109,431.641,119.141,237.305
1573890865.968,106.934,34.668,-837.891,178.711,939.453
1573890865.972,-0.488,23.926,-125.488,-31.250,-81.543
1573890865.976,-47.852,19.043,-1000.000,-133.301,-881.836
1573890865.980,42.480,17.090,-92.773,42.969,-195.312
1573890865.984,104.004,23.926,-770.020,173.828,951.172
1573890865.988,27.344,29.785,233.887,23.438,307.129
1573890865.992,-58.105,25.879,-1000.000,-140.625,-808.105
1573890865.996,-1.465,24.414,-323.242,-18.555,-552.246
1573890866.000,89.355,19.043,-817.871,167.480,724.121
1573890866.004,49.316,17.090,429.688,76.660,568.848
1573890866.008,-50.781,21.973,-1000.000,-122.559,-625.977
1573890866.011,-33.203,17.090,-654.785,-63.965,-701.660
1573890866.015,74.219,12.695,853.516,155.273,445.312
1573890866.019,78.125,19.531,970.703,149.414,811.035
1573890866.023,-35.156,28.809,-484.863,-67.871,-255.859
1573890866.027,-52.734,30.273,-1000.000,-99.121,-791.504
1573890866.031,58.594,26.367,234.375,107.422,88.867
1573890866.035,100.586,24.414,-782.227,183.594,956.055
1573890866.039,8.301,23.438,70.312,-10.254,31.738
1573890866.043,-49.805,16.113,-1000.000,-129.395,-852.539
1573890866.047,32.227,16.602,-176.270,38.086,-289.062
1573890866.050,103.516,22.461,-771.484,179.688,907.227
1573890866.054,41.016,23.926,320.312,42.480,406.738
1573890866.058,-39.551,18.555,-1000.000,-127.441,-750.977
1573890866.062,6.836,9.766,-356.934,-29.297,-605.957
1573890866.066,103.027,23.438,-850.586,159.668,666.016
1573890866.070,76.172,28.809,634.277,95.703,630.859
1573890866.074,-27.832,15.625,-905.273,-117.188,-543.945
1573890866.078,-20.020,17.090,-814.453,-86.426,-742.676
1573890866.082,80.566,22.949,680.664,128.418,344.727
1573890866.086,89.844,20.020,-901.855,134.277,865.723
1573890866.090,-16.113,15.625,-274.902,-77.637,-224.121
1573890866.093,-47.363,17.578,-1000.000,-133.301,-858.887
1573890866.097,49.316,19.531,151.855,73.242,8.789
1573890866.101,95.703,21.484,-756.836,171.875,987.793
1573890866.105,2.930,16.602,145.508,-21.973,113.770
1573890866.109,-66.895,10.742,-1000.000,-155.273,-871.582
1573890866.113,8.789,12.695,-187.012,2.441,-381.836
1573890866.117,84.961,16.113,-770.996,163.574,874.023
1573890866.121,22.949,12.207,327.148,44.922,448.730
1573890866.125,-62.500,9.277,-1000.000,-132.324,-713.379
1573890866.129,-17.578,15.625,-466.309,-36.621,-570.801
1573890866.133,82.031,20.996,-909.180,168.945,610.352
1573890866.136,59.570,19.043,638.184,118.164,700.684
1573890866.140,-42.969,15.625,-909.668,-104.980,-474.609
1573890866.144,-35.645,17.578,-874.512,-89.355,-792.969
1573890866.148,72.754,22.949,572.754,134.766,290.527
1573890866.152,99.609,30.273,-860.352,166.992,899.902
1573890866.156,2.441,22.949,-163.574,-41.992,-99.609
1573890866.160,-51.758,9.277,-1000.000,-124.023,-825.195
1573890866.164,37.598,11.230,23.926,73.730,-93.262
1573890866.168,107.910,18.555,-764.160,191.895,963.867
1573890866.172,39.551,12.695,162.109,24.902,173.340
1573890866.175,-34.668,8.301,-1000.000,-118.652,-882.324
1573890866.179,33.203,17.090,-262.695,16.602,-475.586
1573890866.183,128.906,19.531,-798.340,196.289,798.828
1573890866.187,72.754,16.602,415.039,92.773,550.293
1573890866.191,-21.484,11.719,-1000.000,-100.098,-586.426
1573890866.195,30.273,4.883,-624.023,-17.578,-604.492
1573890866.199,136.230,12.695,922.852,191.895,540.527
1573890866.203,122.070,18.555,833.984,161.621,748.535
1573890866.207,14.160,13.672,-690.430,-54.688,-394.531
1573890866.211,6.348,12.695,-1000.000,-61.523,-835.449
1573890866.215,105.957,14.160,398.438,151.367,188.965
1573890866.218,137.207,15.625,-833.008,211.426,932.129
1573890866.222,39.062,12.207,-101.074,8.789,-77.637
1573890866.226,-12.695,5.859,-1000.000,-93.750,-887.695
1573890866.230,81.055,0.000,-133.789,93.750,-201.660
1573890866.234,147.461,2.930,-777.344,229.492,950.684
1573890866.238,73.242,12.207,222.656,73.730,300.293
1573890866.242,-13.184,12.695,-1000.000,-83.984,-723.145
1573890866.246,44.922,19.043,-317.383,42.480,-429.688
1573890866.250,128.418,25.391,-820.312,220.215,753.906
1573890866.254,77.148,20.996,473.145,124.512,565.918
1573890866.258,-17.090,15.625,-1000.000,-74.219,-584.961
1573890866.261,11.230,20.508,-669.434,-14.648,-661.133
1573890866.265,115.723,25.391,882.812,198.730,463.867
1573890866.269,110.840,25.391,874.023,185.059,786.621
1573890866.273,5.859,20.996,-624.023,-36.621,-339.355
1573890866.277,-6.836,15.625,-1000.000,-65.430,-854.004
1573890866.281,91.797,25.391,242.676,144.531,107.910
1573890866.285,126.465,33.203,-808.105,207.520,946.777
1573890866.289,35.156,20.996,-16.602,6.836,-11.230
1573890866.293,-22.461,23.438,-1000.000,-103.027,-809.570
1573890866.297,61.523,32.227,-149.902,69.336,-208.496
1573890866.300,129.883,32.227,-772.949,206.543,931.152
1573890866.304,64.941,23.926,272.949,64.453,366.211
1573890866.308,-22.461,19.531,-1000.000,-108.398,-744.141
1573890866.312,25.879,26.367,-401.855,1.465,-560.547
1573890866.316,126.465,32.227,-874.023,193.359,653.320
1573890866.320,89.355,31.250,608.398,117.676,653.809
1573890866.324,-16.602,24.414,-952.148,-87.891,-573.242
1573890866.328,-0.977,27.344,-776.855,-57.129,-842.773
1573890866.332,98.633,32.715,743.164,153.809,348.145
1573890866.336,102.539,31.738,-977.539,165.527,841.309
1573890866.340,1.953,34.180,-387.695,-46.387,-258.789
1573890866.343,-25.879,31.250,-1000.000,-99.121,-860.352
1573890866.347,68.848,26.855,93.262,97.656,13.672
1573890866.351,106.445,28.320,-778.320,179.688,982.910
1573890866.355,12.695,24.902,122.070,-8.301,126.953
1573890866.359,-50.781,20.996,-1000.000,-127.930,-839.844
1573890866.363,28.320,29.297,-245.117,34.668,-349.121
1573890866.367,109.375,36.133,-790.527,189.941,883.301
1573890866.371,44.922,20.508,354.492,64.453,445.312
1573890866.375,-44.922,11.719,-1000.000,-114.746,-666.504
1573890866.379,1.953,19.043,-437.012,-20.508,-562.500
1573890866.383,102.051,25.879,-901.367,180.664,615.234
1573890866.386,79.102,29.785,691.406,130.371,681.152
1573890866.390,-26.367,21.973,-852.051,-81.055,-520.996
1573890866.394,-26.367,19.043,-877.930,-75.195,-806.152
1573890866.398,78.613,27.832,609.863,140.137,297.852
1573890866.402,105.957,29.785,-890.137,172.363,875.488
1573890866.406,7.324,28.320,-252.930,-42.969,-189.453
1573890866.410,-34.180,23.926,-1000.000,-116.211,-864.746
1573890866.414,61.523,26.367,45.410,78.613,-65.430
1573890866.418,116.699,30.273,-765.137,194.336,978.027
1573890866.422,30.762,30.762,166.504,24.902,185.059
1573890866.425,-39.551,30.273,-1000.000,-118.652,-829.102
1573890866.429,26.855,20.996,-240.234,26.855,-375.000
1573890866.433,108.398,24.902,-788.574,194.824,851.562
1573890866.437,56.641,27.344,403.320,85.938,491.699
1573890866.441,-32.227,22.461,-1000.000,-103.516,-705.566
1573890866.445,0.488,25.879,-539.551,-26.367,-700.195
1573890866.449,96.191,21.484,-993.652,179.688,524.414
1573890866.453,81.055,18.066,806.641,142.090,737.793
1573890866.457,-26.367,18.066,-725.098,-79.102,-418.945
1573890866.461,-27.832,19.043,-958.496,-82.031,-791.504
1573890866.465,80.078,18.555,481.445,133.789,233.398
1573890866.468,104.492,20.020,-832.520,174.316,912.109
1573890866.472,6.836,27.832,-88.379,-33.203,-97.168
1573890866.476,-38.086,26.367,-1000.000,-119.141,-861.816
1573890866.480,51.270,25.879,-76.172,71.289,-181.641
1573890866.484,114.258,30.273,-764.648,194.336,956.055
1573890866.488,38.086,32.227,226.074,28.320,282.715
1573890866.492,-40.527,29.297,-1000.000,-129.883,-806.152
1573890866.496,17.090,25.391,-335.449,-3.418,-514.648
1573890866.500,114.746,22.949,-825.684,189.941,755.859
1573890866.504,82.520,24.902,457.031,111.816,580.078
1573890866.508,-32.227,27.344,-1000.000,-108.398,-635.742
1573890866.511,-17.578,31.738,-765.137,-63.477,-747.559
1573890866.515,86.426,41.504,748.047,145.996,441.895
1573890866.519,79.102,39.062,953.125,129.395,783.691
1573890866.523,-12.207,34.668,-558.594,-73.242,-296.875
1573890866.527,-31.738,37.109,-1000.000,-106.445,-780.273
1573890866.531,59.570,39.551,312.988,90.820,107.422
1573890866.535,104.980,51.270,-788.574,163.086,972.168
1573890866.539,14.648,52.734,32.227,-32.715,11.230
1573890866.543,-44.434,38.086,-1000.000,-145.020,-874.023
1573890866.547,37.598,35.156,-149.414,28.320,-242.676
1573890866.550,110.840,47.852,-769.043,167.969,928.223
1573890866.554,45.898,42.480,257.812,26.855,360.352
1573890866.558,-43.457,32.715,-1000.000,-145.996,-744.141
1573890866.562,5.859,38.574,-344.727,-28.809,-520.020
1573890866.566,103.027,42.480,-832.031,172.363,703.125
1573890866.570,72.754,41.992,508.301,102.539,621.094
1573890866.574,-23.438,39.551,-1000.000,-99.121,-562.988
1573890866.578,-9.766,41.504,-727.051,-61.035,-749.512
1573890866.582,95.215,46.875,789.551,157.715,399.414
1573890866.586,106.445,45.410,-993.164,161.133,839.355
1573890866.590,2.441,41.504,-423.828,-61.523,-249.512
1573890866.593,-34.180,33.691,-1000.000,-107.422,-838.379
1573890866.597,61.523,29.785,149.414,102.051,40.039
1573890866.601,109.375,27.344,-792.480,182.617,974.609
1573890866.605,19.531,29.785,35.645,-10.742,81.055
1573890866.609,-44.434,34.180,-1000.000,-125.488,-808.594
1573890866.613,37.598,36.621,-172.363,42.969,-253.906
1573890866.617,121.094,37.598,-775.391,192.383,910.645
1573890866.621,60.547,32.715,327.148,62.012,430.664
1573890866.625,-29.297,28.809,-1000.000,-115.234,-671.387
1573890866.629,12.695,30.273,-416.504,-20.020,-557.617
1573890866.633,111.328,29.785,-889.160,180.664,624.023
1573890866.636,89.844,33.203,675.781,123.047,680.176
1573890866.640,-11.230,32.715,-849.609,-91.797,-510.742
1573890866.644,-9.766,25.879,-906.250,-76.172,-795.898
1573890866.648,87.402,32.715,545.898,129.395,296.875
1573890866.652,91.797,31.250,-890.625,150.391,871.582
1573890866.656,-14.160,24.902,-239.746,-54.199,-164.062
1573890866.660,-42.480,29.785,-1000.000,-125.488,-835.449
1573890866.664,51.758,33.203,52.246,69.336,-24.902
1573890866.668,101.562,37.109,-763.672,176.270,982.910
1573890866.672,19.043,35.156,156.738,-2.930,154.785
1573890866.675,-51.758,26.367,-1000.000,-138.672,-828.613
1573890866.679,19.043,26.367,-234.863,8.789,-389.160
1573890866.683,107.910,29.297,-784.668,176.758,861.328
1573890866.687,54.688,29.785,360.840,63.965,493.164
1573890866.691,-40.039,24.902,-1000.000,-128.906,-700.684
1573890866.695,-0.488,25.879,-506.348,-43.945,-642.578
1573890866.699,99.609,37.109,-965.820,166.504,572.266
1573890866.703,83.984,35.645,765.137,127.930,706.055
1573890866.707,-12.695,31.738,-772.461,-89.355,-505.371
1573890866.711,-4.883,34.180,-947.754,-83.496,-823.730
1573890866.715,97.168,32.715,503.418,133.301,250.000
1573890866.718,119.141,30.762,-851.074,170.410,920.898
1573890866.722,18.555,21.484,-156.250,-36.621,-79.102
1573890866.726,-30.762,20.508,-1000.000,-124.512,-844.727
1573890866.730,59.570,32.227,-19.043,65.918,-131.836
1573890866.734,120.605,36.133,-763.672,193.848,980.469
1573890866.738,41.016,33.691,181.152,23.438,263.672
1573890866.742,-40.039,20.508,-1000.000,-134.277,-803.223
1573890866.746,19.043,20.996,-250.977,-2.930,-446.289
1573890866.750,102.539,23.438,-800.293,176.758,805.664
1573890866.754,63.477,21.973,493.164,77.148,542.969
1573890866.758,-30.762,23.438,-1000.000,-124.023,-606.934
1573890866.761,-9.766,20.020,-562.988,-60.059,-690.918
1573890866.765,86.914,18.555,960.449,146.484,450.195
1573890866.769,78.125,20.508,952.148,128.418,788.574
1573890866.773,-30.273,15.137,-509.766,-86.914,-382.324
1573890866.777,-42.969,18.555,-1000.000,-112.305,-865.234
1573890866.781,62.500,22.949,376.953,103.027,140.625
1573890866.785,90.820,13.672,-783.203,170.898,952.637
1573890866.789,-0.977,10.254,41.016,-26.367,-1.953
1573890866.793,-46.387,6.348,-1000.000,-123.047,-780.273
1573890866.797,44.922,12.207,-107.910,58.105,-168.945
1573890866.800,121.582,19.531,-758.789,192.383,949.707
1573890866.804,51.758,10.742,288.086,47.363,321.289
1573890866.808,-37.109,10.254,-1000.000,-119.141,-781.250
1573890866.812,21.484,13.184,-313.965,1.465,-471.680
1573890866.816,119.629,18.555,-831.055,193.848,739.746
1573890866.820,75.195,25.879,606.445,100.586,609.375
1573890866.824,-31.738,26.855,-939.941,-122.070,-550.781
1573890866.828,-5.859,29.297,-741.211,-76.172,-716.797
1573890866.832,111.816,33.691,787.598,149.902,390.137
1573890866.836,115.723,34.668,-957.520,151.367,820.801
1573890866.840,6.348,29.297,-386.719,-64.453,-305.664
1573890866.843,-23.926,24.902,-1000.000,-109.375,-875.000
1573890866.847,70.801,28.809,268.066,93.750,66.895
1573890866.851,115.723,31.250,-763.184,181.152,965.820
1573890866.855,22.949,22.949,104.492,-5.859,65.918
1573890866.859,-43.457,16.113,-1000.000,-127.441,-833.008
1573890866.863,39.062,25.879,-165.527,42.480,-314.941
1573890866.867,116.699,30.762,-767.578,198.730,899.414
1573890866.871,47.852,23.438,289.551,57.129,428.711
1573890866.875,-45.898,20.996,-1000.000,-128.906,-691.895
1573890866.879,-3.418,23.438,-420.410,-24.902,-565.430
1573890866.883,89.355,27.344,-873.535,170.898,632.324
1573890866.886,65.430,25.391,557.617,111.328,667.480
1573890866.890,-37.598,20.508,-992.676,-101.562,-536.621
1573890866.894,-26.855,26.367,-790.527,-77.637,-794.434
1573890866.898,81.543,22.461,686.035,147.461,348.145
1573890866.902,92.773,18.555,-904.785,169.922,856.445
1573890866.906,-11.230,27.344,-252.930,-46.387,-183.594
1573890866.910,-41.016,20.508,-1000.000,-108.887,-809.082
1573890866.914,63.965,24.414,64.453,97.656,-28.809
1573890866.918,110.840,32.227,-766.113,195.312,982.422
1573890866.922,22.461,27.344,138.184,11.719,130.859
1573890866.925,-41.504,27.344,-1000.000,-124.512,-793.457
1573890866.929,32.715,27.832,-242.676,23.926,-359.863
1573890866.933,118.652,26.855,-791.992,187.012,819.824
1573890866.937,62.012,26.367,392.090,69.824,497.070
1573890866.941,-26.367,24.902,-1000.000,-112.305,-637.695
1573890866.945,13.184,23.926,-542.480,-23.438,-582.031
1573890866.949,121.094,18.555,998.047,184.570,570.312
1573890866.953,111.816,21.484,794.434,149.414,724.121
1573890866.957,9.766,37.598,-737.793,-60.059,-401.367
1573890866.961,6.348,25.879,-960.938,-58.105,-743.164
1573890866.965,100.098,26.367,495.605,153.320,255.371
1573890866.968,116.211,41.016,-854.980,182.617,897.949
1573890866.972,19.043,30.762,-155.273,-20.020,-147.949
1573890866.976,-20.508,25.879,-1000.000,-95.703,-893.066
1573890866.980,57.129,27.344,-101.562,73.730,-138.184
1573890866.984,128.418,35.645,-771.484,200.684,958.496
1573890866.988,62.500,36.621,226.074,46.387,247.559
1573890866.992,-42.969,24.414,-1000.000,-128.418,-748.535
1573890866.996,10.254,25.391,-265.625,2.930,-381.836
1573890867.000,91.797,43.945,-796.875,164.551,804.199
1573890867.004,29.785,38.574,454.590,43.945,543.945
1573890867.008,-73.242,23.926,-1000.000,-160.156,-597.168
1573890867.011,-54.688,26.855,-579.590,-107.910,-646.973
1573890867.015,38.086,28.809,975.586,98.145,500.488
1573890867.019,18.555,40.039,847.656,71.777,752.441
1573890867.023,-87.402,44.922,-669.922,-151.367,-417.480
1573890867.027,-98.145,42.480,-1000.000,-172.852,-886.230
1573890867.031,0.488,35.156,379.395,37.109,109.375
1573890867.035,35.645,31.250,-812.012,101.562,921.875
1573890867.039,-55.176,24.902,-36.133,-89.844,-31.250
1573890867.043,-105.957,19.043,-1000.000,-185.547,-832.520
1573890867.047,-21.973,21.484,-116.699,-9.277,-213.379
1573890867.050,49.316,25.391,-765.625,125.977,936.523
1573890867.054,-12.207,22.949,276.367,-13.672,326.172
1573890867.058,-83.984,20.996,-1000.000,-172.363,-785.645
1573890867.062,-20.508,23.438,-342.773,-52.246,-521.973
1573890867.066,76.172,22.461,-834.961,138.672,729.980
1573890867.070,41.016,17.578,554.688,55.176,586.426
1573890867.074,-60.547,12.207,-1000.000,-147.949,-573.242
1573890867.078,-35.645,17.090,-681.641,-93.262,-719.238
1573890867.082,75.684,29.297,848.633,129.883,411.133
1573890867.086,77.148,31.738,993.164,133.301,816.895
1573890867.090,-25.391,29.785,-424.805,-84.961,-279.785
1573890867.093,-48.340,28.809,-1000.000,-128.418,-825.684
1573890867.097,48.828,31.738,168.945,83.496,72.266
1573890867.101,88.867,29.785,-779.785,163.574,958.008
1573890867.105,3.418,16.113,85.449,-23.926,32.715
1573890867.109,-47.852,13.184,-1000.000,-130.859,-823.242
1573890867.113,33.203,27.832,-190.430,34.180,-275.879
1573890867.117,99.609,28.320,-775.391,175.293,903.320
1573890867.121,33.691,24.414,326.172,44.922,420.410
1573890867.125,-49.316,28.809,-1000.000,-124.023,-747.559
1573890867.129,-1.465,29.297,-383.301,-17.578,-595.215
1573890867.133,99.609,30.762,-866.211,176.758,645.020
1573890867.136,73.730,28.320,651.855,111.816,657.227
1573890867.140,-28.809,18.555,-893.555,-90.332,-520.996
1573890867.144,-15.137,14.160,-815.430,-64.453,-808.105
1573890867.148,89.355,17.578,704.590,144.043,314.941
1573890867.152,96.191,27.344,-948.730,156.738,853.027
1573890867.156,-4.395,26.855,-355.957,-56.641,-230.469
1573890867.160,-32.227,20.508,-1000.000,-110.352,-874.512
1573890867.164,64.453,25.879,97.168,92.285,-43.945
1573890867.168,110.840,32.227,-765.625,188.965,968.750
1573890867.172,21.973,33.691,133.789,8.789,151.855
1573890867.175,-41.504,27.832,-1000.000,-125.488,-842.773
1573890867.179,32.227,25.391,-202.148,30.762,-391.602
1573890867.183,118.164,32.227,-777.832,204.590,844.238
1573890867.187,65.918,34.180,371.094,87.891,507.324
1573890867.191,-36.621,28.320,-1000.000,-106.934,-590.332
1573890867.195,0.488,22.949,-463.867,-24.414,-584.473
1573890867.199,110.352,23.438,-923.340,183.594,583.496
1573890867.203,96.191,30.762,731.445,140.137,724.121
1573890867.207,-7.324,33.691,-795.898,-75.195,-424.316
1573890867.211,-8.789,31.250,-930.176,-64.941,-800.781
1573890867.215,100.586,37.109,531.250,151.855,250.488
1573890867.218,125.000,37.109,-860.352,182.129,884.766
1573890867.222,22.461,25.879,-171.387,-27.832,-158.691
1573890867.226,-15.137,22.949,-1000.000,-95.215,-819.824
1573890867.230,79.102,35.156,-14.648,106.445,-83.008
1573890867.234,139.648,43.945,-764.160,218.750,951.660
1573890867.238,52.734,35.156,202.637,43.457,250.000
1573890867.242,-21.973,25.879,-1000.000,-106.934,-749.512
1573890867.246,45.898,32.715,-296.875,29.297,-393.066
1573890867.250,136.719,43.945,-807.617,206.055,805.664
1573890867.254,89.844,47.363,403.809,103.516,529.785
1573890867.258,-10.254,39.062,-1000.000,-95.215,-611.816
1573890867.261,18.555,29.297,-709.473,-30.273,-678.223
1573890867.265,116.211,34.180,815.430,176.270,471.191
1573890867.269,106.934,39.062,902.344,148.926,771.484
1573890867.273,0.488,33.691,-630.371,-66.895,-350.098
1573890867.277,-10.254,34.180,-1000.000,-71.777,-829.590
1573890867.281,102.051,39.062,383.301,152.344,147.461
1573890867.285,127.930,34.668,-817.871,206.055,938.477
1573890867.289,19.043,31.738,-49.316,-10.254,-58.594
1573890867.293,-31.738,32.227,-1000.000,-113.281,-822.266
1573890867.297,52.246,32.227,-123.047,64.453,-177.246
1573890867.300,125.488,36.133,-770.508,195.312,924.316
1573890867.304,54.199,31.738,225.098,41.016,262.207
1573890867.308,-39.551,25.391,-1000.000,-134.277,-796.387
1573890867.312,12.695,27.832,-318.359,-14.160,-466.309
1573890867.316,105.957,32.227,-819.824,184.570,735.352
1573890867.320,74.219,35.645,482.910,101.074,613.281
1573890867.324,-21.484,33.203,-1000.000,-103.027,-564.453
1573890867.328,-7.324,29.297,-679.199,-59.570,-685.547
1573890867.332,91.797,27.832,866.699,147.949,472.168
1573890867.336,102.051,33.203,909.180,152.344,777.832
1573890867.340,-0.977,25.879,-558.105,-60.059,-317.383
1573890867.343,-33.691,20.508,-1000.000,-102.539,-757.324
1573890867.347,66.895,35.645,207.520,105.469,114.746
1573890867.351,106.445,36.621,-820.312,180.176,925.781
1573890867.355,17.578,30.273,-62.500,-11.230,-39.551
1573890867.359,-38.574,30.762,-1000.000,-120.117,-852.539
1573890867.363,42.969,33.203,-134.766,52.734,-232.910
1573890867.367,117.188,35.645,-774.414,199.219,922.852
1573890867.371,52.246,31.738,288.086,61.035,393.066
1573890867.375,-36.621,25.391,-1000.000,-116.699,-734.375
1573890867.379,17.578,29.785,-402.344,-4.883,-552.734
1573890867.383,113.281,31.250,-874.023,189.453,659.668
1573890867.386,76.172,31.250,607.910,113.281,650.879
1573890867.390,-22.461,29.785,-933.594,-90.332,-506.348
1573890867.394,-11.719,27.344,-840.332,-58.105,-736.816
1573890867.398,97.168,32.227,651.367,150.879,353.516
1573890867.402,103.027,29.297,-944.824,154.297,847.168
1573890867.406,-4.883,23.438,-341.309,-62.988,-202.148
1573890867.410,-26.855,25.391,-1000.000,-115.234,-781.250
1573890867.414,73.730,31.250,75.684,90.332,70.801
1573890867.418,121.094,33.203,-767.578,188.965,975.586
1573890867.422,34.668,36.133,128.906,5.859,93.262
1573890867.425,-33.203,41.992,-1000.000,-134.277,-814.453
1573890867.429,39.551,41.504,-201.172,24.902,-324.219
1573890867.433,126.465,42.969,-775.879,196.777,864.258
1573890867.437,67.871,41.016,340.332,75.684,461.426
1573890867.441,-33.203,22.461,-1000.000,-116.699,-682.129
1573890867.445,0.488,19.531,-424.805,-30.762,-587.891
1573890867.449,99.609,33.691,-913.574,172.852,607.910
1573890867.453,83.496,33.203,774.414,126.465,695.312
1573890867.457,-20.996,29.785,-766.113,-86.914,-451.660
1573890867.461,-22.461,25.879,-878.906,-77.637,-758.301
1573890867.465,86.914,26.367,624.023,145.508,285.645
1573890867.468,112.305,26.367,-870.117,178.711,884.277
1573890867.472,11.230,22.949,-209.961,-33.203,-173.828
1573890867.476,-28.320,28.320,-1000.000,-98.145,-818.359
1573890867.480,64.941,34.180,53.223,92.773,-68.848
1573890867.484,128.418,40.527,-763.184,202.148,944.336
1573890867.488,51.758,36.621,162.109,30.273,189.453
1573890867.492,-20.996,27.832,-1000.000,-116.699,-810.059
1573890867.496,51.758,25.879,-240.234,28.809,-402.832
1573890867.500,144.043,19.043,-791.992,205.566,798.340
1573890867.504,97.656,14.648,441.406,101.562,533.691
1573890867.508,0.488,23.926,-1000.000,-97.168,-586.914
1573890867.511,18.555,29.785,-506.836,-30.762,-625.488
1573890867.515,110.352,31.250,-987.305,163.086,518.555
1573890867.519,105.469,29.785,894.531,146.484,759.277
1573890867.523,-2.441,22.461,-597.168,-61.523,-409.668
1573890867.527,-11.719,20.508,-974.121,-87.402,-828.125
1573890867.531,97.168,25.391,464.844,136.230,191.406
1573890867.535,130.371,29.297,-814.453,189.941,905.273
1573890867.539,35.645,18.066,-41.016,-9.766,-56.641
1573890867.543,-12.695,16.602,-1000.000,-99.609,-829.590
1573890867.547,73.242,27.832,-88.867,74.219,-192.871
1573890867.550,138.672,30.273,-762.695,207.031,934.570
1573890867.554,61.523,28.320,252.441,51.270,304.688
1573890867.558,-15.137,21.484,-1000.000,-109.863,-734.375
1573890867.562,47.363,22.461,-332.520,12.695,-449.219
1573890867.566,131.836,24.902,-826.172,193.848,755.371
1573890867.570,81.543,21.484,515.625,107.422,580.566
1573890867.574,-14.160,21.484,-1000.000,-93.262,-607.910
1573890867.578,12.695,24.902,-705.566,-29.297,-728.027
1573890867.582,119.141,27.344,840.332,176.758,427.734
1573890867.586,120.117,34.180,929.688,150.879,769.531
1573890867.590,7.812,33.691,-557.129,-66.895,-319.336
1573890867.593,-12.207,26.855,-1000.000,-92.285,-769.043
1573890867.597,97.168,27.832,256.348,134.277,126.953
1573890867.601,141.113,27.832,-784.668,204.102,940.430
1573890867.605,52.246,24.414,41.992,-2.441,30.273
1573890867.609,1.465,22.461,-1000.000,-98.145,-810.547
1573890867.613,75.195,27.344,-149.902,90.820,-265.625
1573890867.617,132.324,29.297,-770.996,204.590,915.039
1573890867.621,54.688,22.461,260.742,40.527,373.535
1573890867.625,-37.598,23.926,-1000.000,-115.234,-750.000
1573890867.629,25.879,29.785,-428.223,1.465,-581.055
1573890867.633,139.160,29.297,-877.930,190.430,645.996
1573890867.636,100.586,28.809,502.441,116.699,645.020
1573890867.640,-9.277,28.320,-1000.000,-83.984,-507.324
1573890867.644,-1.953,25.879,-815.430,-54.688,-714.355
1573890867.648,94.238,31.250,702.637,162.109,360.352
1573890867.652,105.957,30.273,948.730,158.203,851.074
1573890867.656,3.418,22.461,-523.438,-72.754,-213.867
1573890867.660,-32.715,24.414,-1000.000,-105.469,-830.078
1573890867.664,66.895,32.227,72.266,91.309,16.113
1573890867.668,141.113,33.203,-794.434,185.059,958.984
1573890867.672,48.828,35.156,74.219,17.578,83.984
1573890867.675,-32.227,27.344,-1000.000,-117.188,-802.734
1573890867.679,52.734,22.949,-217.773,53.223,-296.387
1573890867.683,131.348,39.062,-787.598,220.215,843.262
1573890867.687,76.660,45.410,318.359,82.520,381.836
1573890867.691,-19.531,38.086,-1000.000,-108.887,-748.047
1573890867.695,20.508,29.297,-515.137,-11.230,-606.445
1573890867.699,125.977,28.320,-970.215,187.012,596.680
1573890867.703,118.652,35.156,678.711,135.742,698.242
1573890867.707,5.859,33.203,-864.258,-81.055,-442.871
1573890867.711,-1.953,31.738,-931.152,-62.988,-780.273
1573890867.715,118.164,31.250,548.828,150.391,279.297
1573890867.718,134.766,34.180,-929.199,170.410,890.625
1573890867.722,30.273,38.574,-318.359,-25.391,-203.613
1573890867.726,0.000,33.691,-1000.000,-97.168,-890.137
1573890867.730,95.703,34.668,-57.617,91.309,-53.223
1573890867.734,151.855,36.621,-780.273,203.125,959.961
1573890867.738,84.961,36.133,179.199,34.180,221.191
1573890867.742,6.348,36.133,-1000.000,-122.070,-749.023
1573890867.746,63.477,36.621,-256.348,25.391,-416.016
1573890867.750,156.250,34.180,-793.457,205.566,808.105
1573890867.754,130.371,37.598,393.066,111.816,542.480
1573890867.758,31.250,40.039,-1000.000,-97.656,-588.867
1573890867.761,44.922,39.551,-565.918,-24.902,-627.930
1573890867.765,148.926,41.504,997.559,192.383,518.555
1573890867.769,137.207,40.039,752.441,148.926,740.234
1573890867.773,34.180,37.598,-783.203,-69.336,-384.766
1573890867.777,33.203,41.992,-999.512,-71.777,-805.176
1573890867.781,123.535,47.852,436.523,138.184,203.613
1573890867.785,124.023,46.387,-891.602,181.152,907.227
1573890867.789,35.645,37.598,-227.051,-11.230,-143.066
1573890867.793,0.977,26.855,-1000.000,-111.816,-881.348
1573890867.797,93.750,29.785,-84.473,55.664,-175.293
1573890867.800,159.668,33.691,-775.391,199.707,936.523
1573890867.804,59.570,36.621,218.262,36.621,280.273
1573890867.808,-29.297,38.086,-1000.000,-118.164,-749.512
1573890867.812,54.688,35.645,-340.820,26.367,-457.031
1573890867.816,159.668,44.434,-831.055,195.312,720.215
1573890867.820,106.934,41.504,467.285,108.398,570.801
1573890867.824,-7.324,37.109,-1000.000,-95.215,-592.773
1573890867.828,28.809,43.945,-649.414,-31.738,-699.219
1573890867.832,138.184,48.340,894.043,187.500,471.191
1573890867.836,140.625,46.875,884.766,177.246,751.465
1573890867.840,33.691,36.133,-602.539,-33.203,-375.977
1573890867.843,16.113,37.598,-1000.000,-72.754,-814.453
1573890867.847,117.188,46.387,243.164,124.512,114.746
1573890867.851,117.188,37.109,-811.035,175.781,937.988
1573890867.855,41.992,29.785,0.488,-19.531,-6.836
1573890867.859,8.789,32.715,-1000.000,-100.586,-824.219
1573890867.863,72.754,36.621,-190.430,72.754,-239.258
1573890867.867,123.047,33.691,-781.250,194.336,903.809
1573890867.871,32.715,27.344,280.273,41.992,371.582
1573890867.875,-35.156,33.691,-1000.000,-120.117,-718.750
1573890867.879,41.016,40.039,-345.215,10.254,-511.230
1573890867.883,135.254,37.109,-837.891,208.984,701.660
1573890867.886,99.121,38.574,549.316,132.324,619.629
1573890867.890,-0.488,35.645,-989.258,-96.191,-605.957
1573890867.894,12.695,19.043,-768.066,-68.848,-772.949
1573890867.898,108.398,19.531,766.602,153.320,397.949
1573890867.902,112.305,31.738,984.863,184.082,817.383
1573890867.906,17.090,34.668,-479.980,-36.133,-325.684
1573890867.910,-22.949,28.809,-1000.000,-110.352,-854.492
1573890867.914,76.172,26.855,163.086,112.793,69.824
1573890867.918,137.207,28.320,-775.391,210.938,968.262
1573890867.922,44.434,28.320,97.656,12.695,101.074
1573890867.925,-40.039,29.785,-1000.000,-122.070,-807.617
1573890867.929,33.203,34.668,-185.059,38.574,-318.359
1573890867.933,127.441,42.480,-775.879,189.453,888.184
1573890867.937,68.848,33.691,302.734,61.523,463.379
1573890867.941,-31.738,18.555,-1000.000,-117.188,-653.320
1573890867.945,19.531,25.879,-477.539,-3.418,-551.270
1573890867.949,137.207,41.016,-919.434,200.684,626.953
1573890867.953,111.328,34.668,619.629,135.742,654.785
1573890867.957,-8.789,21.973,-925.293,-70.312,-509.766
1573890867.961,-4.883,31.250,-884.277,-63.965,-764.648
1573890867.965,106.445,31.250,597.168,150.879,302.246
1573890867.968,115.723,23.438,-936.523,196.289,836.914
1573890867.972,17.090,23.926,-332.031,-20.996,-227.539
1573890867.976,-14.648,25.391,-1000.000,-108.398,-816.406
1573890867.980,85.449,28.809,45.898,99.121,-14.160
1573890867.984,119.629,24.414,-766.602,204.590,970.703
1573890867.988,23.438,24.414,172.852,23.926,197.266
1573890867.992,-39.551,19.531,-1000.000,-110.840,-779.297
1573890867.996,22.461,10.254,-242.676,35.156,-379.883
1573890868.000,110.840,22.461,-788.086,201.172,835.938
1573890868.004,64.453,30.273,357.910,84.961,478.027
1573890868.008,-37.598,26.367,-1000.000,-110.352,-698.730
1573890868.011,12.695,25.391,-581.055,-24.414,-647.949
1573890868.015,106.445,24.902,961.426,182.617,534.668
1573890868.019,73.730,22.461,812.012,132.812,735.352
1573890868.023,-30.273,20.020,-694.336,-87.402,-407.227
1573890868.027,-32.227,19.531,-1000.000,-89.844,-802.734
1573890868.031,79.590,25.391,335.938,123.535,211.426
1573890868.035,101.562,26.855,-830.566,168.945,911.621
1573890868.039,5.371,19.531,-101.562,-37.109,-122.559
1573890868.043,-35.156,16.602,-1000.000,-121.582,-918.945
1573890868.047,49.805,21.973,-81.055,74.707,-194.336
1573890868.050,111.328,24.902,-764.648,198.242,958.496
1573890868.054,36.133,26.367,226.074,29.785,286.621
1573890868.058,-33.691,24.902,-1000.000,-126.953,-762.695
1573890868.062,17.090,27.344,-272.949,0.977,-436.523
1573890868.066,97.168,29.785,-796.387,179.688,775.879
1573890868.070,61.523,28.320,444.336,94.238,565.918
1573890868.074,-38.086,25.879,-1000.000,-108.887,-591.309
1573890868.078,-0.977,20.996,-577.148,-47.363,-645.020
1573890868.082,110.840,28.320,969.238,172.852,516.602
1573890868.086,96.191,36.133,855.469,154.297,759.277
1573890868.090,-12.695,27.832,-633.301,-63.965,-417.480
1573890868.093,-33.203,19.043,-1000.000,-91.309,-828.613
1573890868.097,72.754,20.508,329.590,120.605,165.039
1573890868.101,117.188,31.250,-784.668,183.105,943.848
1573890868.105,13.672,31.250,32.715,-13.672,-41.016
1573890868.109,-37.598,22.949,-1000.000,-107.422,-835.449
1573890868.113,54.199,25.879,-102.539,69.336,-165.039
1573890868.117,115.723,26.367,-758.789,201.660,940.918
1573890868.121,49.316,23.926,268.555,60.059,296.387
1573890868.125,-28.320,25.879,-1000.000,-107.910,-739.746
1573890868.129,19.531,30.273,-309.570,-2.930,-403.809
1573890868.133,106.445,30.762,-825.684,185.059,749.512
1573890868.136,83.496,27.344,567.383,121.094,619.141
1573890868.140,-14.648,24.414,-973.633,-82.031,-507.324
1573890868.144,-2.930,21.973,-712.891,-47.852,-711.426
1573890868.148,106.445,19.531,791.992,166.992,373.047
1573890868.152,100.586,20.508,-946.289,167.480,811.035
1573890868.156,-1.465,24.414,-331.055,-49.316,-301.758
1573890868.160,-19.043,21.973,-1000.000,-84.961,-873.535
1573890868.164,75.684,20.020,192.383,118.164,57.129
1573890868.168,114.258,21.973,-749.512,193.848,956.055
1573890868.172,25.879,19.531,134.766,8.789,41.504
1573890868.175,-43.945,18.066,-1000.000,-114.746,-854.004
1573890868.179,32.715,19.043,-141.602,49.316,-326.172
1573890868.183,116.211,18.555,-758.301,205.566,884.277
1573890868.187,47.852,17.578,370.117,67.871,451.660
1573890868.191,-43.457,17.578,-1000.000,-116.699,-665.527
1573890868.195,2.930,23.438,-321.289,-10.254,-561.523
1573890868.199,98.145,29.297,-865.723,193.359,643.555
1573890868.203,66.406,23.438,803.711,123.047,682.129
1573890868.207,-37.598,11.230,-742.188,-93.750,-455.078
1573890868.211,-29.297,12.695,-735.352,-71.777,-763.184
1573890868.215,81.543,18.066,813.477,144.043,315.430
1573890868.218,93.262,17.578,-894.531,162.109,859.863
1573890868.222,-10.742,19.043,-228.516,-49.805,-224.121
1573890868.226,-39.062,20.508,-1000.000,-106.445,-812.012
1573890868.230,53.223,20.020,164.551,94.238,20.996
1573890868.234,107.422,21.973,-757.812,194.824,964.355
1573890868.238,28.809,14.648,136.719,8.789,176.270
1573890868.242,-38.086,13.184,-1000.000,-127.441,-757.324
1573890868.246,39.062,18.066,-184.570,32.715,-365.723
1573890868.250,124.023,17.578,-776.855,200.195,854.004
1573890868.254,59.570,17.578,451.660,84.473,494.629
1573890868.258,-32.227,20.508,-1000.000,-103.027,-656.250
1573890868.261,5.371,22.949,-407.715,-21.484,-592.773
1573890868.265,104.980,21.973,-909.668,185.547,578.613
1573890868.269,92.773,23.926,863.281,149.414,717.773
1573890868.273,-13.184,24.414,-635.742,-66.895,-435.059
1573890868.277,-13.184,22.949,-892.090,-68.848,-777.832
1573890868.281,94.727,24.414,601.562,146.973,250.977
1573890868.285,117.188,22.949,-840.332,189.453,899.902
1573890868.289,14.160,19.043,-109.375,-18.066,-118.652
1573890868.293,-24.902,25.879,-1000.000,-97.656,-831.055
1573890868.297,72.754,27.344,-6.836,99.121,-99.121
1573890868.300,129.883,25.879,-757.324,222.168,960.938
1573890868.304,41.016,26.855,237.305,51.758,280.273
1573890868.308,-28.809,25.879,-1000.000,-108.887,-771.484
1573890868.312,37.598,32.715,-291.504,23.438,-460.449
1573890868.316,116.699,33.691,-808.594,197.266,785.156
1573890868.320,64.453,29.297,496.582,89.355,552.734
1573890868.324,-39.062,27.344,-1000.000,-109.863,-609.375
1573890868.328,-10.254,28.809,-576.172,-45.410,-674.316
1573890868.332,89.355,36.133,954.590,160.645,471.191
1573890868.336,82.031,32.715,944.336,137.207,791.504
1573890868.340,-14.648,23.926,-529.297,-78.125,-314.941
1573890868.343,-24.414,20.508,-1000.000,-97.656,-793.457
1573890868.347,83.496,29.297,412.109,121.582,191.895
1573890868.351,121.094,35.645,-791.016,187.500,945.801
1573890868.355,23.926,22.949,7.812,-21.973,-23.438
1573890868.359,-35.156,19.531,-1000.000,-116.699,-841.309
1573890868.363,50.293,30.273,-104.492,68.848,-225.586
1573890868.367,119.141,36.621,-759.766,201.660,920.898
1573890868.371,43.457,33.691,259.277,53.711,344.727
1573890868.375,-30.273,30.762,-1000.000,-107.910,-672.852
1573890868.379,22.949,24.902,-323.730,5.371,-454.590
1573890868.383,109.375,20.020,-820.312,184.082,725.586
1573890868.386,77.637,22.461,486.328,104.004,583.984
1573890868.390,-21.484,22.461,-1000.000,-96.680,-604.492
1573890868.394,0.488,21.973,-650.879,-50.781,-711.426
1573890868.398,101.562,22.461,899.414,162.598,434.082
1573890868.402,102.539,24.902,906.738,165.527,790.527
1573890868.406,0.488,27.832,-577.148,-50.293,-321.289
1573890868.410,-25.879,25.879,-1000.000,-102.051,-834.961
1573890868.414,75.195,27.832,270.508,104.004,96.680
1573890868.418,112.305,31.738,-776.367,192.383,978.516
1573890868.422,16.602,25.879,69.824,8.301,37.109
1573890868.425,-39.551,21.484,-1000.000,-109.863,-860.840
1573890868.429,37.598,25.879,-150.879,51.270,-270.996
1573890868.433,109.863,30.273,-767.090,194.824,921.875
1573890868.437,44.922,23.926,325.684,51.270,386.719
1573890868.441,-42.480,20.020,-1000.000,-116.699,-707.520
1573890868.445,9.277,23.438,-383.789,-10.742,-510.742
1573890868.449,102.539,30.762,-872.070,179.199,654.297
1573890868.453,71.289,30.273,680.664,112.793,666.504
1573890868.457,-25.879,25.391,-868.164,-100.586,-509.277
1573890868.461,-17.090,20.020,-826.172,-67.871,-750.488
1573890868.465,90.820,22.949,692.383,161.133,354.492
1573890868.468,101.074,31.250,-913.086,167.480,854.492
1573890868.472,-1.465,29.297,-286.621,-48.828,-197.266
1573890868.476,-13.184,26.855,-1000.000,-96.191,-852.051
1573890868.480,79.102,20.996,102.539,95.703,-17.090
1573890868.484,117.188,16.602,-757.812,192.383,958.496
1573890868.488,41.504,21.973,166.016,19.043,104.492
1573890868.492,-22.461,24.414,-1000.000,-116.211,-815.918
1573890868.496,45.898,25.391,-211.426,35.156,-354.980
1573890868.500,124.023,25.879,-776.855,195.801,842.285
1573890868.504,67.871,25.391,392.578,81.055,464.844
1573890868.508,-25.391,24.414,-1000.000,-104.004,-645.996
1573890868.511,12.207,23.438,-472.168,-27.344,-594.727
1573890868.515,106.445,24.902,-927.734,177.734,571.777
1573890868.519,87.402,26.855,742.676,141.602,701.172
1573890868.523,-11.230,21.484,-801.270,-74.707,-462.402
1573890868.527,-14.648,20.020,-904.297,-83.008,-792.480
1573890868.531,84.961,33.203,587.402,139.160,250.000
1573890868.535,109.863,37.109,-894.531,179.688,885.254
1573890868.539,8.301,30.762,-231.445,-36.133,-151.367
1573890868.543,-36.133,32.227,-1000.000,-99.609,-881.836
1573890868.547,53.711,28.320,6.836,88.379,-122.559
1573890868.550,104.492,21.484,-762.695,186.035,953.613
1573890868.554,21.484,15.625,192.871,18.066,183.594
1573890868.558,-38.086,20.020,-1000.000,-117.188,-833.984
1573890868.562,26.855,35.156,-265.137,30.273,-469.727
1573890868.566,98.633,35.156,-794.434,192.383,781.738
1573890868.570,58.105,28.320,406.250,86.426,524.414
1573890868.574,-40.527,21.973,-1000.000,-103.516,-629.395
1573890868.578,-14.648,20.996,-519.531,-35.645,-629.883
1573890868.582,88.379,25.391,-998.047,167.969,515.625
1573890868.586,75.684,23.438,868.652,134.766,748.535
1573890868.590,-28.320,22.461,-621.582,-81.055,-353.516
1573890868.593,-39.551,20.020,-1000.000,-98.633,-796.875
1573890868.597,55.664,19.043,402.832,104.980,168.457
1573890868.601,99.121,23.438,-803.223,172.852,932.617
1573890868.605,13.672,19.043,1.953,-12.207,-1.953
1573890868.609,-35.156,15.625,-1000.000,-110.840,-819.336
1573890868.613,57.617,22.949,-150.879,64.453,-227.539
1573890868.617,121.094,24.902,-769.043,196.777,930.176
1573890868.621,40.527,21.484,269.043,37.598,348.145
1573890868.625,-34.180,24.414,-1000.000,-121.094,-718.262
1573890868.629,25.879,21.973,-300.781,15.137,-470.703
1573890868.633,114.746,21.484,-815.918,189.453,759.277
1573890868.636,76.172,22.461,538.574,98.145,600.098
1573890868.640,-28.809,15.625,-1000.000,-106.445,-582.520
1573890868.644,-12.207,18.555,-673.340,-50.781,-706.055
1573890868.648,94.727,22.461,871.582,162.109,431.152
1573890868.652,95.703,20.508,961.426,151.367,792.480
1573890868.656,-11.719,20.020,-515.625,-58.105,-358.398
1573890868.660,-33.203,14.648,-1000.000,-99.609,-833.008
1573890868.664,81.055,12.207,299.805,108.398,138.184
1573890868.668,127.930,16.602,-783.203,184.082,960.938
1573890868.672,34.180,21.484,42.969,-4.883,-11.719
1573890868.675,-26.855,23.926,-1000.000,-115.234,-854.492
1573890868.679,58.105,26.367,-139.160,63.965,-245.605
1573890868.683,130.371,23.438,-767.090,219.727,905.762
1573890868.687,62.012,17.578,276.367,72.266,375.000
1573890868.691,-24.414,19.043,-1000.000,-98.633,-703.125
1573890868.695,13.184,19.531,-366.211,8.789,-492.188
1573890868.699,103.027,25.391,-853.027,191.406,688.965
1573890868.703,76.172,24.414,586.426,124.023,644.531
1573890868.707,-24.414,19.043,-964.355,-86.914,-517.090
1573890868.711,-20.020,21.973,-753.418,-62.988,-710.449
1573890868.715,92.773,25.391,765.625,160.156,396.484
1573890868.718,106.445,27.832,-970.215,174.805,840.332
1573890868.722,0.488,22.949,-366.699,-50.781,-244.629
1573890868.726,-28.320,18.555,-1000.000,-113.770,-863.281
1573890868.730,73.242,31.250,117.188,98.633,-38.086
1573890868.734,125.488,28.320,-765.625,196.289,953.125
1573890868.738,36.621,21.973,131.836,12.207,100.098
1573890868.742,-33.203,26.367,-1000.000,-119.629,-883.789
1573890868.746,33.691,21.484,-202.637,29.297,-394.043
1573890868.750,112.305,21.973,-777.832,182.617,849.121
1573890868.754,57.129,17.090,349.609,58.105,487.305
1573890868.758,-42.969,11.230,-1000.000,-123.047,-650.391
1573890868.761,-7.812,19.043,-514.648,-35.156,-575.195
1573890868.765,100.098,28.320,-966.309,163.574,610.352
1573890868.769,77.637,25.391,715.332,118.164,701.660
1573890868.773,-28.320,16.113,-836.426,-91.309,-456.543
1573890868.777,-21.973,19.531,-898.926,-81.543,-811.523
1573890868.781,78.613,24.414,567.383,133.301,250.000
1573890868.785,100.586,23.438,-866.211,164.062,897.461
1573890868.789,8.789,27.832,-186.035,-42.969,-186.035
1573890868.793,-30.273,22.949,-1000.000,-120.117,-884.766
1573890868.797,58.594,20.020,-12.207,83.008,-70.801
1573890868.800,125.000,27.832,-763.184,200.195,972.656
1573890868.804,48.828,31.250,189.453,30.273,197.266
1573890868.808,-25.391,24.414,-1000.000,-109.863,-767.090
1573890868.812,39.062,14.160,-240.234,31.250,-352.051
1573890868.816,115.723,22.949,-785.645,204.590,827.148
1573890868.820,65.918,33.203,391.602,90.332,490.723
1573890868.824,-21.973,28.809,-1000.000,-99.121,-679.199
1573890868.828,7.324,26.367,-542.480,-20.508,-664.062
1573890868.832,107.422,29.297,-1000.000,181.152,513.672
1573890868.836,100.098,29.297,799.316,152.832,754.883
1573890868.840,-3.906,26.855,-710.449,-69.824,-385.254
1573890868.843,-4.395,31.738,-1000.000,-77.637,-822.266
1573890868.847,94.727,34.668,400.391,138.672,194.824
1573890868.851,113.281,31.250,-817.383,183.105,926.270
1573890868.855,9.766,25.391,-69.336,-21.973,-123.535
1573890868.859,-44.922,14.648,-1000.000,-113.770,-860.840
1573890868.863,49.805,21.484,-61.035,64.941,-135.254
1573890868.867,112.793,26.367,-761.719,182.617,955.566
1573890868.871,34.668,22.949,214.844,22.461,238.281
1573890868.875,-39.062,26.367,-1000.000,-129.395,-819.824
1573890868.879,23.438,29.297,-274.414,6.348,-455.566
1573890868.883,108.887,32.715,-810.547,185.059,766.602
1573890868.886,64.453,35.645,528.809,94.727,575.195
1573890868.890,-30.762,28.809,-1000.000,-112.305,-635.742
1573890868.894,-3.418,25.879,-625.977,-56.641,-719.727
1573890868.898,102.539,26.367,894.531,162.109,446.777
1573890868.902,98.633,24.414,994.629,145.508,812.988
1573890868.906,-3.906,27.344,-418.945,-64.941,-307.129
1573890868.910,-6.836,34.180,-1000.000,-89.844,-851.562
1573890868.914,80.078,27.832,214.355,105.469,90.332
1573890868.918,104.492,21.973,-765.625,175.293,958.496
1573890868.922,20.996,15.137,76.660,-12.695,31.250
1573890868.925,-36.133,4.395,-1000.000,-124.023,-864.258
1573890868.929,44.434,1.465,-122.070,51.758,-249.512
1573890868.933,120.605,6.348,-759.277,200.195,940.918
1573890868.937,55.176,17.090,275.879,60.547,393.066
1573890868.941,-33.691,21.973,-1000.000,-119.629,-674.316
1573890868.945,17.578,20.020,-323.242,-7.324,-483.887
1573890868.949,112.793,21.973,-837.891,196.289,711.914
1573890868.953,77.637,26.367,613.281,122.070,620.605
1573890868.957,-22.461,21.973,-941.406,-93.750,-545.898
1573890868.961,-11.230,10.254,-712.891,-67.871,-688.965
1573890868.965,85.938,6.836,811.035,148.926,406.250
1573890868.968,91.309,13.672,-950.195,160.645,844.238
1573890868.972,-11.230,17.578,-341.309,-58.105,-211.914
1573890868.976,-34.180,14.160,-1000.000,-107.422,-869.629
1573890868.980,59.570,11.719,158.691,101.074,-7.324
1573890868.984,105.469,23.438,-777.344,187.012,977.051
1573890868.988,23.926,24.414,56.152,3.418,79.102
1573890868.992,-39.551,19.043,-1000.000,-119.629,-854.492
1573890868.996,31.738,25.391,-173.340,28.809,-327.148
1573890869.000,104.492,32.227,-774.414,178.711,896.973
1573890869.004,44.434,26.855,351.562,57.129,420.898
1573890869.008,-41.016,21.973,-1000.000,-120.117,-701.660
1573890869.011,10.254,27.344,-426.758,-25.879,-560.059
1573890869.015,107.422,30.273,-887.695,177.246,630.371
1573890869.019,80.078,23.438,671.387,122.070,685.547
1573890869.023,-20.508,19.043,-877.441,-96.191,-458.984
1573890869.027,-15.625,23.926,-860.840,-83.496,-737.305
1573890869.031,89.844,30.273,622.070,130.371,313.477
1573890869.035,104.492,29.785,-894.043,166.016,876.953
1573890869.039,-1.953,28.320,-235.352,-44.922,-206.055
1573890869.043,-36.621,31.250,-1000.000,-116.211,-879.395
1573890869.047,61.523,33.203,13.672,86.914,-82.031
1573890869.050,111.328,23.438,-768.066,186.523,963.867
1573890869.054,29.297,17.090,179.199,12.207,207.031
1573890869.058,-33.691,21.973,-1000.000,-125.488,-770.996
1573890869.062,35.156,27.832,-268.555,20.020,-379.883
1573890869.066,123.047,35.156,-797.363,192.871,819.336
1573890869.070,78.613,31.250,402.832,86.426,520.508
1573890869.074,-14.648,25.391,-1000.000,-105.957,-670.898
1573890869.078,15.137,25.879,-552.734,-28.320,-655.762
1573890869.082,109.863,24.414,-996.094,178.223,546.875
1573890869.086,101.074,29.297,769.043,137.695,725.586
1573890869.090,-0.488,27.344,-750.977,-73.242,-407.227
1573890869.093,-8.789,10.742,-1000.000,-77.637,-788.574
1573890869.097,90.332,13.672,414.062,133.301,223.633
1573890869.101,111.328,30.273,-837.891,185.059,919.922
1573890869.105,12.207,26.367,-125.977,-14.648,-113.281
1573890869.109,-30.273,22.461,-1000.000,-102.539,-863.281
1573890869.113,54.688,17.090,-54.688,81.055,-145.020
1573890869.117,113.770,14.648,-764.160,198.730,960.449
1573890869.121,42.480,22.949,224.121,36.133,271.973
1573890869.125,-35.156,20.020,-1000.000,-122.070,-794.434
1573890869.129,21.484,23.926,-310.547,0.488,-457.031
1573890869.133,119.629,26.367,-810.547,188.477,791.504
1573890869.136,89.355,18.066,415.527,106.445,556.641
1573890869.140,-11.719,28.320,-1000.000,-100.586,-582.031
1573890869.144,4.883,39.062,-591.797,-44.434,-607.910
1573890869.148,105.469,38.086,922.852,172.852,496.582
1573890869.152,108.398,37.598,934.082,159.180,782.715
1573890869.156,3.906,33.691,-542.480,-58.594,-400.879
1573890869.160,-14.160,34.180,-1000.000,-86.914,-881.348
1573890869.164,87.891,32.227,338.379,125.488,135.254
1573890869.168,118.652,24.414,-801.270,189.941,944.336
1573890869.172,26.367,27.344,-15.137,-16.113,-2.930
1573890869.175,-24.414,22.461,-1000.000,-126.953,-871.582
1573890869.179,60.547,18.066,-146.484,56.152,-280.762
1573890869.183,125.977,28.320,-770.508,202.148,913.574
1573890869.187,61.035,25.879,291.016,52.734,387.207
1573890869.191,-13.184,25.879,-1000.000,-111.816,-739.746
1573890869.195,35.156,31.738,-352.051,4.395,-575.195
1573890869.199,116.211,31.738,-843.262,180.176,684.570
1573890869.203,81.055,32.715,570.312,104.492,628.418
1573890869.207,-13.672,29.297,-963.867,-95.703,-542.969
1573890869.211,-5.371,26.367,-798.340,-70.801,-713.867
1573890869.215,94.238,26.367,741.211,140.137,407.227
1573890869.218,100.586,29.785,984.863,145.996,810.547
1573890869.222,2.441,34.668,-447.266,-68.848,-275.391
1573890869.226,-23.926,30.762,-1000.000,-115.234,-804.688
1573890869.230,69.824,23.926,56.152,87.891,57.617
1573890869.234,120.605,25.391,-781.250,179.199,961.426
1573890869.238,34.180,26.367,105.469,-0.977,71.777
1573890869.242,-32.227,25.879,-1000.000,-120.117,-829.102
1573890869.246,44.434,28.809,-180.176,43.945,-313.477
1573890869.250,119.629,36.133,-772.461,197.266,893.066
1573890869.254,54.688,38.574,317.871,65.918,401.855
1573890869.258,-31.738,32.227,-1000.000,-114.258,-737.793
1573890869.261,10.254,24.902,-420.410,-16.113,-547.852
1573890869.265,101.074,31.250,-885.254,176.758,630.371
1573890869.269,79.590,30.273,640.625,121.582,703.613
1573890869.273,-15.137,21.973,-900.879,-85.449,-407.227
1573890869.277,-14.648,27.344,-853.027,-74.707,-716.309
1573890869.281,88.867,35.156,654.297,137.207,324.707
1573890869.285,103.027,32.715,-961.914,155.762,856.934
1573890869.289,-0.977,23.438,-373.535,-49.805,-180.176
1573890869.293,-27.832,25.391,-1000.000,-104.980,-798.828
1573890869.297,66.406,28.320,49.316,94.238,-25.879
1573890869.300,118.164,28.809,-774.902,194.824,969.238
1573890869.304,34.180,26.367,139.648,18.066,134.766
1573890869.308,-40.527,17.578,-1000.000,-120.605,-851.562
1573890869.312,28.809,21.973,-254.883,27.344,-395.996
1573890869.316,110.352,36.133,-794.434,195.312,821.289
1573890869.320,58.105,33.691,365.234,76.172,483.887
1573890869.324,-31.738,27.344,-1000.000,-115.234,-636.719
1573890869.328,0.977,26.367,-490.723,-37.109,-585.938
1573890869.332,99.609,28.809,-958.984,167.480,566.895
1573890869.336,84.961,30.762,779.297,127.930,743.164
1573890869.340,-16.113,25.879,-729.980,-85.938,-369.629
1573890869.343,-13.672,27.344,-983.887,-85.449,-814.941
1573890869.347,90.820,31.738,441.895,130.371,208.008
1573890869.351,119.141,37.109,-861.816,181.641,900.879
1573890869.355,26.367,32.715,-146.973,-24.902,-125.488
1573890869.359,-18.555,26.367,-1000.000,-108.398,-857.422
1573890869.363,69.824,29.297,-123.047,86.914,-164.062
1573890869.367,129.395,28.320,-777.344,203.613,930.664
1573890869.371,43.457,28.809,219.238,36.621,258.301
1573890869.375,-38.086,25.879,-1000.000,-115.723,-739.258
1573890869.379,28.320,22.461,-298.828,17.090,-441.406
1573890869.383,125.000,26.855,-810.547,202.637,744.141
1573890869.386,86.426,22.949,444.824,116.211,547.363
1573890869.390,-30.762,20.996,-1000.000,-97.168,-580.078
1573890869.394,-5.371,24.414,-617.676,-43.457,-621.582
1573890869.398,106.445,27.344,939.453,174.316,506.348
1573890869.402,95.703,27.344,832.520,157.227,751.465
1573890869.406,-3.418,16.602,-677.734,-57.617,-374.512
1573890869.410,-18.066,20.508,-1000.000,-83.008,-769.531
1573890869.414,68.848,22.949,321.289,119.141,172.363
1573890869.418,99.609,17.090,-800.781,182.617,943.359
1573890869.422,16.113,23.438,-10.742,-13.672,-5.859
1573890869.425,-36.133,27.344,-1000.000,-121.582,-867.676
1573890869.429,45.898,29.785,-121.094,62.500,-233.398
1573890869.433,114.746,34.668,-768.066,198.242,937.012
1573890869.437,46.387,39.062,237.793,50.781,319.824
1573890869.441,-32.715,36.133,-1000.000,-108.887,-783.203
1573890869.445,24.414,34.180,-339.844,8.301,-516.602
1573890869.449,114.746,31.250,-830.566,193.359,724.121
1573890869.453,76.660,23.438,479.492,109.375,579.102
1573890869.457,-21.484,30.273,-1000.000,-100.586,-591.309
1573890869.461,-4.395,36.621,-717.773,-59.082,-710.938
1573890869.465,104.492,35.156,792.480,164.062,411.621
1573890869.468,108.398,29.785,999.512,161.621,820.801
1573890869.472,-2.441,26.367,-437.988,-59.082,-231.934
1573890869.476,-20.996,26.855,-1000.000,-93.750,-785.645
1573890869.480,80.566,30.762,188.965,108.398,73.730
1573890869.484,123.535,36.133,-776.367,190.430,967.773
1573890869.488,39.551,33.203,74.219,8.789,82.520
1573890869.492,-20.996,36.621,-1000.000,-112.793,-800.293
1573890869.496,58.594,39.062,-176.270,52.246,-290.527
1573890869.500,136.719,38.574,-775.391,201.172,875.488
1573890869.504,70.312,41.504,288.086,64.453,402.832
1573890869.508,-22.461,31.738,-1000.000,-113.770,-691.895
1573890869.511,20.996,28.809,-497.559,-17.090,-554.199
1573890869.515,114.258,30.273,-955.566,176.758,617.676
1573890869.519,87.402,22.949,675.293,117.188,670.410
1573890869.523,-15.137,24.414,-905.273,-90.820,-515.625
1573890869.527,-17.090,25.391,-810.059,-75.195,-761.719
1573890869.531,82.520,34.180,700.684,137.695,370.605
1573890869.535,101.562,32.715,-948.730,161.621,835.938
1573890869.539,-1.465,18.555,-326.172,-56.641,-283.691
1573890869.543,-34.668,25.879,-1000.000,-125.000,-917.969
1573890869.547,59.570,33.203,8.301,74.219,-104.004
1573890869.550,104.980,30.762,-771.484,174.316,956.543
1573890869.554,20.020,20.020,159.180,-1.465,129.395
1573890869.558,-48.828,11.230,-1000.000,-139.648,-887.207
1573890869.562,20.508,14.648,-206.543,12.695,-400.879
1573890869.566,103.027,17.578,-776.855,182.129,852.051
1573890869.570,50.781,17.090,380.859,64.941,484.375
1573890869.574,-32.227,17.578,-1000.000,-120.117,-664.062
1573890869.578,14.160,26.367,-459.473,-27.344,-591.797
1573890869.582,106.445,30.762,-919.922,169.434,588.379
1573890869.586,82.031,26.855,737.793,115.234,722.168
1573890869.590,-21.973,23.438,-791.992,-95.703,-433.105
1573890869.593,-16.602,24.902,-917.969,-86.426,-784.180
1573890869.597,87.402,26.367,556.152,129.883,244.629
1573890869.601,108.398,27.832,-880.859,165.527,895.996
1573890869.605,13.672,30.273,-231.934,-41.992,-128.418
1573890869.609,-28.809,25.879,-1000.000,-120.117,-877.441
1573890869.613,63.477,20.020,23.438,73.242,-120.605
1573890869.617,119.629,26.367,-760.254,192.383,968.750
1573890869.621,36.621,24.902,206.055,20.508,191.406
1573890869.625,-35.156,18.555,-1000.000,-131.836,-822.266
1573890869.629,28.809,20.996,-253.906,9.766,-419.434
1573890869.633,112.305,15.137,-796.387,180.176,791.504
1573890869.636,63.965,13.672,478.516,74.707,572.266
1573890869.640,-36.133,22.461,-1000.000,-123.047,-580.566
1573890869.644,-9.277,22.461,-611.328,-56.152,-655.762
1573890869.648,90.820,25.391,931.641,151.855,491.699
1573890869.652,78.125,22.461,900.391,117.188,773.926
1573890869.656,-24.902,7.812,-577.148,-92.773,-374.512
1573890869.660,-31.738,15.625,-1000.000,-100.586,-881.348
1573890869.664,70.312,28.320,312.988,112.305,135.254
1573890869.668,109.375,25.879,-804.199,175.781,942.871
1573890869.672,18.066,25.391,-34.668,-23.438,-41.992
1573890869.675,-30.762,31.250,-1000.000,-123.047,-840.332
1573890869.679,53.711,35.645,-106.445,60.059,-175.781
1573890869.683,119.629,40.039,-767.578,193.359,949.219
1573890869.687,46.387,34.668,231.934,40.039,305.664
1573890869.691,-38.086,22.461,-1000.000,-125.977,-807.129
1573890869.695,12.695,25.879,-344.238,-10.254,-534.180
1573890869.699,99.609,28.320,-835.938,177.246,744.141
1573890869.703,67.383,23.438,514.648,93.262,593.262
1573890869.707,-32.227,20.996,-1000.000,-111.328,-588.379
1573890869.711,-4.883,27.832,-675.293,-58.105,-687.988
1573890869.715,102.051,34.668,861.816,155.273,456.543
1573890869.718,92.773,34.180,959.961,144.531,812.988
1573890869.722,-9.277,25.391,-508.789,-66.406,-318.848
1573890869.726,-29.297,18.066,-1000.000,-102.051,-852.539
1573890869.730,73.730,28.320,250.000,103.516,97.656
1573890869.734,122.559,34.180,-794.434,189.453,977.051
1573890869.738,26.855,19.043,-8.301,-6.836,51.270
1573890869.742,-37.109,9.766,-1000.000,-131.348,-841.797
1573890869.746,37.109,25.391,-152.832,38.574,-260.742
1573890869.750,109.375,33.203,-773.926,182.617,923.828
1573890869.754,52.246,28.320,293.457,44.922,381.348
1573890869.758,-33.203,23.438,-1000.000,-129.883,-722.168
1573890869.761,15.625,21.973,-391.602,-22.949,-515.625
1573890869.765,111.816,29.785,-867.676,171.875,678.223
1573890869.769,82.031,31.738,615.723,104.980,670.898
1573890869.773,-18.066,29.785,-919.434,-99.609,-466.309
1573890869.777,-7.324,29.785,-842.285,-74.707,-736.328
1573890869.781,98.145,34.668,661.621,140.625,351.562
1573890869.785,101.562,38.086,-956.543,157.715,838.379
1573890869.789,-10.742,27.344,-372.070,-59.570,-234.375
1573890869.793,-33.691,27.344,-1000.000,-112.305,-817.871
1573890869.797,67.383,35.645,94.238,87.891,-0.977
1573890869.800,117.188,34.668,-771.484,181.641,955.078
1573890869.804,31.250,27.832,141.602,7.812,124.512
1573890869.808,-33.691,26.855,-1000.000,-123.535,-824.707
1573890869.812,41.992,33.203,-239.258,29.785,-375.000
1573890869.816,115.723,34.180,-787.598,187.012,862.305
1573890869.820,55.176,25.391,362.793,63.965,457.520
1573890869.824,-26.367,18.066,-1000.000,-118.164,-695.801
1573890869.828,16.113,23.438,-485.840,-31.738,-566.406
1573890869.832,97.168,27.832,-941.406,166.016,615.234
1573890869.836,74.707,31.250,739.746,120.117,675.293
1573890869.840,-21.484,23.926,-807.617,-90.820,-476.074
1573890869.843,-26.367,21.484,-898.926,-85.449,-812.012
1573890869.847,77.148,32.227,574.219,126.953,247.559
1573890869.851,100.586,31.250,-856.445,160.156,889.648
1573890869.855,2.930,24.902,-165.527,-49.316,-146.973
1573890869.859,-32.227,20.996,-1000.000,-122.070,-833.984
1573890869.863,57.617,20.020,15.625,75.684,-57.617
1573890869.867,120.605,39.551,-762.695,195.312,948.242
1573890869.871,41.992,46.387,177.246,27.832,172.363
1573890869.875,-41.992,32.227,-1000.000,-124.512,-733.398
1573890869.879,21.973,34.668,-267.090,13.672,-382.324
1573890869.883,105.957,34.668,-794.922,184.570,799.805
1573890869.886,56.152,27.832,361.816,76.172,494.629
1573890869.890,-40.039,26.855,-1000.000,-119.141,-672.363
1573890869.894,-10.742,25.879,-534.180,-42.969,-612.305
1573890869.898,86.914,28.320,990.723,166.504,536.133
1573890869.902,76.660,28.320,838.867,140.137,726.562
1573890869.906,-19.043,25.879,-668.457,-66.895,-425.293
1573890869.910,-25.879,24.414,-1000.000,-82.520,-833.984
1573890869.914,77.148,31.738,414.062,128.418,176.758
1573890869.918,105.469,40.527,-830.566,187.012,906.738
1573890869.922,8.301,32.715,-85.449,-19.043,-59.082
1573890869.925,-42.480,26.367,-1000.000,-119.141,-819.824
1573890869.929,41.504,33.691,-119.629,65.918,-189.453
1573890869.933,103.516,37.598,-771.484,192.871,924.316
1573890869.937,27.832,25.879,237.305,34.180,285.645
1573890869.941,-51.758,24.902,-1000.000,-125.000,-749.023
1573890869.945,-0.488,29.297,-308.594,-0.488,-472.656
1573890869.949,90.820,26.367,-819.824,182.129,734.863
1573890869.953,52.734,29.297,503.906,91.797,594.727
1573890869.957,-45.410,28.320,-1000.000,-108.398,-571.777
1573890869.961,-15.625,29.297,-732.910,-55.664,-685.547
1573890869.965,87.891,38.574,819.336,153.809,454.102
1573890869.968,81.543,39.551,921.387,145.020,777.832
1573890869.972,-25.391,31.738,-535.645,-74.707,-313.965
1573890869.976,-35.645,33.691,-1000.000,-101.562,-776.855
1573890869.980,64.941,33.691,103.516,112.305,108.887
1573890869.984,96.680,26.855,-788.086,180.664,933.105
1573890869.988,7.812,23.926,61.523,-11.719,21.484
1573890869.992,-46.875,22.461,-1000.000,-124.023,-852.539
1573890869.996,29.785,21.973,-137.207,43.457,-252.441
1573890870.000,96.680,24.902,-765.137,187.500,943.848
1573890870.004,32.227,27.832,287.109,50.293,366.699
1573890870.008,-46.387,28.320,-1000.000,-121.582,-742.188
1573890870.011,1.465,24.902,-361.816,-14.648,-525.879
1573890870.015,94.727,20.996,-844.727,181.641,676.758
1573890870.019,70.801,33.691,567.383,112.305,660.156
1573890870.023,-24.414,34.180,-973.633,-97.656,-491.699
1573890870.027,-18.555,20.996,-782.227,-72.754,-755.371
1573890870.031,80.566,26.855,745.605,143.555,349.609
1573890870.035,91.797,28.320,996.582,155.762,844.238
1573890870.039,-4.883,26.367,-440.430,-57.129,-208.008
1573890870.043,-33.691,28.809,-1000.000,-106.445,-870.117
1573890870.047,62.012,30.273,108.887,98.145,-38.574
1573890870.050,110.840,33.203,-770.996,185.059,960.449
1573890870.054,22.949,34.180,125.977,-3.906,114.258
1573890870.058,-35.645,30.762,-1000.000,-118.164,-811.035
1573890870.062,41.016,32.715,-212.891,45.410,-342.285
1573890870.066,114.746,30.273,-779.297,197.754,864.258
1573890870.070,62.500,26.367,314.453,71.777,421.875
1573890870.074,-31.738,28.320,-1000.000,-110.352,-706.543
1573890870.078,0.000,27.832,-422.363,-18.066,-581.543
1573890870.082,94.727,28.809,-900.391,179.688,621.094
1573890870.086,70.312,32.715,693.359,127.441,690.918
1573890870.090,-32.715,20.996,-835.449,-86.426,-450.684
1573890870.093,-31.738,17.090,-906.738,-81.543,-750.000
1573890870.097,77.637,28.809,567.383,134.766,306.152
1573890870.101,98.633,33.691,-904.297,169.434,876.953
1573890870.105,3.418,29.785,-253.418,-41.504,-194.336
1573890870.109,-27.344,24.414,-1000.000,-110.352,-858.398
1573890870.113,62.012,26.855,-37.109,82.520,-85.449
1573890870.117,110.840,28.809,-772.949,186.523,954.102
1573890870.121,31.738,28.809,180.176,19.043,218.262
1573890870.125,-38.574,29.297,-1000.000,-122.559,-770.020
1573890870.129,29.297,30.273,-246.094,28.809,-403.809
1573890870.133,113.281,33.203,-789.551,202.637,815.918
1573890870.136,64.941,37.598,390.137,91.797,495.117
1573890870.140,-21.973,35.645,-1000.000,-100.586,-659.668
1573890870.144,15.625,32.227,-558.594,-26.367,-638.184
1573890870.148,115.234,35.156,992.676,178.711,531.250
1573890870.152,102.539,41.504,794.434,140.625,731.445
1573890870.156,1.465,38.574,-739.258,-74.219,-404.785
1573890870.160,-7.324,30.273,-977.051,-83.496,-755.371
1573890870.164,92.773,38.086,458.496,132.812,244.629
1573890870.168,118.164,38.574,-842.285,180.664,907.227
1573890870.172,20.508,31.738,-128.906,-30.273,-119.629
1573890870.175,-20.020,38.086,-1000.000,-114.258,-880.859
1573890870.179,61.523,38.574,-63.965,72.754,-178.223
1573890870.183,120.117,38.086,-768.066,192.383,950.195
1573890870.187,44.922,34.180,205.078,31.738,292.969
1573890870.191,-41.016,27.344,-1000.000,-126.465,-747.070
1573890870.195,15.137,23.926,-302.734,-1.465,-452.148
1573890870.199,105.957,24.414,-811.035,182.617,769.531
1573890870.203,63.477,27.344,415.527,92.773,536.621
1573890870.207,-31.738,22.461,-1000.000,-110.352,-636.230
1573890870.211,-7.812,24.902,-656.738,-50.293,-692.871
1573890870.215,97.168,35.156,887.207,167.480,455.078
1573890870.218,99.609,37.109,857.422,149.414,772.461
1573890870.222,-3.906,31.250,-647.949,-69.824,-358.398
1573890870.226,-14.648,32.227,-1000.000,-91.309,-793.457
1573890870.230,88.867,36.621,325.684,124.023,148.926
1573890870.234,121.582,35.645,-786.621,188.965,957.031
1573890870.238,25.391,28.320,27.832,-11.719,3.418
1573890870.242,-30.273,22.949,-1000.000,-118.164,-817.871
1573890870.246,52.734,24.902,-119.141,56.641,-201.172
1573890870.250,121.094,30.273,-764.648,195.312,901.367
1573890870.254,50.293,22.461,275.391,44.434,366.699
1573890870.258,-31.250,14.648,-1000.000,-124.512,-718.750
1573890870.261,26.855,26.367,-389.648,-0.977,-530.762
1573890870.265,123.047,35.156,-875.000,191.895,674.316
1573890870.269,84.961,24.902,645.996,110.352,630.859
1573890870.273,-14.160,22.461,-937.500,-98.145,-522.461
1573890870.277,3.418,25.391,-686.523,-60.547,-709.473
1573890870.281,102.051,27.832,845.703,150.391,411.621
1573890870.285,103.516,30.762,-961.426,153.320,831.055
1573890870.289,-1.465,26.367,-346.191,-62.988,-294.434
1573890870.293,-31.250,20.020,-1000.000,-117.188,-903.809
1573890870.297,66.895,12.695,166.504,85.449,-0.488
1573890870.300,116.699,21.484,-765.625,182.617,976.562
1573890870.304,25.879,28.809,113.770,-5.859,110.352
1573890870.308,-36.621,22.949,-1000.000,-138.184,-779.297
1573890870.312,42.480,23.926,-164.551,22.461,-271.973
1573890870.316,120.117,25.879,-766.113,183.594,908.203
1573890870.320,57.129,22.461,343.750,58.105,431.641
1573890870.324,-31.250,16.602,-1000.000,-119.629,-720.215
1573890870.328,13.184,11.230,-389.648,-17.090,-595.215
1573890870.332,105.957,17.090,-866.699,179.688,610.840
1573890870.336,78.613,25.879,652.344,114.258,698.730
1573890870.340,-28.320,20.996,-880.371,-104.492,-452.148
1573890870.343,-26.855,14.160,-850.098,-87.402,-749.512
1573890870.347,72.754,18.066,669.434,125.000,321.777
1573890870.351,88.867,26.855,-960.938,151.855,849.121
1573890870.355,-7.324,28.320,-375.488,-56.152,-222.168
1573890870.359,-40.039,24.414,-1000.000,-116.699,-833.984
1573890870.363,53.711,25.879,63.965,83.496,-41.992
1573890870.367,104.004,26.367,-766.113,183.594,966.309
1573890870.371,21.973,20.020,175.781,13.184,150.391
1573890870.375,-42.480,20.996,-1000.000,-124.512,-824.707
1573890870.379,28.320,26.855,-239.746,20.020,-355.469
1573890870.383,107.422,21.484,-786.621,188.477,846.680
1573890870.386,55.664,18.066,400.391,72.266,505.371
1573890870.390,-34.180,22.461,-1000.000,-120.605,-644.531
1573890870.394,4.395,26.855,-515.137,-36.133,-624.512
1573890870.398,109.375,24.902,-979.004,171.387,566.895
1573890870.402,91.309,23.926,817.871,132.324,735.840
1573890870.406,-16.113,27.344,-682.129,-78.613,-408.691
1573890870.410,-15.625,25.879,-1000.000,-74.219,-811.035
1573890870.414,88.379,29.297,401.367,139.160,203.125
1573890870.418,110.840,29.785,-832.520,179.199,914.551
1573890870.422,8.789,30.273,-107.910,-26.367,-109.863
1573890870.425,-38.574,28.320,-1000.000,-117.188,-876.465
1573890870.429,50.293,28.320,-46.387,70.312,-157.227
1573890870.433,109.375,30.762,-764.648,194.336,969.238
1573890870.437,29.297,32.227,203.613,30.762,241.699
1573890870.441,-43.945,30.273,-1000.000,-123.535,-794.434
1573890870.445,19.531,30.273,-301.270,8.301,-409.180
1573890870.449,105.957,33.691,-813.965,188.965,792.969
1573890870.453,60.059,34.180,464.355,90.820,573.730
1573890870.457,-33.691,28.809,-1000.000,-110.352,-628.418
1573890870.461,-11.719,26.855,-627.441,-54.688,-719.238
1573890870.465,84.961,30.273,911.621,153.809,469.238
1573890870.468,79.590,28.809,915.039,136.230,785.156
1573890870.472,-27.344,27.344,-577.148,-76.172,-337.402
1573890870.476,-40.039,28.320,-1000.000,-97.656,-786.621
1573890870.480,64.941,26.367,340.332,114.258,167.480
1573890870.484,100.098,26.367,-809.570,182.617,936.035
1573890870.488,14.160,30.273,-60.059,-20.020,-44.922
1573890870.492,-25.391,36.133,-1000.000,-114.258,-805.664
1573890870.496,53.711,39.062,-109.375,69.824,-165.039
1573890870.500,108.887,34.180,-768.066,188.965,932.617
1573890870.504,36.133,26.367,256.348,31.738,310.547
1573890870.508,-32.715,24.414,-1000.000,-120.117,-777.832
1573890870.511,34.668,26.367,-330.078,13.184,-521.484
1573890870.515,122.070,29.785,-827.637,197.754,703.613
1573890870.519,78.125,29.297,528.320,113.770,602.539
1573890870.523,-14.648,22.949,-1000.000,-85.449,-582.031
1573890870.527,11.230,25.391,-745.117,-37.109,-750.000
1573890870.531,115.723,26.367,769.531,178.223,384.277
1573890870.535,124.023,25.391,998.047,187.500,820.801
1573890870.539,22.949,23.926,-438.477,-22.949,-264.160
1573890870.543,-4.883,19.043,-1000.000,-71.289,-836.426
1573890870.547,96.680,18.066,179.688,128.906,44.922
1573890870.550,148.438,17.090,-780.762,221.680,958.984
1573890870.554,62.012,10.254,74.707,49.805,51.270
1573890870.558,6.836,13.672,-1000.000,-70.801,-855.957
1573890870.562,82.031,23.438,-202.637,89.355,-311.523
1573890870.566,150.391,22.949,-781.250,242.676,898.438
1573890870.570,92.285,23.926,315.430,119.629,410.156
1573890870.574,9.277,24.414,-1000.000,-57.129,-673.828
1573890870.578,44.922,18.555,-442.383,39.062,-538.574
1573890870.582,141.113,23.926,-904.785,236.328,631.348
1573890870.586,119.141,30.273,661.621,174.316,677.734
1573890870.590,12.695,29.785,-871.582,-39.062,-517.090
1573890870.593,17.090,30.273,-919.434,-24.902,-783.691
1573890870.597,118.164,35.156,570.801,182.617,334.473
1573890870.601,124.512,25.391,-916.016,198.730,852.051
1573890870.605,16.602,13.672,-327.148,-18.066,-202.148
1573890870.609,-13.672,18.555,-1000.000,-78.613,-823.730
1573890870.613,83.008,26.855,76.660,123.535,-29.297
1573890870.617,132.812,33.691,-767.090,224.121,979.004
1573890870.621,51.758,34.668,153.320,41.504,141.113
1573890870.625,-12.695,29.297,-1000.000,-98.633,-837.402
1573890870.629,55.664,27.832,-250.000,56.152,-362.793
1573890870.633,131.348,30.273,-789.062,212.891,857.910
1573890870.636,78.125,27.344,327.148,87.402,487.793
1573890870.640,-12.207,24.902,-1000.000,-103.516,-688.965
1573890870.644,18.555,25.391,-473.633,-20.996,-616.699
1573890870.648,111.816,21.973,-946.289,182.617,591.309
1573890870.652,97.656,23.438,746.094,140.137,725.586
1573890870.656,-9.766,24.414,-769.043,-71.289,-447.266
1573890870.660,-17.090,18.555,-973.145,-68.359,-804.688
1573890870.664,89.844,22.461,463.867,149.414,257.324
1573890870.668,116.211,29.785,-866.699,197.754,899.414
1573890870.672,18.555,28.320,-197.266,-6.348,-138.672
1573890870.675,-19.043,24.414,-1000.000,-90.820,-883.789
1573890870.679,72.754,25.879,-41.992,100.098,-141.602
1573890870.683,127.441,33.203,-768.555,214.844,950.195
1573890870.687,48.828,35.645,208.008,42.969,249.512
1573890870.691,-25.879,35.645,-1000.000,-106.445,-753.418
1573890870.695,35.645,35.645,-275.879,31.250,-415.039
1573890870.699,121.094,35.645,-802.734,204.102,790.039
1573890870.703,74.219,31.738,444.824,100.586,572.754
1573890870.707,-20.020,25.391,-1000.000,-92.773,-637.207
1573890870.711,14.160,32.227,-681.152,-25.879,-753.418
1573890870.715,114.746,38.574,878.418,179.199,474.609
1573890870.718,103.516,37.109,839.355,153.809,769.043
1573890870.722,-7.324,34.180,-658.203,-62.500,-416.016
1573890870.726,-17.090,33.203,-1000.000,-85.449,-866.211
1573890870.730,90.820,33.691,217.285,124.023,170.410
1573890870.734,123.047,34.180,-806.641,187.012,960.449
1573890870.738,32.227,33.691,-20.508,-8.301,1.953
1573890870.742,-22.461,28.320,-1000.000,-106.445,-809.570
1573890870.746,51.270,26.855,-112.793,67.871,-198.730
1573890870.750,118.164,29.297,-765.625,202.637,932.129
1573890870.754,50.293,22.461,253.418,56.152,343.750
1573890870.758,-31.738,17.578,-1000.000,-109.863,-720.215
1573890870.761,21.973,25.391,-322.266,10.742,-477.051
1573890870.765,108.887,30.273,-821.289,198.730,739.258
1573890870.769,68.848,23.438,501.953,108.398,623.535
1573890870.773,-25.391,21.484,-1000.000,-101.562,-557.129
1573890870.777,-0.977,31.738,-696.289,-53.711,-757.812
1573890870.781,108.398,39.062,854.492,165.527,408.203
1573890870.785,110.840,33.203,914.062,164.062,810.059
1573890870.789,4.883,21.973,-571.289,-53.223,-324.219
1573890870.793,-20.508,23.438,-1000.000,-94.727,-871.582
1573890870.797,73.242,32.715,211.914,114.258,54.688
1573890870.800,110.840,33.203,-783.691,194.336,961.914
1573890870.804,20.996,29.297,66.895,-0.977,36.621
1573890870.808,-40.527,30.273,-1000.000,-115.234,-842.773
1573890870.812,33.203,35.156,-185.059,58.105,-267.578
1573890870.816,110.352,33.691,-776.855,202.148,901.367
1573890870.820,49.316,29.785,272.949,59.082,424.316
1573890870.824,-38.574,30.273,-1000.000,-118.164,-662.598
1573890870.828,13.184,32.715,-392.090,-13.184,-544.922
1573890870.832,116.211,36.621,-877.441,187.500,645.508
1573890870.836,89.355,34.668,641.113,124.512,670.410
1573890870.840,-13.184,27.344,-909.180,-89.355,-487.793
1573890870.843,-11.230,24.902,-814.453,-65.918,-771.973
1573890870.847,90.820,27.832,693.848,147.949,328.125
1573890870.851,109.375,31.738,-944.336,167.480,863.281
1573890870.855,6.348,28.809,-317.871,-44.434,-232.910
1573890870.859,-29.785,28.320,-1000.000,-97.656,-869.629
1573890870.863,69.336,25.879,13.184,114.258,-7.324
1573890870.867,132.812,30.273,-774.414,219.727,959.961
1573890870.871,35.645,41.504,153.320,18.555,149.414
1573890870.875,-49.316,37.598,-1000.000,-147.949,-820.801
1573890870.879,38.574,36.621,-214.844,20.996,-358.398
1573890870.883,127.441,46.387,-779.297,195.801,900.391
1573890870.886,65.430,47.363,335.938,62.012,478.027
1573890870.890,-18.066,44.434,-1000.000,-114.258,-706.543
1573890870.894,17.090,46.875,-482.422,-30.762,-619.141
1573890870.898,106.445,43.945,-940.918,160.645,589.355
1573890870.902,94.727,42.969,717.773,127.930,708.496
1573890870.906,-0.977,40.527,-824.707,-84.473,-434.082
1573890870.910,-7.324,39.062,-915.039,-91.797,-763.184
1573890870.914,91.309,42.480,544.434,125.488,277.344
1573890870.918,106.934,43.945,-867.676,165.527,907.227
1573890870.922,7.324,40.527,-193.848,-45.410,-155.762
1573890870.925,-33.203,38.086,-1000.000,-121.582,-853.027
1573890870.929,56.152,40.039,-11.719,76.172,-77.637
1573890870.933,111.328,41.992,-769.043,187.988,956.543
1573890870.937,29.785,39.062,169.922,18.066,238.281
1573890870.941,-41.504,37.109,-1000.000,-125.977,-772.949
1573890870.945,20.020,40.527,-276.855,11.719,-418.457
1573890870.949,103.516,44.434,-801.270,187.012,812.012
1573890870.953,57.129,40.039,390.625,83.496,529.297
1573890870.957,-38.086,31.250,-1000.000,-111.816,-641.113
1573890870.961,-8.301,29.785,-542.480,-44.922,-682.617
1573890870.965,91.309,34.668,982.910,162.598,513.184
1573890870.968,88.867,39.062,864.746,140.137,749.023
1573890870.972,-14.160,34.180,-634.766,-78.125,-409.668
1573890870.976,-25.391,31.738,-1000.000,-92.285,-839.355
1573890870.980,77.637,37.598,413.086,123.047,181.641
1573890870.984,100.098,35.156,-812.988,172.363,929.199
1573890870.988,0.977,25.391,-57.129,-32.227,-94.238
1573890870.992,-41.016,21.484,-1000.000,-123.535,-823.242
1573890870.996,47.363,28.320,-62.012,60.059,-149.414
1573890871.000,111.816,35.645,-759.766,192.871,942.871
1573890871.004,36.621,26.367,249.023,31.738,300.781
1573890871.008,-44.434,15.137,-1000.000,-133.789,-811.035
1573890871.011,15.137,18.066,-333.008,-6.836,-524.902
1573890871.015,109.863,26.855,-834.961,179.688,737.793
1573890871.019,72.266,27.832,560.547,96.191,581.543
1573890871.023,-23.926,24.902,-1000.000,-111.816,-564.453
1573890871.027,-0.488,23.438,-641.602,-64.453,-649.414
1573890871.031,98.145,23.926,889.160,149.902,452.148
1573890871.035,98.145,26.855,-996.094,144.531,817.383
1573890871.039,-3.906,22.949,-419.434,-71.777,-272.461
1573890871.043,-24.414,26.367,-1000.000,-100.098,-799.805
1573890871.047,69.824,34.180,266.113,113.770,104.492
1573890871.050,107.910,35.645,-776.367,180.664,939.941
1573890871.054,21.973,34.668,55.664,-16.602,-1.465
1573890871.058,-41.016,26.367,-1000.000,-128.906,-830.078
1573890871.062,35.645,21.484,-130.371,39.551,-216.797
1573890871.066,112.305,23.438,-762.695,182.617,928.223
1573890871.070,46.875,25.391,315.430,43.457,404.785
1573890871.074,-38.574,21.973,-1000.000,-124.512,-692.383
1573890871.078,15.137,24.902,-356.934,-15.137,-539.551
1573890871.082,106.445,35.156,-837.891,178.223,672.363
1573890871.086,68.359,37.598,575.684,109.863,654.297
1573890871.090,-28.320,36.133,-961.914,-94.727,-532.715
1573890871.093,-17.090,30.273,-808.105,-66.406,-775.391
1573890871.097,81.543,34.668,729.980,148.438,355.469
1573890871.101,90.332,37.598,988.770,159.180,829.590
1573890871.105,-14.648,25.879,-473.145,-61.523,-281.250
1573890871.109,-40.039,23.438,-1000.000,-109.863,-854.980
1573890871.113,56.641,31.250,160.156,97.656,10.742
1573890871.117,106.934,33.691,-764.160,192.383,980.957
1573890871.121,24.414,34.180,137.695,8.789,115.234
1573890871.125,-49.316,32.715,-1000.000,-128.418,-835.938
1573890871.129,26.367,35.645,-198.242,32.227,-323.730
1573890871.133,104.004,37.598,-775.391,194.824,876.465
1573890871.136,40.039,33.203,377.930,65.918,484.863
1573890871.140,-48.340,28.320,-1000.000,-120.605,-660.156
1573890871.144,-7.812,27.832,-487.793,-31.250,-590.820
1573890871.148,88.379,30.273,-935.547,167.480,602.539
1573890871.152,61.035,27.832,725.098,111.328,677.734
1573890871.156,-35.156,21.973,-799.316,-92.285,-524.414
1573890871.160,-27.344,18.555,-956.543,-82.520,-831.543
1573890871.164,70.312,30.762,491.211,125.977,262.695
1573890871.168,91.797,37.598,-883.301,162.109,885.742
1573890871.172,-0.977,32.715,-242.676,-46.875,-174.805
1573890871.175,-41.016,30.762,-1000.000,-119.141,-887.207
1573890871.179,53.223,35.645,23.438,82.520,-83.984
1573890871.183,106.445,34.180,-768.066,193.848,982.910
1573890871.187,20.996,27.344,169.434,20.508,177.246
1573890871.191,-51.758,17.578,-1000.000,-125.977,-873.535
1573890871.195,9.277,11.719,-277.832,11.719,-458.984
1573890871.199,94.727,20.996,-802.246,184.570,819.336
1573890871.203,48.340,28.809,425.781,80.566,525.391
1573890871.207,-40.039,32.227,-1000.000,-110.352,-659.180
1573890871.211,-8.301,33.203,-541.016,-35.645,-668.457
1573890871.215,90.820,35.645,997.559,180.664,528.809
1573890871.218,78.125,31.738,849.609,148.438,763.672
1573890871.222,-24.902,20.996,-659.180,-69.336,-357.910
1573890871.226,-11.719,18.555,-1000.000,-57.617,-772.949
1573890871.230,76.172,33.203,419.922,140.625,210.938
1573890871.234,71.777,31.250,-841.309,154.297,920.898
1573890871.238,-29.785,28.809,-137.207,-58.594,-73.242
1573890871.242,-83.984,36.133,-1000.000,-159.668,-848.633
1573890871.246,-5.859,17.090,-60.059,20.020,-155.762
1573890871.250,48.828,25.879,-767.578,145.508,957.031
1573890871.254,-22.949,40.527,217.285,-12.207,267.090
1573890871.258,-103.027,33.691,-1000.000,-182.129,-788.574
1573890871.261,-62.500,30.273,-294.922,-76.660,-475.098
1573890871.265,20.996,32.715,-815.918,102.539,762.207
1573890871.269,-12.695,33.691,516.602,20.508,579.590
1573890871.273,-114.746,28.809,-1000.000,-183.594,-573.730
1573890871.277,-87.402,29.785,-623.535,-125.488,-674.805
1573890871.281,19.043,30.762,905.762,88.867,464.844
1573890871.285,16.113,23.926,966.309,75.195,789.062
1573890871.289,-79.102,20.508,-477.539,-138.672,-307.129
1573890871.293,-91.309,20.508,-1000.000,-159.180,-811.523
1573890871.297,15.625,17.578,289.551,54.688,104.980
1573890871.300,64.941,25.391,-785.156,131.348,946.289
1573890871.304,-20.996,30.762,24.902,-48.340,-25.879
1573890871.308,-73.242,25.391,-1000.000,-159.180,-840.332
1573890871.312,8.789,26.855,-148.926,13.672,-227.539
1573890871.316,82.520,30.273,-770.996,167.969,929.199
1573890871.320,24.902,24.414,283.691,28.809,353.027
1573890871.324,-53.223,17.090,-1000.000,-140.137,-781.738
1573890871.328,-0.977,17.578,-395.508,-20.996,-534.668
1573890871.332,93.750,17.578,-865.234,173.340,676.758
1573890871.336,66.406,26.855,586.914,98.633,643.066
1573890871.340,-30.762,36.133,-938.477,-107.910,-561.035
1573890871.343,-18.555,39.551,-874.512,-73.730,-833.008
1573890871.347,81.055,42.480,623.047,142.090,331.543
1573890871.351,84.961,38.086,-956.543,152.344,837.402
1573890871.355,-7.812,36.133,-398.926,-62.988,-295.898
1573890871.359,-29.297,34.668,-1000.000,-114.258,-874.512
1573890871.363,66.895,42.480,135.742,90.820,31.250
1573890871.367,119.629,48.340,-773.926,181.152,983.398
1573890871.371,41.504,41.504,107.910,-0.488,51.758
1573890871.375,-25.391,37.109,-1000.000,-129.395,-923.828
1573890871.379,42.480,41.016,-208.496,27.832,-359.375
1573890871.383,121.582,46.387,-778.809,187.500,886.719
1573890871.386,60.547,44.434,306.641,54.688,457.031
1573890871.390,-36.133,38.086,-1000.000,-134.277,-693.848
1573890871.394,6.836,35.645,-425.781,-32.227,-594.727
1573890871.398,107.422,39.062,-901.367,173.828,622.070
1573890871.402,81.543,43.457,680.176,114.258,696.777
1573890871.406,-19.043,32.227,-859.863,-103.516,-500.488
1573890871.410,-18.066,20.996,-871.582,-91.309,-779.297
1573890871.414,84.961,33.203,613.770,128.906,319.336
1573890871.418,108.398,37.598,-902.344,168.457,887.695
1573890871.422,14.160,32.227,-257.324,-34.668,-151.855
1573890871.425,-22.949,26.855,-1000.000,-105.957,-828.125
1573890871.429,68.359,30.762,5.371,86.914,-41.504
1573890871.433,124.512,40.527,-768.555,195.801,971.680
1573890871.437,35.156,31.250,173.340,22.949,183.594
1573890871.441,-27.832,23.926,-1000.000,-109.863,-832.031
1573890871.445,42.969,30.273,-234.375,37.109,-421.387
1573890871.449,110.352,34.668,-785.645,182.129,832.520
1573890871.453,60.059,36.133,387.695,72.754,524.902
1573890871.457,-31.250,33.691,-1000.000,-111.816,-608.887
1573890871.461,7.812,33.691,-572.754,-34.668,-626.465
1573890871.465,105.469,36.621,967.773,167.480,541.016
1573890871.468,88.379,34.668,814.941,130.859,751.953
1573890871.472,-7.324,28.320,-679.688,-77.637,-375.488
1573890871.476,-9.277,28.320,-1000.000,-83.008,-827.637
1573890871.480,89.355,33.203,312.500,130.371,159.180
1573890871.484,113.770,40.039,-819.336,176.270,924.805
1573890871.488,17.090,42.969,-71.777,-25.879,-84.473
1573890871.492,-33.691,35.156,-1000.000,-116.699,-853.027
1573890871.496,59.082,35.645,-46.875,65.430,-128.906
1573890871.500,121.094,38.086,-760.742,187.500,957.031
1573890871.504,44.922,31.738,229.492,31.738,260.742
1573890871.508,-29.785,28.809,-1000.000,-121.582,-765.137
1573890871.511,25.879,28.809,-312.988,4.395,-469.727
1573890871.515,107.910,22.949,-813.965,180.664,757.812
1573890871.519,62.500,22.949,452.637,88.867,577.637
1573890871.523,-28.809,28.809,-1000.000,-106.445,-612.793
1573890871.527,-2.441,33.203,-611.816,-51.758,-689.453
1573890871.531,100.098,43.945,929.199,162.598,476.562
1573890871.535,98.633,43.457,894.043,148.926,797.363
1573890871.539,-1.953,34.668,-598.633,-69.336,-328.613
1573890871.543,-19.531,32.227,-1000.000,-96.191,-836.426
1573890871.547,74.219,31.738,298.340,113.281,123.047
1573890871.550,108.398,36.133,-814.453,184.082,946.289
1573890871.554,13.672,37.109,-32.227,-6.348,-62.500
1573890871.558,-42.969,33.203,-1000.000,-113.281,-876.465
1573890871.562,38.086,26.855,-147.949,57.617,-200.684
1573890871.566,104.492,29.297,-775.879,195.312,930.664
1573890871.570,42.480,37.598,232.910,53.711,357.422
1573890871.574,-36.621,27.344,-1000.000,-114.746,-750.000
1573890871.578,13.184,23.438,-353.027,-3.418,-532.715
1573890871.582,109.863,43.457,-847.656,185.547,707.031
1573890871.586,76.172,47.852,555.664,107.910,626.465
1573890871.590,-28.809,32.715,-993.652,-101.562,-534.668
1573890871.593,-14.648,33.203,-743.164,-64.941,-700.195
1573890871.597,85.449,40.527,787.598,150.391,412.598
1573890871.601,94.727,36.621,986.816,155.762,828.613
1573890871.605,-2.441,34.180,-440.430,-52.246,-233.398
1573890871.609,-20.996,32.715,-1000.000,-90.820,-809.570
1573890871.613,76.660,28.320,89.355,110.840,18.066
1573890871.617,113.281,29.297,-784.180,191.895,947.754
1573890871.621,28.809,34.668,104.492,4.883,103.516
1573890871.625,-31.738,33.691,-1000.000,-120.117,-772.949
1573890871.629,44.434,35.156,-189.453,42.969,-295.410
1573890871.633,117.188,41.992,-774.902,192.383,871.094
1573890871.636,49.316,37.598,322.754,55.664,433.594
1573890871.640,-36.621,32.227,-1000.000,-124.512,-697.266
1573890871.644,8.301,28.320,-436.035,-26.367,-556.152
1573890871.648,107.910,35.156,-899.902,180.176,642.578
1573890871.652,87.402,36.621,667.480,131.348,690.430
1573890871.656,-16.113,32.227,-882.812,-82.520,-495.605
1573890871.660,-9.277,37.598,-858.887,-69.336,-808.594
1573890871.664,91.797,39.062,633.301,149.902,308.105
1573890871.668,120.117,43.457,-909.668,193.359,882.324
1573890871.672,15.625,35.645,-266.602,-28.320,-227.539
1573890871.675,-53.223,25.391,-1000.000,-126.953,-928.223
1573890871.679,36.621,35.645,27.832,75.195,-76.660
1573890871.683,91.309,40.527,-770.020,177.246,969.238
1573890871.687,-2.441,31.738,142.090,-12.695,158.691
1573890871.691,-76.660,24.902,-1000.000,-155.273,-815.918
1573890871.695,-3.906,22.461,-228.027,-4.883,-348.145
1573890871.699,85.938,29.785,-785.156,171.875,854.492
1573890871.703,36.133,33.203,353.516,59.570,490.723
1573890871.707,-54.199,27.344,-1000.000,-131.348,-634.766
1573890871.711,-15.137,23.926,-501.953,-47.852,-617.188
1573890871.715,88.379,22.461,-974.609,161.133,555.664
1573890871.718,76.172,29.297,805.176,122.559,732.422
1573890871.722,-24.414,33.203,-724.121,-84.961,-453.125
1573890871.726,-19.531,32.227,-954.102,-82.520,-855.957
1573890871.730,87.891,39.062,496.094,127.930,222.168
1573890871.734,108.887,41.016,-834.473,166.504,903.809
1573890871.738,10.742,28.809,-114.746,-37.598,-89.355
1573890871.742,-30.762,25.391,-1000.000,-116.699,-825.195
1573890871.746,58.105,30.273,-28.320,68.848,-165.039
1573890871.750,117.188,29.785,-758.789,191.895,955.078
1573890871.754,40.527,28.809,217.773,29.785,263.672
1573890871.758,-36.133,18.066,-1000.000,-125.977,-830.078
1573890871.761,27.344,17.090,-283.203,9.766,-494.629
1573890871.765,110.352,23.926,-811.523,183.105,774.902
1573890871.769,65.918,28.809,507.324,86.914,563.965
1573890871.773,-24.414,25.879,-1000.000,-102.539,-578.125
1573890871.777,-1.953,22.461,-574.219,-41.992,-635.742
1573890871.781,95.703,20.508,954.590,164.551,500.000
1573890871.785,88.379,14.160,960.449,141.113,785.645
1573890871.789,-16.113,17.578,-508.301,-72.266,-339.355
1573890871.793,-23.438,19.531,-1000.000,-92.773,-816.406
1573890871.797,82.520,20.020,404.297,116.211,146.973
1573890871.800,112.793,23.438,-781.738,175.781,935.547
1573890871.804,20.996,22.949,47.852,-22.949,2.930
1573890871.808,-28.809,13.672,-1000.000,-125.000,-787.109
1573890871.812,52.246,11.230,-108.398,49.805,-200.684
1573890871.816,121.094,29.297,-757.324,189.941,920.898
1573890871.820,54.688,36.621,285.645,43.457,369.629
1573890871.824,-23.926,29.297,-1000.000,-128.418,-712.891
1573890871.828,27.832,28.809,-324.219,-15.625,-527.832
1573890871.832,118.652,33.691,-818.359,181.641,714.355
1573890871.836,83.984,22.949,523.438,105.469,607.910
1573890871.840,-18.555,20.508,-1000.000,-100.098,-599.121
1573890871.843,-4.883,20.508,-722.656,-55.176,-717.285
1573890871.847,97.168,14.160,833.008,159.668,418.457
1573890871.851,99.609,24.414,929.688,156.738,812.500
1573890871.855,-2.441,24.902,-561.035,-63.477,-327.148
1573890871.859,-30.762,19.043,-1000.000,-106.934,-895.996
1573890871.863,60.059,29.297,238.281,95.703,51.270
1573890871.867,99.609,31.738,-774.902,177.734,961.426
1573890871.871,4.395,21.484,89.844,-16.602,35.645
1573890871.875,-55.176,17.090,-1000.000,-136.230,-855.469
1573890871.879,30.273,21.484,-171.875,38.574,-293.457
1573890871.883,105.957,24.902,-770.020,191.406,913.086
1573890871.886,40.527,19.531,322.754,55.176,432.129
1573890871.890,-44.922,15.137,-1000.000,-120.605,-684.570
1573890871.894,4.395,23.926,-407.715,-13.184,-559.570
1573890871.898,102.051,34.180,-882.324,179.199,626.953
1573890871.902,67.871,32.227,661.621,111.816,671.387
1573890871.906,-30.273,19.531,-862.793,-94.727,-467.773
1573890871.910,-21.484,14.648,-885.254,-71.777,-753.906
1573890871.914,70.801,26.367,587.402,138.672,309.082
1573890871.918,84.961,35.645,-919.434,157.715,857.422
1573890871.922,-12.207,30.273,-300.781,-54.199,-232.422
1573890871.925,-40.039,26.855,-1000.000,-110.352,-869.141
1573890871.929,62.012,36.133,67.871,97.656,-26.855
1573890871.933,113.770,41.992,-770.020,194.824,975.098
1573890871.937,22.949,45.898,132.324,8.789,148.926
1573890871.941,-44.922,41.504,-1000.000,-121.094,-815.918
1573890871.945,39.062,39.062,-251.465,44.922,-366.211
1573890871.949,116.699,42.969,-794.434,201.660,850.098
1573890871.953,56.152,41.016,380.371,80.078,471.680
1573890871.957,-29.785,39.551,-1000.000,-97.656,-679.199
1573890871.961,11.230,41.504,-525.879,-16.113,-609.375
1573890871.965,103.027,45.898,-984.863,183.594,573.730
1573890871.968,82.031,38.574,779.297,141.113,728.516
1573890871.972,-13.672,33.203,-752.930,-70.801,-447.754
1573890871.976,-11.719,34.668,-954.102,-68.848,-832.520
1573890871.980,90.332,34.668,509.766,138.672,232.910
1573890871.984,115.723,38.086,-867.676,181.641,908.691
1573890871.988,19.531,34.668,-205.078,-20.508,-132.324
1573890871.992,-20.020,25.879,-1000.000,-102.539,-870.605
1573890871.996,69.824,30.273,-17.578,88.867,-104.004
1573890872.000,124.023,33.203,-770.020,207.031,978.516
1573890872.004,46.387,22.949,170.410,33.691,230.957
1573890872.008,-27.832,26.367,-1000.000,-118.164,-787.109
1573890872.011,30.762,34.180,-263.184,22.461,-415.039
1573890872.015,115.234,38.574,-801.270,193.848,808.594
1573890872.019,78.125,38.086,460.449,94.238,550.293
1573890872.023,-11.230,29.297,-1000.000,-100.586,-590.332
1573890872.027,13.672,26.855,-554.199,-43.457,-622.070
1573890872.031,108.398,26.855,978.027,165.527,517.578
1573890872.035,96.191,23.438,894.531,137.207,768.066
1573890872.039,-10.742,25.879,-596.680,-81.055,-344.727
1573890872.043,-24.902,27.344,-1000.000,-95.703,-782.715
1573890872.047,77.637,31.738,397.461,117.188,189.453
1573890872.050,105.957,32.227,-805.176,176.270,944.824
1573890872.054,15.137,35.156,-28.809,-24.414,-47.363
1573890872.058,-24.414,37.598,-1000.000,-120.605,-823.242
1573890872.062,48.828,35.645,-111.328,56.152,-169.434
1573890872.066,109.375,36.133,-766.113,183.594,934.570
1573890872.070,49.316,32.715,262.695,32.227,365.234
1573890872.074,-28.809,23.438,-1000.000,-125.000,-746.094
1573890872.078,18.066,28.809,-337.891,-3.906,-500.488
1573890872.082,101.562,38.574,-836.914,180.176,745.605
1573890872.086,63.965,36.621,559.570,95.703,642.090
1573890872.090,-27.832,37.109,-973.145,-105.469,-513.672
1573890872.093,-4.395,35.156,-788.086,-60.059,-733.398
1573890872.097,96.191,38.086,752.441,153.809,420.898
1573890872.101,102.539,43.457,972.168,158.203,800.781
1573890872.105,-4.883,38.086,-496.582,-60.059,-335.938
1573890872.109,-32.227,32.715,-1000.000,-106.445,-854.492
1573890872.113,75.684,27.832,196.777,101.562,59.082
1573890872.117,116.211,30.762,-779.785,182.617,966.797
1573890872.121,29.297,41.992,80.566,-3.906,81.543
1573890872.125,-20.508,41.016,-1000.000,-116.699,-826.172
1573890872.129,50.293,37.109,-179.688,50.781,-299.805
1573890872.133,117.676,41.504,-772.949,197.754,903.809
1573890872.136,58.594,40.527,284.180,60.059,394.531
1573890872.140,-21.973,38.574,-1000.000,-120.117,-732.910
1573890872.144,20.996,41.016,-399.414,-15.137,-548.340
1573890872.148,106.934,42.480,-869.629,179.688,655.273
1573890872.152,86.914,41.016,586.426,114.746,653.320
1573890872.156,-7.812,38.574,-958.008,-92.773,-552.734
1573890872.160,-0.977,36.621,-795.410,-71.777,-793.457
1573890872.164,106.934,36.621,708.008,144.531,348.633
1573890872.168,111.328,41.504,-942.383,166.016,863.281
1573890872.172,4.883,42.969,-341.797,-47.363,-252.441
1573890872.175,-22.461,41.504,-1000.000,-104.492,-896.484
1573890872.179,75.684,41.016,82.520,93.750,2.441
1573890872.183,119.629,43.945,-768.555,187.988,976.562
1573890872.187,36.621,40.039,145.996,12.207,116.211
1573890872.191,-20.020,36.133,-1000.000,-113.281,-812.012
1573890872.195,45.898,37.598,-218.262,37.598,-364.746
1573890872.199,115.234,31.738,-780.762,184.082,833.008
1573890872.203,59.570,22.461,349.121,62.500,446.289
1573890872.207,-28.320,18.066,-1000.000,-112.305,-683.594
1573890872.211,13.184,30.273,-527.832,-17.090,-607.910
1573890872.215,107.422,44.434,-978.027,178.711,570.312
1573890872.218,75.684,43.457,700.195,118.652,707.520
1573890872.222,-22.949,39.062,-812.012,-90.332,-442.383
1573890872.226,-17.578,41.992,-995.605,-81.543,-777.344
1573890872.230,80.566,37.598,398.926,123.535,260.254
1573890872.234,100.098,36.133,-869.141,162.109,885.742
1573890872.238,3.906,35.645,-184.570,-41.504,-138.184
1573890872.242,-30.273,33.203,-1000.000,-115.723,-801.270
1573890872.246,60.547,29.785,-42.969,70.801,-63.965
1573890872.250,112.793,27.344,-767.090,179.199,963.379
1573890872.254,26.367,29.297,202.637,17.578,241.211
1573890872.258,-47.363,32.715,-1000.000,-128.906,-773.438
1573890872.261,21.484,29.785,-264.648,10.254,-394.531
1573890872.265,106.934,29.785,-793.457,185.059,829.590
1573890872.269,54.199,33.203,395.020,80.566,524.414
1573890872.273,-35.645,26.367,-1000.000,-112.793,-646.484
1573890872.277,3.906,30.273,-557.129,-39.551,-639.160
1573890872.281,101.562,39.062,993.652,169.922,527.344
1573890872.285,96.191,39.551,801.270,142.578,745.605
1573890872.289,-10.254,27.832,-721.680,-79.590,-393.066
1573890872.293,-25.391,18.555,-1000.000,-102.051,-770.020
1573890872.297,83.984,30.762,406.250,115.234,222.168
1573890872.300,112.305,33.691,-855.957,170.898,922.363
1573890872.304,21.484,35.645,-140.137,-27.832,-76.172
1573890872.308,-15.137,42.480,-1000.000,-115.723,-884.277
1573890872.312,72.266,41.016,-106.934,65.430,-219.238
1573890872.316,130.371,42.480,-775.391,194.824,929.688
1573890872.320,50.781,40.039,204.102,39.551,277.832
1573890872.324,-29.297,37.598,-1000.000,-114.746,-748.047
1573890872.328,22.949,38.086,-307.617,10.254,-450.684
1573890872.332,106.445,34.668,-821.289,186.035,737.305
1573890872.336,64.941,31.738,491.211,97.656,580.078
1573890872.340,-27.832,31.738,-1000.000,-102.539,-583.008
1573890872.343,-2.930,28.320,-677.246,-51.270,-725.586
1573890872.347,100.586,32.227,859.375,160.645,415.527
1573890872.351,103.027,41.016,941.895,150.879,808.105
1573890872.355,5.371,37.598,-515.625,-60.059,-327.148
1573890872.359,-18.066,35.645,-1000.000,-93.262,-845.215
1573890872.363,81.543,34.668,198.242,113.770,112.793
1573890872.367,116.699,31.250,-795.410,189.453,966.309
1573890872.371,21.484,37.598,41.504,-8.301,39.551
1573890872.375,-29.297,35.645,-1000.000,-123.535,-825.684
1573890872.379,49.316,30.762,-203.125,46.387,-286.133
1573890872.383,122.559,32.715,-781.738,196.289,914.062
1573890872.386,64.941,26.855,299.805,63.965,400.879
1573890872.390,-18.555,29.785,-1000.000,-111.328,-701.660
1573890872.394,31.738,38.574,-375.488,-2.930,-512.695
1573890872.398,136.719,36.621,-854.980,193.848,680.664
1573890872.402,104.980,36.133,586.914,122.559,631.348
1573890872.406,1.465,44.922,-961.426,-92.773,-537.109
1573890872.410,7.812,41.992,-786.133,-68.359,-730.469
1573890872.414,101.074,38.086,727.051,147.949,364.746
1573890872.418,110.352,38.574,-953.613,162.109,846.680
1573890872.422,9.277,34.668,-357.910,-57.617,-227.051
1573890872.425,-21.484,34.180,-1000.000,-113.281,-831.055
1573890872.429,70.312,35.645,117.676,93.262,19.531
1573890872.433,113.770,43.457,-769.531,184.570,967.285
1573890872.437,26.855,41.504,114.746,-1.465,112.305
1573890872.441,-27.832,35.645,-1000.000,-122.070,-819.336
1573890872.445,50.293,36.133,-188.965,41.504,-324.219
1573890872.449,131.348,35.645,-774.414,195.312,880.371
1573890872.453,79.102,42.969,307.129,71.289,439.453
1573890872.457,-15.625,40.039,-1000.000,-116.211,-723.145
1573890872.461,18.555,36.133,-448.242,-34.180,-620.605
1573890872.465,113.281,43.457,-895.020,166.992,610.840
1573890872.468,91.797,34.668,591.797,116.699,681.641
1573890872.472,-3.418,26.855,-951.660,-96.680,-545.898
1573890872.476,-8.301,32.715,-856.934,-82.031,-815.918
1573890872.480,89.844,41.992,597.168,134.766,305.664
1573890872.484,108.887,41.992,-876.953,167.969,898.438
1573890872.488,9.766,30.762,-206.055,-41.992,-170.898
1573890872.492,-26.855,26.367,-1000.000,-116.211,-905.762
1573890872.496,66.406,35.645,25.879,83.496,-102.539
1573890872.500,126.465,41.504,-762.207,197.754,971.680
1573890872.504,41.992,31.738,179.199,18.066,226.562
1573890872.508,-31.250,20.508,-1000.000,-129.883,-745.605
1573890872.511,35.156,26.367,-251.953,13.672,-411.621
1573890872.515,117.676,35.645,-795.898,180.176,792.480
1573890872.519,64.941,32.227,442.871,72.266,521.484
1573890872.523,-25.879,30.762,-1000.000,-117.676,-655.762
1573890872.527,10.742,38.086,-543.457,-43.457,-616.699
1573890872.531,112.793,37.598,994.629,164.551,563.965
1573890872.535,96.191,27.344,887.695,127.930,739.746
1573890872.539,-16.113,28.809,-628.418,-91.797,-420.898
1573890872.543,-12.207,33.691,-952.148,-99.121,-813.477
1573890872.547,100.098,35.645,497.559,124.023,210.449
1573890872.550,117.676,34.180,-813.477,172.363,925.781
1573890872.554,11.230,24.902,-40.527,-38.086,-54.199
1573890872.558,-37.598,16.602,-1000.000,-125.977,-839.844
1573890872.562,52.734,23.438,-76.172,56.641,-149.902
1573890872.566,119.141,31.738,-756.348,180.664,984.375
1573890872.570,41.504,30.762,250.977,22.949,281.738
1573890872.574,-41.992,27.832,-1000.000,-135.742,-801.758
1573890872.578,11.719,25.879,-278.809,-11.719,-480.957
1573890872.582,103.027,28.320,-800.293,168.457,767.090
1573890872.586,61.035,21.973,476.074,74.707,582.520
1573890872.590,-38.086,19.531,-1000.000,-124.512,-644.531
1573890872.593,-13.672,22.949,-669.922,-68.359,-777.344
1573890872.597,87.402,20.996,901.367,139.648,434.570
1573890872.601,81.055,21.484,852.051,122.559,779.297
1573890872.605,-20.996,25.391,-672.852,-93.750,-402.832
1573890872.609,-36.621,28.320,-1000.000,-115.723,-901.367
1573890872.613,63.477,32.227,315.918,95.703,81.055
1573890872.617,100.586,36.133,-778.809,165.039,957.031
1573890872.621,13.184,32.227,60.059,-28.320,7.812
1573890872.625,-40.039,29.785,-1000.000,-129.883,-853.027
1573890872.629,33.691,25.879,-132.812,47.363,-222.168
1573890872.633,103.516,24.414,-763.672,184.570,944.336
1573890872.636,38.574,21.973,294.922,39.551,383.301
1573890872.640,-47.363,22.949,-1000.000,-126.465,-705.566
1573890872.644,6.348,34.668,-389.160,-10.254,-519.043
1573890872.648,97.656,36.133,-867.676,173.340,677.246
1573890872.652,58.105,33.691,632.324,95.215,656.738
1573890872.656,-35.156,35.156,-925.781,-105.957,-525.391
1573890872.660,-19.043,36.133,-770.508,-69.824,-746.094
1573890872.664,82.520,41.504,745.605,150.391,394.043
1573890872.668,92.773,44.922,-960.449,156.738,833.496
1573890872.672,-12.695,34.180,-360.352,-64.453,-250.977
1573890872.675,-42.969,25.391,-1000.000,-115.723,-813.965
1573890872.679,58.594,31.250,125.977,89.355,52.734
1573890872.683,101.074,37.109,-776.855,180.664,990.234
1573890872.687,13.672,31.250,87.402,-0.488,101.562
1573890872.691,-38.086,36.133,-1000.000,-125.000,-818.848
1573890872.695,38.574,42.480,-218.750,27.344,-252.930
1573890872.699,95.703,34.668,-784.668,171.387,911.133
1573890872.703,48.828,36.133,348.145,47.852,438.965
1573890872.707,-21.484,39.062,-1000.000,-120.117,-694.824
1573890872.711,5.371,32.227,-443.359,-30.762,-601.074
1573890872.715,97.168,33.691,-908.203,167.480,605.957
1573890872.718,73.242,34.668,696.289,115.234,687.988
1573890872.722,-34.668,29.785,-849.121,-101.074,-509.766
1573890872.726,-26.367,31.738,-877.930,-77.637,-838.379
1573890872.730,83.496,33.203,625.488,144.043,282.227
1573890872.734,98.145,31.738,-917.480,170.898,883.301
1573890872.738,-9.277,31.738,-305.664,-42.480,-222.656
1573890872.742,-43.945,33.203,-1000.000,-112.305,-945.801
1573890872.746,58.105,40.039,53.711,87.891,-94.238
1573890872.750,115.723,38.574,-775.391,195.312,981.934
1573890872.754,28.809,24.414,115.234,11.719,148.926
1573890872.758,-43.457,21.973,-1000.000,-131.348,-855.469
1573890872.761,21.484,25.879,-219.238,20.996,-375.000
1573890872.765,102.539,28.320,-787.109,186.523,856.445
1573890872.769,49.805,29.297,398.926,66.406,483.887
1573890872.773,-47.363,23.926,-1000.000,-132.324,-659.668
1573890872.777,-17.090,28.320,-523.926,-48.828,-583.984
1573890872.781,85.449,34.668,-979.004,162.109,574.707
1573890872.785,73.242,31.250,797.363,122.070,720.703
1573890872.789,-22.461,29.297,-729.004,-89.844,-406.250
1573890872.793,-21.484,33.691,-948.242,-91.797,-762.207
1573890872.797,79.102,41.992,498.535,127.930,235.840
1573890872.800,100.098,42.480,-836.426,174.805,909.180
1573890872.804,0.000,35.156,-93.750,-31.250,-109.375
1573890872.808,-28.320,36.621,-1000.000,-102.051,-864.746
1573890872.812,68.359,35.156,-99.609,91.797,-180.176
1573890872.816,123.047,31.250,-768.555,209.473,969.727
1573890872.820,41.504,30.762,233.398,47.852,289.551
1573890872.824,-38.574,30.273,-1000.000,-108.887,-801.758
1573890872.828,23.926,28.809,-314.453,23.438,-462.402
1573890872.832,112.793,37.109,-818.848,205.566,778.809
1573890872.836,64.941,44.922,485.352,109.863,571.289
1573890872.840,-35.156,32.715,-1000.000,-95.703,-592.773
1573890872.843,-4.395,29.297,-744.141,-47.852,-696.777
1573890872.847,96.191,34.668,778.809,158.691,455.566
1573890872.851,82.031,33.203,952.148,145.508,791.504
1573890872.855,-24.414,29.785,-558.105,-73.242,-330.078
1573890872.859,-38.574,23.926,-1000.000,-103.516,-821.289
1573890872.863,60.547,29.297,350.586,110.840,143.555
1573890872.867,93.750,32.227,-806.152,176.270,954.590
1573890872.871,5.371,22.949,-22.949,-22.949,-30.762
1573890872.875,-39.062,25.879,-1000.000,-126.953,-877.441
1573890872.879,44.434,37.598,-149.414,50.781,-230.469
1573890872.883,114.258,39.551,-771.973,197.266,935.547
1573890872.886,45.410,35.156,260.254,45.898,338.379
1573890872.890,-34.180,36.133,-1000.000,-123.535,-734.375
1573890872.894,18.555,41.992,-343.262,-2.441,-514.648
1573890872.898,105.957,41.992,-834.961,179.688,705.078
1573890872.902,77.637,35.156,509.766,99.609,627.441
1573890872.906,-20.996,31.738,-1000.000,-104.980,-554.688
1573890872.910,-10.742,36.621,-729.492,-68.359,-737.305
1573890872.914,95.215,40.527,789.551,146.973,386.719
1573890872.918,104.492,39.551,-996.582,154.785,827.148
1573890872.922,-1.465,32.715,-427.246,-62.988,-248.047
1573890872.925,-25.391,27.344,-1000.000,-108.887,-851.074
1573890872.929,79.590,34.668,140.137,101.074,9.766
1573890872.933,126.953,43.945,-795.410,191.895,954.590
1573890872.937,29.297,40.039,42.969,0.000,45.410
1573890872.941,-35.156,34.180,-1000.000,-122.070,-871.582
1573890872.945,49.805,36.133,-172.852,42.480,-337.891
1573890872.949,114.258,41.504,-775.391,187.988,894.531
1573890872.953,46.387,38.574,328.613,50.781,431.152
1573890872.957,-32.715,31.250,-1000.000,-128.418,-753.418
1573890872.961,2.441,21.484,-460.938,-31.738,-604.004
1573890872.965,95.215,15.625,-913.086,164.551,631.348
1573890872.968,73.242,22.461,637.695,106.934,692.871
1573890872.972,-35.156,27.832,-880.859,-103.516,-461.426
1573890872.976,-25.879,31.250,-938.965,-79.102,-751.465
1573890872.980,79.590,36.621,511.230,137.207,322.266
1573890872.984,97.656,38.086,-907.715,160.156,864.258
1573890872.988,-2.930,31.250,-296.387,-48.340,-235.352
1573890872.992,-36.621,22.461,-1000.000,-110.352,-869.141
1573890872.996,64.941,24.902,62.988,87.402,-4.395
1573890873.000,117.676,37.109,-764.160,187.988,982.422
1573890873.004,38.574,37.598,157.227,18.555,173.340
1573890873.008,-37.598,30.762,-1000.000,-121.094,-792.480
1573890873.011,29.785,34.668,-220.703,23.926,-377.930
1573890873.015,121.582,44.922,-780.273,192.871,850.586
1573890873.019,68.359,44.434,340.820,77.148,478.516
1573890873.023,-26.855,42.969,-1000.000,-115.723,-707.520
1573890873.027,10.742,41.016,-492.676,-40.039,-637.207
1573890873.031,108.887,38.086,-948.730,160.645,571.289
1573890873.035,87.402,39.551,733.887,119.629,719.727
1573890873.039,-8.789,37.598,-805.664,-95.703,-450.195
1573890873.043,-12.695,32.227,-948.730,-99.609,-837.402
1573890873.047,81.543,35.156,512.207,117.676,232.422
1573890873.050,109.375,42.480,-890.137,164.551,904.297
1573890873.054,12.207,31.250,-214.355,-41.504,-148.438
1573890873.058,-29.785,18.555,-1000.000,-121.582,-877.441
1573890873.062,55.176,27.832,-77.148,64.453,-148.926
1573890873.066,119.141,39.062,-776.855,182.617,951.172
1573890873.070,48.828,40.527,180.176,25.391,279.297
1573890873.074,-31.250,35.645,-1000.000,-126.953,-740.723
1573890873.078,33.203,37.109,-272.461,7.324,-430.664
1573890873.082,125.488,43.945,-806.641,184.570,780.762
1573890873.086,83.008,37.109,460.449,86.426,570.312
1573890873.090,-14.160,26.367,-1000.000,-109.375,-618.652
1573890873.093,8.789,27.344,-637.695,-50.293,-690.918
1573890873.097,110.840,36.133,914.062,162.109,494.141
1573890873.101,104.492,39.062,892.090,143.555,771.484
1573890873.105,2.930,38.086,-592.773,-72.754,-341.309
1573890873.109,-7.812,31.738,-1000.000,-90.820,-802.734
1573890873.113,86.914,29.297,269.043,112.793,141.602
1573890873.117,113.770,34.668,-802.734,169.434,951.172
1573890873.121,31.738,34.668,1.465,-18.066,24.902
1573890873.125,-17.090,27.832,-1000.000,-116.699,-835.449
1573890873.129,58.105,31.250,-149.414,53.223,-227.539
1573890873.133,132.812,41.504,-769.531,188.965,959.473
1573890873.136,60.059,34.668,270.508,43.457,364.746
1573890873.140,-29.785,28.320,-1000.000,-126.953,-715.332
1573890873.144,31.738,34.668,-323.730,-8.789,-465.820
1573890873.148,125.488,36.621,-823.730,174.805,741.211
1573890873.152,80.566,28.809,523.438,90.332,605.957
1573890873.156,-22.949,28.320,-1000.000,-113.281,-572.754
1573890873.160,-10.742,30.762,-740.234,-73.242,-741.699
1573890873.164,101.074,36.621,786.133,144.531,399.902
1573890873.168,111.816,41.016,994.629,156.250,811.035
1573890873.172,0.000,29.785,-456.543,-59.082,-333.008
1573890873.175,-22.949,26.367,-1000.000,-99.121,-896.973
1573890873.179,78.613,31.250,211.914,111.816,47.852
1573890873.183,116.699,32.227,-778.320,193.359,968.750
1573890873.187,21.973,31.738,60.059,0.000,55.664
1573890873.191,-36.621,28.320,-1000.000,-125.488,-899.414
1573890873.195,42.969,34.668,-160.645,41.504,-349.121
1573890873.199,119.141,38.086,-770.508,195.801,914.062
1573890873.203,60.059,35.156,284.668,62.500,402.832
1573890873.207,-22.461,33.691,-1000.000,-115.723,-774.902
1573890873.211,21.973,39.551,-397.949,-16.602,-602.051
1573890873.215,114.746,45.898,-859.863,178.223,646.973
1573890873.218,85.449,42.480,545.898,111.816,653.320
1573890873.222,-23.926,38.086,-996.094,-103.516,-487.305
1573890873.226,-9.766,34.668,-797.852,-77.637,-731.934
