timestamps,TP9,AF7,AF8,TP10,Right AUX
1573890732.793,110.840,78.125,-943.848,200.684,611.328
1573890732.797,90.820,73.242,621.094,148.438,699.707
1573890732.800,-8.301,63.477,-906.250,-69.824,-427.734
1573890732.804,-3.906,64.453,-954.102,-57.617,-744.141
1573890732.808,98.145,68.359,466.797,163.574,268.066
1573890732.812,125.488,82.520,-901.855,205.566,866.211
1573890732.816,36.133,91.797,-264.648,-3.906,-168.457
1573890732.820,-11.230,86.426,-1000.000,-83.984,-885.742
1573890732.824,70.312,83.496,-46.387,114.258,-125.488
1573890732.828,121.582,84.961,-785.156,229.492,944.824
1573890732.832,40.039,92.773,148.926,52.734,163.086
1573890732.836,-28.809,91.309,-1000.000,-92.773,-813.965
1573890732.840,39.551,87.402,-291.992,51.270,-425.781
1573890732.843,125.488,96.680,-811.523,228.027,778.809
1573890732.847,77.637,100.586,395.508,118.652,519.531
1573890732.851,-14.648,96.191,-1000.000,-85.449,-620.605
1573890732.855,14.648,94.727,-656.738,-13.184,-635.254
1573890732.859,110.840,97.656,902.344,200.684,520.996
1573890732.863,109.375,100.098,757.812,172.363,738.770
1573890732.867,1.465,93.750,-741.699,-55.664,-383.301
1573890732.871,-17.090,87.402,-1000.000,-74.219,-808.105
1573890732.875,87.891,69.336,193.359,143.066,145.508
1573890732.879,118.164,59.570,-846.191,199.707,908.691
1573890732.883,20.508,58.594,-99.609,-2.930,-61.523
1573890732.886,-26.367,45.898,-1000.000,-104.004,-849.609
1573890732.890,57.617,39.062,-124.023,76.172,-199.219
1573890732.894,116.211,24.902,-780.273,209.961,924.805
1573890732.898,44.922,2.930,217.285,56.152,300.293
1573890732.902,-25.391,7.812,-1000.000,-105.469,-710.938
1573890732.906,35.645,18.555,-387.207,20.508,-443.848
1573890732.910,115.234,-0.488,-851.562,203.613,747.559
1573890732.914,66.895,-24.902,449.707,111.328,581.055
1573890732.918,-24.902,-31.738,-1000.000,-94.238,-606.445
1573890732.922,0.488,-36.621,-794.922,-41.016,-715.332
1573890732.925,99.609,-35.645,738.770,181.641,440.430
1573890732.929,101.074,-31.738,883.789,176.758,784.180
1573890732.933,1.465,-35.645,-617.676,-52.734,-321.289
1573890732.937,-20.996,-41.992,-1000.000,-96.680,-797.852
1573890732.941,73.242,-40.039,146.484,115.723,98.633
1573890732.945,117.676,-22.949,-837.402,199.707,946.289
1573890732.949,32.227,-26.855,-68.848,9.277,39.551
1573890732.953,-32.715,-41.992,-1000.000,-112.305,-781.738
1573890732.957,41.016,-30.273,-194.336,55.664,-214.844
1573890732.961,113.770,-19.043,-796.387,201.172,906.250
1573890732.965,54.688,-27.344,225.098,56.152,352.539
1573890732.968,-21.973,-40.527,-1000.000,-116.699,-752.930
1573890732.972,18.066,-40.039,-445.312,-11.719,-541.992
1573890732.976,105.957,-34.180,-905.273,178.223,656.250
1573890732.980,82.520,-34.180,538.086,114.258,651.855
1573890732.984,-14.648,-35.645,-985.840,-96.191,-526.855
1573890732.988,-2.441,-35.156,-881.836,-70.801,-799.316
1573890732.992,99.609,-21.973,608.887,152.832,342.773
1573890732.996,108.398,-7.324,977.539,166.504,843.262
1573890733.000,10.742,-8.789,-488.281,-47.852,-249.023
1573890733.004,-16.602,-13.672,-1000.000,-100.098,-823.730
1573890733.008,72.266,-9.277,41.504,110.840,22.949
1573890733.011,117.188,-5.371,-799.316,206.543,937.988
1573890733.015,27.344,-9.766,78.125,13.184,80.566
1573890733.019,-35.156,-15.137,-1000.000,-115.723,-813.477
1573890733.023,30.273,-17.578,-271.973,39.551,-308.105
1573890733.027,94.727,-22.461,-807.617,196.289,880.371
1573890733.031,52.246,-22.461,316.406,74.219,465.820
1573890733.035,-20.508,-7.812,-1000.000,-106.934,-675.781
1573890733.039,20.020,-1.953,-540.039,-10.254,-579.102
1573890733.043,106.934,-12.695,-967.285,187.988,616.211
1573890733.047,86.914,-9.766,579.590,130.371,689.941
1573890733.050,-5.371,-3.906,-910.645,-83.496,-466.309
1573890733.054,-7.324,-7.324,-1000.000,-74.219,-785.156
1573890733.058,87.402,-12.207,323.730,144.043,266.113
1573890733.062,111.328,-15.625,-921.875,184.082,887.207
1573890733.066,20.508,-13.184,-318.359,-21.973,-152.344
1573890733.070,-14.648,-11.719,-1000.000,-99.609,-806.152
1573890733.074,74.219,-13.184,-50.781,93.262,-53.223
1573890733.078,130.859,-13.184,-785.156,212.402,946.777
1573890733.082,54.199,-10.742,150.879,41.504,197.754
1573890733.086,-11.719,-8.301,-1000.000,-101.074,-771.973
1573890733.090,48.828,-8.301,-284.668,52.734,-374.023
1573890733.093,127.930,-8.789,-807.617,223.145,811.035
1573890733.097,89.355,-10.742,321.777,113.281,524.902
1573890733.101,0.000,-13.672,-1000.000,-83.008,-610.840
1573890733.105,31.250,-13.672,-660.156,-13.184,-632.812
1573890733.109,125.488,-19.043,912.109,197.754,534.668
1573890733.113,112.793,-27.344,645.508,162.109,732.422
1573890733.117,12.695,-30.273,-878.906,-62.988,-379.883
1573890733.121,-0.488,-31.738,-1000.000,-74.219,-771.484
1573890733.125,100.098,-33.691,304.688,143.555,193.848
1573890733.129,127.930,-41.016,-869.629,190.918,891.113
1573890733.133,30.762,-41.504,-172.363,-15.137,-94.727
1573890733.136,-24.414,-47.363,-1000.000,-108.887,-822.754
1573890733.140,60.059,-59.082,-139.160,73.242,-180.664
1573890733.144,122.559,-51.758,-787.598,198.242,901.855
1573890733.148,53.711,-41.992,206.055,38.086,265.625
1573890733.152,-19.043,-36.621,-1000.000,-118.164,-784.668
1573890733.156,37.598,-33.691,-346.680,12.695,-478.516
1573890733.160,126.953,-35.156,-836.914,196.777,742.188
1573890733.164,86.914,-24.902,453.613,108.887,603.516
1573890733.168,-7.324,-22.949,-1000.000,-89.844,-524.902
1573890733.172,9.277,-39.062,-783.691,-41.992,-690.918
1573890733.175,104.980,-42.480,745.605,169.434,432.129
1573890733.179,104.980,-34.180,909.668,160.645,775.391
1573890733.183,6.836,-35.156,-568.848,-51.758,-295.898
1573890733.187,-8.301,-38.574,-1000.000,-80.566,-741.211
1573890733.191,86.426,-33.203,100.586,126.953,127.441
1573890733.195,116.699,-32.715,-801.758,197.754,945.801
1573890733.199,29.785,-36.621,27.344,1.465,37.109
1573890733.203,-24.414,-34.668,-1000.000,-110.840,-833.496
1573890733.207,49.316,-29.297,-164.551,64.453,-273.438
1573890733.211,115.723,-21.484,-774.902,204.590,902.344
1573890733.215,50.781,-21.484,280.762,57.129,357.910
1573890733.218,-34.180,-32.715,-1000.000,-115.234,-667.969
1573890733.222,13.184,-38.086,-391.602,-2.930,-496.094
1573890733.226,103.516,-33.203,-860.840,191.406,655.762
1573890733.230,77.637,-34.180,560.059,115.234,623.535
1573890733.234,-11.719,-36.621,-981.445,-88.379,-545.898
1573890733.238,5.371,-27.344,-806.152,-44.922,-698.242
1573890733.242,106.934,-19.531,724.609,164.551,398.438
1573890733.246,109.375,-26.367,979.980,164.062,830.078
1573890733.250,6.836,-30.762,-479.492,-52.734,-243.652
1573890733.254,-23.926,-27.832,-1000.000,-101.562,-868.652
1573890733.258,67.383,-22.461,99.121,108.887,-8.789
1573890733.261,108.398,-18.066,-792.480,200.195,953.125
1573890733.265,22.949,-18.555,70.801,15.137,107.910
1573890733.269,-29.297,-20.020,-1000.000,-109.375,-757.812
1573890733.273,49.316,-20.020,-208.984,51.270,-302.246
1573890733.277,116.211,-17.578,-783.691,206.543,855.957
1573890733.281,57.617,-20.996,298.340,72.754,434.570
1573890733.285,-27.832,-31.250,-1000.000,-114.258,-676.758
1573890733.289,4.883,-34.668,-466.309,-18.066,-575.195
1573890733.293,96.191,-28.320,-921.387,184.082,618.652
1573890733.297,69.824,-21.484,647.461,123.535,643.066
1573890733.300,-27.832,-15.625,-886.230,-94.238,-533.203
1573890733.304,-20.508,-15.137,-921.387,-71.289,-764.160
1573890733.308,72.754,-21.973,533.203,153.809,291.016
1573890733.312,93.262,-23.438,-928.223,180.176,872.559
1573890733.316,0.977,-29.785,-296.875,-35.645,-218.262
1573890733.320,-38.574,-28.320,-1000.000,-109.863,-880.371
1573890733.324,47.363,-20.020,-58.594,85.449,-58.594
1573890733.328,99.121,-16.602,-790.039,197.266,953.125
1573890733.332,29.785,-13.184,147.949,30.762,163.086
1573890733.336,-36.133,-22.949,-1000.000,-114.746,-812.500
1573890733.340,19.043,-40.039,-348.145,15.137,-428.223
1573890733.343,102.051,-34.668,-837.402,183.594,776.367
1573890733.347,58.105,-23.438,355.957,82.520,513.672
1573890733.351,-30.273,-27.832,-1000.000,-106.934,-629.883
1573890733.355,6.836,-26.367,-581.055,-27.344,-629.883
1573890733.359,99.609,-19.531,964.844,182.129,536.133
1573890733.363,89.844,-9.766,765.137,147.461,754.883
1573890733.367,-6.348,-14.160,-747.559,-68.848,-358.887
1573890733.371,-16.602,-25.391,-1000.000,-79.590,-757.324
1573890733.375,84.961,-17.090,325.684,136.230,228.516
1573890733.379,111.328,-12.207,-878.418,187.012,903.809
1573890733.383,16.602,-21.973,-198.730,-16.113,-117.676
1573890733.386,-28.809,-25.391,-1000.000,-107.422,-867.676
1573890733.390,50.781,-24.414,-88.867,81.055,-145.996
1573890733.394,108.398,-20.508,-779.785,208.984,955.078
1573890733.398,46.387,-11.230,192.383,44.922,261.230
1573890733.402,-17.090,-6.836,-1000.000,-103.516,-748.047
1573890733.406,38.574,-0.488,-338.867,34.668,-435.059
1573890733.410,122.559,0.977,-830.566,212.402,738.281
1573890733.414,81.543,-9.277,427.246,112.305,585.938
1573890733.418,-14.160,-6.348,-1000.000,-94.238,-562.988
1573890733.422,1.953,-1.953,-771.484,-39.551,-684.082
1573890733.425,101.074,-4.395,795.410,175.293,469.727
1573890733.429,103.516,-4.395,763.184,154.785,766.113
1573890733.433,2.930,-3.418,-774.414,-63.477,-336.426
1573890733.437,-9.277,6.836,-1000.000,-75.195,-806.641
1573890733.441,89.355,13.184,229.980,144.043,121.582
1573890733.445,120.117,10.742,-813.477,208.496,955.078
1573890733.449,29.785,7.324,-25.391,8.301,18.555
1573890733.453,-22.949,8.789,-1000.000,-106.445,-845.703
1573890733.457,55.664,17.578,-158.691,63.965,-257.812
1573890733.461,119.629,18.555,-780.273,206.055,918.457
1573890733.465,41.992,8.301,258.789,56.152,368.652
1573890733.468,-37.109,1.465,-1000.000,-112.793,-694.336
1573890733.472,17.090,8.301,-503.906,2.441,-492.188
1573890733.476,103.516,6.836,-945.801,187.988,675.293
1573890733.480,71.289,-3.906,554.199,112.793,629.395
1573890733.484,-22.949,5.859,-1000.000,-88.379,-503.906
1573890733.488,-6.836,19.043,-793.457,-45.410,-656.250
1573890733.492,89.355,15.137,723.145,165.039,428.223
1573890733.496,98.145,14.160,976.074,165.527,818.359
1573890733.500,5.859,17.090,-473.633,-44.922,-262.207
1573890733.504,-22.461,16.113,-1000.000,-92.285,-811.035
1573890733.508,66.895,18.066,87.402,115.723,59.082
1573890733.511,110.352,14.160,-801.270,202.637,970.703
1573890733.515,33.203,14.648,35.645,17.578,59.082
1573890733.519,-30.762,16.113,-1000.000,-104.980,-846.680
1573890733.523,39.551,12.207,-206.055,49.805,-310.547
1573890733.527,114.746,14.648,-786.621,201.172,868.652
1573890733.531,59.570,18.555,297.852,77.637,392.578
1573890733.535,-27.832,9.766,-1000.000,-106.934,-734.863
1573890733.539,10.254,6.348,-466.309,-11.719,-558.594
1573890733.543,110.352,15.137,-903.809,201.660,631.348
1573890733.547,89.355,20.508,548.340,147.461,668.945
1573890733.550,-3.418,20.996,-961.426,-66.406,-485.352
1573890733.554,-2.441,17.090,-952.148,-45.898,-787.109
1573890733.558,99.121,7.812,524.902,171.387,288.574
1573890733.562,120.605,6.348,950.195,191.406,841.797
1573890733.566,19.531,12.695,-521.973,-26.367,-223.633
1573890733.570,-11.230,15.625,-1000.000,-89.844,-836.914
1573890733.574,78.125,18.066,-11.719,113.770,-19.043
1573890733.578,128.418,20.996,-784.668,219.238,957.520
1573890733.582,52.734,13.672,152.344,42.969,161.621
1573890733.586,-11.719,9.277,-1000.000,-93.262,-762.695
1573890733.590,51.270,19.043,-270.996,49.805,-361.328
1573890733.593,122.070,22.461,-800.781,206.055,815.918
1573890733.597,74.219,15.625,351.074,87.891,495.117
1573890733.601,-6.836,8.301,-1000.000,-96.680,-647.461
1573890733.605,35.645,10.254,-605.469,-9.277,-628.906
1573890733.609,124.512,9.766,953.125,191.895,537.598
1573890733.613,105.469,8.789,696.777,155.762,745.117
1573890733.617,13.184,0.977,-796.875,-54.688,-403.809
1573890733.621,6.836,-4.395,-1000.000,-62.988,-848.633
1573890733.625,99.121,8.789,229.004,148.926,180.176
1573890733.629,118.164,15.137,-885.254,190.430,890.137
1573890733.633,19.531,-2.441,-198.730,-14.648,-135.254
1573890733.636,-20.020,-7.324,-1000.000,-94.238,-875.000
1573890733.640,65.430,4.395,-86.426,93.750,-140.137
1573890733.644,114.746,11.230,-778.809,207.520,961.426
1573890733.648,42.480,11.719,203.125,43.457,268.066
1573890733.652,-22.949,6.836,-1000.000,-103.027,-756.836
1573890733.656,36.621,-0.488,-352.539,36.621,-422.852
1573890733.660,116.211,-7.324,-833.496,208.008,772.461
1573890733.664,80.566,0.488,393.066,112.305,566.406
1573890733.668,-5.859,1.465,-1000.000,-83.984,-584.961
1573890733.672,20.020,-0.488,-689.941,-27.344,-646.484
1573890733.675,118.164,8.301,843.262,186.523,492.188
1573890733.679,112.793,8.301,854.980,167.969,781.250
1573890733.683,11.230,-6.836,-647.461,-45.410,-326.660
1573890733.687,-2.930,-18.555,-1000.000,-70.312,-779.785
1573890733.691,93.262,-13.672,221.191,138.184,158.691
1573890733.695,128.906,-0.488,-845.215,207.031,937.012
1573890733.699,40.039,5.859,-120.605,4.395,-25.879
1573890733.703,-16.602,5.859,-1000.000,-104.980,-867.188
1573890733.707,59.570,4.883,-161.621,77.148,-235.840
1573890733.711,129.395,2.930,-795.410,212.891,923.340
1573890733.715,64.453,6.836,188.965,56.641,303.711
1573890733.718,-14.648,1.953,-1000.000,-107.422,-738.770
1573890733.722,34.180,-0.977,-367.676,14.648,-457.031
1573890733.726,117.676,3.418,-852.051,203.125,713.867
1573890733.730,83.496,-0.488,490.723,128.418,615.723
1573890733.734,-12.207,-11.230,-1000.000,-82.031,-567.871
1573890733.738,-1.465,-17.090,-812.012,-51.270,-770.020
1573890733.742,93.750,-16.113,706.543,162.109,394.043
1573890733.746,96.680,-19.043,930.176,167.969,808.594
1573890733.750,-4.883,-20.508,-550.781,-46.387,-286.133
1573890733.754,-27.344,-22.949,-1000.000,-89.355,-868.652
1573890733.758,70.312,-15.625,95.703,123.535,-3.418
1573890733.761,112.793,-1.465,-799.316,200.684,949.707
1573890733.765,27.832,0.000,51.758,11.230,85.938
1573890733.769,-28.809,-5.859,-1000.000,-102.539,-788.574
1573890733.773,47.363,-1.953,-219.727,63.477,-275.391
1573890733.777,125.000,6.836,-790.039,217.773,868.164
1573890733.781,63.965,0.000,317.871,84.961,446.777
1573890733.785,-26.855,-7.812,-1000.000,-96.680,-592.773
1573890733.789,21.484,9.766,-460.938,7.324,-504.395
1573890733.793,118.652,21.973,-903.320,210.938,631.836
1573890733.797,88.867,6.836,576.660,139.160,661.133
1573890733.800,-15.137,-9.766,-941.406,-81.055,-480.469
1573890733.804,-8.301,-7.812,-927.734,-61.035,-721.680
1573890733.808,94.238,3.418,514.648,158.203,330.078
1573890733.812,111.816,4.883,-908.691,178.223,863.281
1573890733.816,16.113,1.465,-296.875,-33.691,-193.848
1573890733.820,-18.066,7.812,-1000.000,-92.285,-851.074
1573890733.824,67.383,6.348,37.598,106.934,-34.668
1573890733.828,121.582,3.906,-770.508,210.938,965.332
1573890733.832,40.039,5.371,150.391,30.273,159.668
1573890733.836,-35.156,3.906,-1000.000,-111.328,-769.043
1573890733.840,33.691,10.742,-234.863,35.156,-334.961
1573890733.843,115.234,14.648,-785.645,205.566,842.285
1573890733.847,64.453,10.742,320.801,87.891,440.430
1573890733.851,-24.902,5.859,-1000.000,-105.469,-696.777
1573890733.855,10.254,8.301,-512.695,-13.672,-592.285
1573890733.859,106.934,9.277,-968.262,195.801,580.566
1573890733.863,86.426,5.859,710.938,148.438,684.082
1573890733.867,-13.184,-3.418,-815.918,-70.312,-460.938
1573890733.871,-14.160,-13.184,-967.773,-70.801,-806.152
1573890733.875,81.543,-11.719,454.102,141.113,207.520
1573890733.879,107.422,-2.930,-864.258,184.570,891.113
1573890733.883,17.090,2.930,-168.457,-20.020,-117.676
1573890733.886,-23.438,-0.488,-1000.000,-102.051,-835.938
1573890733.890,56.641,-7.324,-88.867,88.379,-122.070
1573890733.894,104.980,-8.301,-775.391,201.172,941.895
1573890733.898,32.227,-5.859,198.730,32.227,181.152
1573890733.902,-41.504,-17.578,-1000.000,-123.535,-800.781
1573890733.906,21.484,-19.043,-314.941,14.160,-413.086
1573890733.910,103.516,-20.508,-818.359,189.453,761.719
1573890733.914,56.641,-26.855,426.270,87.891,590.820
1573890733.918,-28.809,-20.020,-1000.000,-105.469,-568.359
1573890733.922,-6.348,-17.090,-720.703,-40.039,-697.754
1573890733.925,90.820,-20.996,829.590,173.828,489.746
1573890733.929,88.379,-22.949,837.402,152.832,770.508
1573890733.933,-9.766,-25.879,-654.785,-62.500,-363.770
1573890733.937,-20.508,-25.879,-1000.000,-77.637,-803.223
1573890733.941,72.266,-31.738,125.488,131.836,150.391
1573890733.945,98.633,-30.273,-834.473,191.406,927.734
1573890733.949,12.695,-19.531,-62.012,-2.441,-28.809
1573890733.953,-31.738,-22.949,-1000.000,-106.445,-831.543
1573890733.957,43.945,-23.926,-137.695,64.453,-228.516
1573890733.961,100.098,-18.555,-776.855,195.312,906.738
1573890733.965,37.598,-13.672,238.281,46.387,341.797
1573890733.968,-36.621,-14.648,-1000.000,-116.699,-707.031
1573890733.972,17.578,-17.578,-363.281,1.465,-465.332
1573890733.976,107.422,-16.602,-836.426,189.453,728.027
1573890733.980,74.707,-18.066,421.387,110.840,600.586
1573890733.984,-20.508,-18.555,-1000.000,-95.703,-556.152
1573890733.988,-5.371,-10.254,-801.758,-53.711,-728.516
1573890733.992,96.191,-5.859,728.516,161.133,406.738
1573890733.996,101.562,-7.812,864.258,158.691,804.688
1573890734.000,3.418,-5.371,-643.066,-59.570,-339.844
1573890734.004,-22.461,-11.230,-1000.000,-98.633,-882.812
1573890734.008,70.801,-8.789,107.422,110.352,32.715
1573890734.011,112.793,5.859,-832.031,191.406,939.941
1573890734.015,27.344,2.930,-29.785,0.488,44.434
1573890734.019,-28.809,-0.977,-1000.000,-116.211,-818.848
1573890734.023,49.805,4.395,-192.383,54.199,-270.508
1573890734.027,119.141,7.324,-788.086,204.102,897.461
1573890734.031,55.664,9.766,264.648,65.430,412.598
1573890734.035,-23.438,7.812,-1000.000,-110.352,-721.191
1573890734.039,15.625,7.812,-453.613,-7.324,-543.945
1573890734.043,107.422,12.695,-909.180,187.988,658.203
1573890734.047,87.402,13.672,590.820,130.371,652.344
1573890734.050,-16.602,5.859,-945.312,-77.148,-479.980
1573890734.054,-14.648,0.977,-890.137,-56.152,-727.539
1573890734.058,84.961,-1.465,592.773,158.691,333.984
1573890734.062,94.727,0.488,-975.586,175.293,843.750
1573890734.066,-0.488,3.418,-383.789,-39.551,-211.426
1573890734.070,-24.414,-0.977,-1000.000,-94.727,-841.309
1573890734.074,59.570,1.953,-41.504,109.863,-42.480
1573890734.078,105.957,15.625,-801.270,203.125,954.590
1573890734.082,30.762,20.996,101.562,18.555,127.441
1573890734.086,-38.574,6.348,-1000.000,-118.652,-793.457
1573890734.090,30.273,0.488,-311.035,32.227,-351.562
1573890734.093,111.328,3.906,-823.730,192.871,825.195
1573890734.097,62.500,8.301,354.980,79.102,485.840
1573890734.101,-21.484,13.184,-1000.000,-104.492,-679.199
1573890734.105,0.977,9.277,-546.387,-35.156,-608.887
1573890734.109,91.797,12.695,-989.258,165.039,594.727
1573890734.113,83.984,22.461,701.660,128.906,699.707
1573890734.117,-13.184,21.484,-827.148,-86.914,-412.598
1573890734.121,-10.742,21.484,-977.539,-73.730,-736.328
1573890734.125,82.520,19.043,432.617,141.602,267.578
1573890734.129,100.586,15.137,-879.883,173.340,890.137
1573890734.133,0.488,11.230,-204.590,-33.691,-85.449
1573890734.136,-39.062,10.254,-1000.000,-111.328,-791.992
1573890734.140,49.805,10.254,-66.895,80.078,-95.215
1573890734.144,109.375,14.648,-777.344,202.148,955.566
1573890734.148,39.062,13.184,165.039,38.574,210.938
1573890734.152,-37.109,3.418,-1000.000,-111.816,-767.090
1573890734.156,21.484,5.859,-294.434,27.344,-416.504
1573890734.160,104.980,-0.488,-812.500,198.730,767.578
1573890734.164,62.500,3.418,388.184,96.680,566.895
1573890734.168,-30.762,11.230,-1000.000,-96.680,-549.316
1573890734.172,-6.348,12.695,-707.520,-25.391,-641.602
1573890734.175,91.309,12.207,868.164,189.453,491.699
1573890734.179,87.402,13.672,722.656,163.574,756.836
1573890734.183,-11.719,15.137,-813.477,-53.711,-357.910
1573890734.187,-25.879,12.695,-1000.000,-74.219,-790.039
1573890734.191,72.266,7.812,296.387,135.742,177.246
1573890734.195,107.910,0.488,-843.262,194.824,917.969
1573890734.199,12.695,10.742,-108.887,-8.789,-63.477
1573890734.203,-35.645,16.602,-1000.000,-103.027,-848.633
1573890734.207,42.969,16.602,-121.582,75.684,-184.570
1573890734.211,97.656,26.855,-779.785,192.383,921.387
1573890734.215,34.668,28.809,222.168,36.621,317.383
1573890734.218,-40.039,26.367,-1000.000,-124.023,-702.637
1573890734.222,14.648,29.297,-444.336,-3.418,-454.102
1573890734.226,107.422,28.809,-895.020,184.082,730.469
1573890734.230,71.289,27.344,479.004,105.469,597.656
1573890734.234,-26.855,21.484,-1000.000,-94.727,-518.066
1573890734.238,-12.695,17.578,-778.320,-46.387,-663.086
1573890734.242,79.590,25.879,750.977,167.480,437.012
1573890734.246,78.125,25.391,898.438,161.621,799.805
1573890734.250,-19.531,21.484,-591.309,-51.270,-313.477
1573890734.254,-33.691,23.926,-1000.000,-85.449,-822.754
1573890734.258,60.547,21.973,137.207,120.605,97.656
1573890734.261,99.609,20.996,-823.242,197.754,948.730
1573890734.265,21.484,27.344,-41.992,9.766,5.859
1573890734.269,-33.691,25.391,-1000.000,-110.840,-828.125
1573890734.273,36.133,15.625,-173.340,52.734,-246.094
1573890734.277,104.980,17.090,-786.133,204.102,903.320
1573890734.281,52.734,22.461,253.906,68.359,410.156
1573890734.285,-22.461,18.066,-1000.000,-104.492,-672.852
1573890734.289,29.297,19.531,-448.242,1.465,-536.133
1573890734.293,122.070,28.320,-892.578,194.336,659.180
1573890734.297,89.355,27.344,494.629,125.488,626.465
1573890734.300,-7.324,19.043,-1000.000,-82.031,-557.129
1573890734.304,-3.906,18.066,-897.461,-56.152,-752.930
1573890734.308,94.238,16.602,604.492,159.668,347.656
1573890734.312,111.816,13.184,891.113,176.758,830.078
1573890734.316,15.625,8.789,-605.957,-41.016,-237.305
1573890734.320,-20.020,11.230,-1000.000,-97.168,-781.250
1573890734.324,68.359,10.742,26.855,105.957,43.457
1573890734.328,114.746,9.277,-797.363,196.777,955.078
1573890734.332,28.809,9.766,95.215,17.090,92.285
1573890734.336,-35.645,4.883,-1000.000,-109.375,-819.336
1573890734.340,36.133,7.812,-250.977,48.340,-335.938
1573890734.343,112.305,13.184,-797.852,207.031,845.703
1573890734.347,61.523,11.230,334.961,83.984,517.578
1573890734.351,-26.367,-3.906,-1000.000,-104.004,-613.770
1573890734.355,6.348,-8.301,-545.898,-17.578,-575.684
1573890734.359,104.004,-4.395,-979.492,185.059,590.332
1573890734.363,86.426,-4.883,634.766,140.625,708.496
1573890734.367,-9.766,-4.883,-862.793,-72.754,-399.902
1573890734.371,-5.371,-3.906,-1000.000,-66.406,-764.648
1573890734.375,92.285,0.977,326.172,148.926,241.699
1573890734.379,109.375,3.906,-906.738,188.477,880.859
1573890734.383,19.531,3.418,-259.766,-18.555,-139.648
1573890734.386,-13.672,-0.488,-1000.000,-99.121,-854.492
1573890734.390,69.824,0.488,-54.199,91.797,-111.816
1573890734.394,119.629,5.371,-780.762,204.102,937.988
1573890734.398,46.875,2.930,175.293,32.715,176.270
1573890734.402,-12.695,0.000,-1000.000,-110.352,-784.668
1573890734.406,48.340,-2.441,-321.289,40.527,-373.535
1573890734.410,119.141,-16.602,-821.777,212.891,788.574
1573890734.414,64.941,-20.996,410.156,93.750,527.832
1573890734.418,-30.273,-11.719,-1000.000,-110.352,-603.516
1573890734.422,0.000,-7.324,-614.746,-33.203,-653.320
1573890734.425,88.379,-12.207,938.965,170.410,512.695
1573890734.429,76.660,-19.531,807.617,135.254,724.121
1573890734.433,-17.090,-17.090,-713.379,-78.125,-418.457
1573890734.437,-29.785,-15.137,-1000.000,-93.262,-827.148
1573890734.441,67.871,-13.184,358.398,125.000,154.785
1573890734.445,95.215,-11.230,-840.820,178.711,916.992
1573890734.449,0.000,-10.254,-124.512,-24.414,-20.508
1573890734.453,-45.898,-14.648,-1000.000,-120.117,-814.453
1573890734.457,38.086,-23.926,-118.164,61.523,-192.383
1573890734.461,102.539,-14.160,-779.785,199.707,926.758
1573890734.465,30.762,-9.766,199.707,36.133,316.406
1573890734.468,-49.805,-20.020,-1000.000,-130.859,-713.867
1573890734.472,6.348,-19.531,-323.242,-1.465,-453.125
1573890734.476,90.820,-14.160,-827.637,186.035,748.047
1573890734.480,57.129,-3.418,485.840,104.492,553.223
1573890734.484,-39.062,-4.883,-1000.000,-103.516,-586.426
1573890734.488,-27.832,-12.207,-720.703,-61.523,-682.129
1573890734.492,70.801,-8.301,816.895,149.902,429.199
1573890734.496,74.219,-7.812,923.340,137.695,791.992
1573890734.500,-18.066,-11.230,-549.805,-77.148,-341.309
1573890734.504,-37.109,-17.578,-1000.000,-109.375,-866.211
1573890734.508,49.805,-18.555,167.480,94.727,86.914
1573890734.511,82.031,-10.254,-807.129,164.551,924.316
1573890734.515,-2.930,-11.719,4.883,-21.973,-15.137
1573890734.519,-47.363,-9.277,-1000.000,-121.582,-807.617
1573890734.523,36.621,3.906,-195.801,47.852,-259.766
1573890734.527,101.562,5.371,-788.574,186.035,887.695
1573890734.531,33.203,-0.488,277.344,49.316,351.562
1573890734.535,-47.363,-5.859,-1000.000,-122.070,-725.586
1573890734.539,0.000,-6.836,-483.887,-17.090,-461.426
1573890734.543,99.609,-2.930,-914.062,178.711,694.336
1573890734.547,71.289,-6.836,520.508,110.352,632.812
1573890734.550,-27.832,-8.301,-989.746,-96.191,-532.227
1573890734.554,-18.066,-2.441,-928.711,-67.383,-736.816
1573890734.558,77.148,3.906,530.273,146.973,357.422
1573890734.562,86.914,8.789,-981.934,161.133,831.055
1573890734.566,-13.672,6.836,-437.988,-49.805,-191.895
1573890734.570,-32.715,1.465,-1000.000,-100.586,-802.246
1573890734.574,57.617,5.859,53.223,97.168,-15.625
1573890734.578,93.262,3.906,-791.016,189.941,946.289
1573890734.582,17.090,-10.254,82.520,10.254,106.934
1573890734.586,-45.898,-24.902,-1000.000,-124.023,-834.961
1573890734.590,22.949,-17.090,-235.840,33.203,-383.789
1573890734.593,107.910,-3.418,-793.457,201.660,843.750
1573890734.597,60.059,-3.906,291.992,82.031,449.219
1573890734.601,-31.250,-2.930,-1000.000,-104.004,-667.480
1573890734.605,6.836,-7.812,-508.301,-15.137,-559.570
1573890734.609,108.398,-14.160,-949.707,192.871,615.723
1573890734.613,91.309,-15.625,598.633,139.648,689.941
1573890734.617,-11.230,-17.578,-923.340,-80.078,-438.477
1573890734.621,-14.648,-16.602,-945.801,-66.406,-750.000
1573890734.625,82.031,-12.695,480.957,150.879,281.738
1573890734.629,102.539,-12.695,-924.316,177.246,877.441
1573890734.633,9.766,-16.602,-293.945,-35.156,-161.621
1573890734.636,-31.738,-8.789,-1000.000,-101.074,-877.930
1573890734.640,46.875,-12.207,-79.590,90.820,-109.863
1573890734.644,101.074,-22.461,-784.668,197.754,955.566
1573890734.648,29.785,-13.672,168.945,26.855,181.641
1573890734.652,-41.504,-9.766,-1000.000,-123.047,-817.871
1573890734.656,21.973,-2.441,-290.527,22.949,-399.902
1573890734.660,104.492,0.488,-808.594,200.684,818.359
1573890734.664,58.594,-2.930,370.117,94.238,533.691
1573890734.668,-28.809,-0.488,-1000.000,-93.750,-612.793
1573890734.672,3.418,8.301,-666.504,-21.484,-626.465
1573890734.675,99.609,13.184,881.836,185.059,553.711
1573890734.679,83.008,4.883,781.738,148.926,741.211
1573890734.683,-20.996,-1.953,-719.238,-71.289,-418.945
1573890734.687,-23.438,-0.488,-1000.000,-77.148,-814.941
1573890734.691,67.871,-2.441,169.922,125.000,182.129
1573890734.695,88.379,-8.301,-843.262,171.875,930.176
1573890734.699,5.371,-11.230,-94.727,-22.461,-49.316
1573890734.703,-36.133,-4.883,-1000.000,-111.816,-875.977
1573890734.707,45.410,0.488,-108.398,70.801,-186.035
1573890734.711,110.840,-0.977,-773.926,197.754,959.473
1573890734.715,36.133,-0.977,215.332,43.457,316.406
1573890734.718,-46.875,-2.930,-1000.000,-119.141,-729.980
1573890734.722,9.766,0.000,-324.707,5.371,-447.754
1573890734.726,99.609,4.395,-821.289,197.266,763.672
1573890734.730,64.453,4.883,443.359,105.957,586.914
1573890734.734,-26.367,5.371,-1000.000,-99.609,-541.992
1573890734.738,-1.465,10.254,-775.391,-38.574,-681.152
1573890734.742,92.773,9.277,765.137,171.875,422.363
1573890734.746,85.938,7.324,856.445,154.785,797.363
1573890734.750,-4.883,9.766,-661.133,-57.129,-298.828
1573890734.754,-20.508,9.766,-1000.000,-87.891,-813.477
1573890734.758,68.359,5.371,205.566,123.047,131.836
1573890734.761,101.562,3.418,-835.938,197.266,935.547
1573890734.765,9.277,5.859,-63.965,-6.348,25.391
1573890734.769,-41.504,1.953,-1000.000,-115.723,-776.367
1573890734.773,36.133,0.488,-159.668,64.453,-209.961
1573890734.777,99.609,-3.418,-781.738,201.172,924.805
1573890734.781,35.156,-8.301,250.000,56.152,372.070
1573890734.785,-43.457,-9.277,-1000.000,-109.863,-703.613
1573890734.789,11.719,-11.719,-443.848,2.930,-501.465
1573890734.793,95.215,-18.066,-894.531,190.918,687.988
1573890734.797,60.547,-16.602,533.691,114.746,635.254
1573890734.800,-29.297,-13.672,-998.047,-94.238,-458.984
1573890734.804,-14.160,-15.625,-842.285,-58.594,-670.410
1573890734.808,75.195,-15.137,651.367,148.926,364.258
1573890734.812,75.684,-13.672,985.352,149.902,829.590
1573890734.816,-18.066,-12.695,-443.848,-59.570,-224.609
1573890734.820,-43.945,-18.555,-1000.000,-104.980,-806.152
1573890734.824,52.734,-23.438,-10.742,99.121,14.160
1573890734.828,96.680,-13.184,-811.035,188.965,944.824
1573890734.832,7.324,-11.719,60.059,2.441,81.543
1573890734.836,-52.246,-13.672,-1000.000,-125.488,-867.188
1573890734.840,20.508,-7.812,-293.457,31.250,-393.066
1573890734.843,95.703,-9.277,-819.824,190.430,845.215
1573890734.847,40.527,-18.066,312.988,69.824,439.941
1573890734.851,-35.645,-22.461,-1000.000,-103.516,-695.312
1573890734.855,8.789,-18.066,-508.301,-5.371,-571.777
1573890734.859,91.309,-10.742,-952.148,192.383,618.164
1573890734.863,70.312,-4.883,628.418,137.207,684.082
1573890734.867,-29.785,-9.766,-898.926,-77.148,-490.723
1573890734.871,-33.203,-14.648,-958.496,-66.406,-791.992
1573890734.875,72.754,-5.371,466.309,152.344,275.879
1573890734.879,91.797,-2.930,-926.758,179.688,866.211
1573890734.883,-14.648,-6.836,-308.594,-46.875,-182.617
1573890734.886,-53.711,-1.953,-1000.000,-124.023,-825.195
1573890734.890,35.645,0.000,-30.273,70.312,-38.574
1573890734.894,90.820,-0.977,-783.203,182.129,960.449
1573890734.898,18.555,3.906,141.602,13.184,204.590
1573890734.902,-49.805,3.418,-1000.000,-126.953,-796.875
1573890734.906,11.719,4.395,-283.691,17.578,-415.527
1573890734.910,95.703,4.395,-809.082,187.988,812.500
1573890734.914,53.711,0.977,347.168,75.684,513.184
1573890734.918,-29.785,-0.488,-1000.000,-118.652,-629.395
1573890734.922,0.488,0.977,-672.852,-43.945,-610.352
1573890734.925,84.961,-5.371,907.227,163.086,543.945
1573890734.929,74.219,-10.742,653.809,130.859,731.445
1573890734.933,-22.949,-8.301,-880.859,-89.844,-411.133
1573890734.937,-25.391,-5.859,-1000.000,-87.891,-810.059
1573890734.941,80.566,-7.812,326.660,135.254,196.289
1573890734.945,101.074,-11.719,-869.629,181.641,902.832
1573890734.949,7.812,-6.348,-186.035,-24.414,-122.070
1573890734.953,-30.762,-6.348,-1000.000,-111.816,-832.520
1573890734.957,50.293,-5.371,-109.863,79.590,-132.324
1573890734.961,109.375,-4.395,-783.203,207.520,950.195
1573890734.965,40.527,-15.625,210.938,44.922,245.605
1573890734.968,-31.738,-19.043,-1000.000,-112.305,-780.762
1573890734.972,24.902,-10.742,-407.227,16.113,-419.434
1573890734.976,105.469,-15.137,-869.629,190.918,740.723
1573890734.980,63.477,-11.230,423.828,100.586,583.984
1573890734.984,-33.203,-9.277,-1000.000,-100.098,-537.598
1573890734.988,-8.301,-10.742,-857.422,-41.992,-684.570
1573890734.992,96.680,-0.977,642.578,174.316,448.242
1573890734.996,94.727,-1.465,881.348,160.645,773.438
1573890735.000,-13.672,-13.672,-652.832,-58.594,-335.938
1573890735.004,-32.715,-16.602,-1000.000,-89.844,-807.617
1573890735.008,62.988,-9.766,224.121,119.141,128.906
1573890735.011,98.145,-0.488,-819.336,187.988,944.824
1573890735.015,13.672,1.465,-51.270,-9.277,4.395
1573890735.019,-38.086,0.977,-1000.000,-118.164,-817.383
1573890735.023,34.668,3.906,-150.879,54.688,-227.051
1573890735.027,95.703,3.906,-778.320,191.895,923.340
1573890735.031,37.109,1.953,250.488,50.781,334.961
1573890735.035,-37.109,-1.465,-1000.000,-110.352,-771.484
1573890735.039,15.137,0.488,-373.535,6.836,-496.582
1573890735.043,104.004,-0.488,-844.727,190.430,707.031
1573890735.047,74.219,-5.859,492.676,112.305,641.113
1573890735.050,-31.738,-8.301,-1000.000,-94.238,-473.145
1573890735.054,-26.855,-9.766,-834.473,-63.477,-694.336
1573890735.058,82.031,-8.301,700.684,151.855,391.602
1573890735.062,86.914,-9.766,876.465,156.250,821.289
1573890735.066,-12.695,-11.230,-617.676,-64.941,-254.395
1573890735.070,-31.738,-9.277,-1000.000,-111.328,-801.758
1573890735.074,62.012,-13.184,53.223,100.098,44.922
1573890735.078,97.168,-7.812,-791.016,186.035,952.148
1573890735.082,15.137,0.977,95.703,4.395,79.590
1573890735.086,-37.598,2.930,-1000.000,-116.211,-859.863
1573890735.090,25.391,1.953,-205.566,48.340,-346.191
1573890735.093,95.703,-5.371,-781.738,202.148,882.812
1573890735.097,39.062,-7.812,308.594,67.871,440.918
1573890735.101,-47.363,-10.254,-1000.000,-114.746,-736.328
1573890735.105,1.953,-9.766,-490.723,-16.113,-591.309
1573890735.109,98.145,-11.230,-930.664,190.430,640.625
1573890735.113,77.148,-9.766,571.289,130.371,640.625
1573890735.117,-23.926,-0.488,-924.316,-90.820,-496.094
1573890735.121,-22.461,-4.883,-973.145,-73.242,-742.188
1573890735.125,87.891,-6.348,414.551,147.461,296.387
1573890735.129,106.445,-2.441,-935.059,175.293,863.281
1573890735.133,8.301,-4.883,-316.406,-26.367,-141.602
1573890735.136,-19.531,-3.906,-1000.000,-85.938,-752.441
1573890735.140,77.148,3.906,-27.344,116.211,-10.254
1573890735.144,133.789,10.254,-786.133,229.492,973.145
1573890735.148,60.059,13.672,135.742,54.199,186.523
1573890735.152,-4.883,8.301,-1000.000,-83.008,-815.918
1573890735.156,62.988,8.789,-312.012,71.777,-412.598
1573890735.160,149.902,14.648,-820.312,242.188,817.871
1573890735.164,104.004,9.766,327.637,132.812,498.047
1573890735.168,7.812,4.883,-1000.000,-59.082,-664.551
1573890735.172,35.156,3.418,-665.527,16.113,-636.230
1573890735.175,136.719,4.395,891.113,227.051,548.828
1573890735.179,123.047,11.230,701.660,193.848,739.746
1573890735.183,16.113,8.789,-818.359,-26.367,-373.047
1573890735.187,9.277,-0.488,-1000.000,-36.621,-768.555
1573890735.191,103.516,0.488,279.297,172.852,216.797
1573890735.195,124.512,5.371,-926.270,213.867,895.508
1573890735.199,31.738,4.395,-293.945,2.441,-90.332
1573890735.203,-18.555,3.418,-1000.000,-85.449,-840.820
1573890735.207,64.941,14.648,-143.066,105.469,-163.574
1573890735.211,130.859,18.066,-814.453,226.074,929.688
1573890735.215,59.570,8.789,124.512,62.988,263.184
1573890735.218,-21.484,10.742,-1000.000,-94.238,-741.699
1573890735.222,32.715,12.695,-381.348,28.320,-452.148
1573890735.226,116.699,12.695,-862.793,202.637,763.672
1573890735.230,67.871,12.207,371.094,106.445,543.945
1573890735.234,-33.203,10.254,-1000.000,-95.215,-595.703
1573890735.238,-6.836,8.789,-792.969,-41.992,-643.066
1573890735.242,94.238,7.324,739.258,171.875,485.352
1573890735.246,95.215,9.277,750.000,158.203,778.809
1573890735.250,1.465,7.324,-770.508,-62.500,-336.914
1573890735.254,-16.602,0.488,-1000.000,-89.355,-788.574
1573890735.258,78.613,4.883,139.648,119.629,161.133
1573890735.261,112.305,17.578,-857.422,183.105,937.988
1573890735.265,18.066,19.531,-107.422,-14.648,10.254
1573890735.269,-35.645,15.625,-1000.000,-117.676,-834.961
1573890735.273,48.340,16.602,-208.984,61.523,-268.555
1573890735.277,116.699,23.926,-805.664,201.660,906.250
1573890735.281,51.270,20.020,237.305,57.617,336.914
1573890735.285,-26.367,14.648,-1000.000,-99.121,-737.793
1573890735.289,19.531,23.438,-458.008,21.484,-523.438
1573890735.293,106.934,27.832,-901.367,208.984,686.523
1573890735.297,74.219,27.344,448.242,129.883,622.070
1573890735.300,-21.484,30.762,-1000.000,-77.148,-529.785
1573890735.304,-6.348,28.320,-934.082,-42.480,-755.371
1573890735.308,86.914,22.461,515.625,170.410,358.887
1573890735.312,88.379,16.113,964.844,169.434,821.777
1573890735.316,-7.812,15.625,-524.902,-51.270,-257.812
1573890735.320,-32.227,20.020,-1000.000,-96.191,-797.852
1573890735.324,60.059,15.625,87.891,107.910,63.477
1573890735.328,102.051,13.672,-807.129,186.035,938.965
1573890735.332,11.230,16.113,22.461,-10.742,25.391
1573890735.336,-45.898,15.625,-1000.000,-133.301,-863.281
1573890735.340,32.227,19.043,-213.867,32.227,-326.660
1573890735.343,102.539,18.066,-793.457,184.570,861.816
1573890735.347,42.969,15.137,269.531,51.758,419.922
1573890735.351,-37.598,16.113,-1000.000,-126.465,-656.250
1573890735.355,11.230,17.090,-515.625,-28.809,-550.293
1573890735.359,108.398,15.137,-938.965,173.828,634.277
1573890735.363,75.195,4.395,485.840,108.887,671.875
1573890735.367,-36.621,-0.977,-1000.000,-116.699,-483.887
1573890735.371,-19.043,-2.930,-927.246,-85.449,-764.160
1573890735.375,91.797,-3.418,490.723,148.926,312.500
1573890735.379,93.262,2.441,-963.379,170.410,844.727
1573890735.383,-11.719,-1.465,-370.117,-46.875,-216.309
1573890735.386,-41.992,-5.859,-1000.000,-108.887,-826.660
1573890735.390,46.387,2.441,-64.453,92.285,-51.758
1573890735.394,99.121,6.836,-800.781,196.289,949.707
1573890735.398,22.461,2.441,105.469,16.113,127.930
1573890735.402,-52.246,-1.953,-1000.000,-117.188,-838.867
1573890735.406,15.625,0.977,-259.766,44.922,-351.074
1573890735.410,92.285,1.465,-802.734,206.543,844.727
1573890735.414,33.691,1.465,338.379,83.984,497.559
1573890735.418,-46.875,2.930,-1000.000,-103.516,-637.695
1573890735.422,-8.301,4.395,-649.414,-19.531,-602.051
1573890735.425,83.496,9.766,904.297,188.477,563.477
1573890735.429,63.965,11.230,722.168,138.672,737.793
1573890735.433,-31.738,7.324,-783.691,-82.031,-382.812
1573890735.437,-30.762,4.883,-1000.000,-79.102,-800.781
1573890735.441,78.613,11.230,213.867,145.020,198.242
1573890735.445,106.445,14.648,-874.023,187.500,920.898
1573890735.449,11.719,5.371,-183.594,-27.832,-119.141
1573890735.453,-28.320,8.301,-1000.000,-114.746,-911.133
1573890735.457,58.105,18.066,-98.633,77.148,-141.113
1573890735.461,120.117,13.672,-778.809,194.824,961.426
1573890735.465,45.410,11.719,207.520,24.902,274.414
1573890735.468,-24.902,12.207,-1000.000,-124.512,-720.215
1573890735.472,35.156,8.789,-320.312,13.184,-397.461
1573890735.476,114.258,9.766,-818.359,187.012,794.434
1573890735.480,70.801,16.602,404.785,86.426,559.570
1573890735.484,-20.508,20.508,-1000.000,-115.723,-579.590
1573890735.488,6.348,19.531,-709.961,-51.270,-627.930
1573890735.492,100.098,18.555,849.121,164.551,508.789
1573890735.496,83.496,15.137,804.688,145.508,770.508
1573890735.500,-21.973,9.766,-718.262,-75.195,-335.449
1573890735.504,-39.062,2.930,-1000.000,-98.633,-783.203
1573890735.508,55.664,-3.418,228.027,124.512,162.598
1573890735.511,84.473,0.488,-871.582,188.477,934.570
1573890735.515,-5.371,-0.488,-154.785,-20.020,-30.273
1573890735.519,-53.711,-0.977,-1000.000,-120.117,-825.195
1573890735.523,31.738,6.836,-154.297,70.312,-216.309
1573890735.527,101.074,8.789,-788.574,204.590,908.691
1573890735.531,29.785,-2.441,229.004,47.363,330.078
1573890735.535,-50.293,-10.742,-1000.000,-118.652,-738.770
1573890735.539,2.930,-4.883,-408.691,-0.977,-476.562
1573890735.543,90.820,1.953,-869.629,186.523,725.586
1573890735.547,59.082,2.441,455.078,100.586,575.684
1573890735.550,-39.062,-0.488,-1000.000,-108.398,-573.242
1573890735.554,-18.066,3.418,-813.965,-52.734,-694.824
1573890735.558,85.938,1.953,682.617,162.598,411.133
1573890735.562,90.332,-2.441,929.688,154.297,822.754
1573890735.566,-2.441,3.906,-534.668,-57.129,-268.555
1573890735.570,-28.320,3.906,-1000.000,-99.609,-848.633
1573890735.574,66.406,6.348,54.688,108.887,51.758
1573890735.578,110.352,9.766,-822.754,191.406,973.145
1573890735.582,22.461,1.465,7.812,-0.977,46.387
1573890735.586,-35.156,-3.906,-1000.000,-123.047,-839.844
1573890735.590,41.504,2.441,-274.414,41.992,-297.363
1573890735.593,105.957,6.348,-816.406,189.453,873.047
1573890735.597,40.527,2.441,298.828,52.734,414.062
1573890735.601,-40.527,-5.371,-1000.000,-117.676,-720.703
1573890735.605,2.441,-0.977,-492.188,-18.066,-592.285
1573890735.609,84.961,4.395,-936.523,167.480,636.719
1573890735.613,65.918,-2.441,585.449,110.840,670.410
1573890735.617,-25.879,-7.812,-937.988,-84.961,-461.426
1573890735.621,-37.598,-7.812,-926.270,-72.266,-688.477
1573890735.625,55.176,-12.207,522.461,144.043,362.305
1573890735.629,66.895,-14.160,-968.262,169.922,852.051
1573890735.633,-35.156,-13.184,-380.859,-48.340,-192.871
1573890735.636,-72.266,-17.578,-1000.000,-107.422,-818.848
1573890735.640,26.855,-15.625,-41.504,99.609,-47.852
1573890735.644,80.078,-10.254,-792.480,197.266,947.266
1573890735.648,-6.836,-9.766,116.699,8.301,144.531
1573890735.652,-76.172,-14.648,-1000.000,-131.348,-791.016
1573890735.656,0.488,-10.742,-248.535,30.273,-340.332
1573890735.660,90.332,-4.883,-797.363,202.637,837.402
1573890735.664,41.504,-6.836,324.707,77.637,458.496
1573890735.668,-38.086,-6.348,-1000.000,-112.793,-665.527
1573890735.672,0.977,-4.883,-597.656,-25.391,-596.680
1573890735.675,94.727,-2.441,972.656,181.152,565.430
1573890735.679,76.172,-4.395,659.668,131.836,723.145
1573890735.683,-30.762,-5.859,-894.531,-94.238,-441.406
1573890735.687,-32.715,-5.371,-941.406,-92.773,-799.805
1573890735.691,69.824,-4.883,466.309,127.930,257.812
1573890735.695,92.285,0.977,-844.727,169.922,911.621
1573890735.699,-2.930,-7.812,-131.348,-41.016,-102.539
1573890735.703,-42.969,-20.020,-1000.000,-125.488,-829.102
1573890735.707,46.875,-7.812,-41.992,67.383,-83.008
1573890735.711,102.051,-1.465,-767.090,186.523,949.219
1573890735.715,28.320,-7.812,208.984,21.484,278.809
1573890735.718,-42.480,-9.277,-1000.000,-132.324,-701.172
1573890735.722,9.766,-9.277,-345.215,3.906,-455.078
1573890735.726,89.355,-8.789,-830.566,184.082,754.883
1573890735.730,47.363,-8.789,433.105,81.055,576.660
1573890735.734,-47.852,-9.277,-1000.000,-117.676,-584.961
1573890735.738,-19.531,-7.812,-764.160,-48.828,-629.883
1573890735.742,77.148,-13.672,751.953,160.156,504.883
1573890735.746,64.941,-18.066,906.250,136.230,779.785
1573890735.750,-33.691,-12.207,-622.070,-75.684,-331.055
1573890735.754,-45.898,-2.930,-1000.000,-91.797,-776.367
1573890735.758,50.293,2.930,329.590,123.535,195.801
1573890735.761,83.008,3.906,-824.707,189.453,918.945
1573890735.765,-5.371,-1.465,-83.496,-8.789,0.977
1573890735.769,-51.270,-6.836,-1000.000,-114.258,-796.387
1573890735.773,32.715,-1.465,-130.371,70.312,-226.562
1573890735.777,92.773,0.000,-775.879,203.613,925.781
1573890735.781,24.414,-4.883,249.512,41.992,317.871
1573890735.785,-46.387,-3.418,-1000.000,-121.094,-716.309
1573890735.789,6.348,-3.418,-377.441,-0.488,-481.445
1573890735.793,97.168,-7.812,-843.262,182.129,687.988
1573890735.797,69.336,-5.371,462.402,100.098,616.699
1573890735.800,-18.555,-3.418,-1000.000,-95.215,-546.875
1573890735.804,2.930,2.930,-809.082,-44.434,-725.586
1573890735.808,91.797,14.648,729.004,157.715,420.898
1573890735.812,87.891,4.395,839.355,144.043,798.828
1573890735.816,-5.371,-3.418,-669.922,-69.824,-325.195
1573890735.820,-27.832,1.465,-1000.000,-102.539,-804.199
1573890735.824,65.918,0.977,151.367,111.328,108.398
1573890735.828,103.516,1.953,-836.914,182.129,931.641
1573890735.832,8.301,0.488,-67.383,-17.090,60.059
1573890735.836,-44.434,-3.906,-1000.000,-128.906,-804.199
1573890735.840,41.992,-1.953,-185.547,49.316,-300.781
1573890735.843,112.793,5.371,-788.574,201.660,897.461
1573890735.847,47.363,8.301,290.527,59.082,424.316
1573890735.851,-35.156,-1.465,-1000.000,-115.234,-713.379
1573890735.855,6.836,-2.930,-464.355,-9.277,-542.969
1573890735.859,97.168,8.301,-906.738,184.082,658.691
1573890735.863,69.336,8.301,538.086,110.840,653.320
1573890735.867,-28.809,-3.418,-969.727,-101.074,-498.535
1573890735.871,-18.066,-3.418,-904.785,-64.941,-746.094
1573890735.875,81.055,6.348,533.691,156.250,348.633
1573890735.879,91.309,5.371,-974.609,172.852,847.656
1573890735.883,-0.977,-11.230,-390.625,-38.574,-207.031
1573890735.886,-29.297,-6.836,-1000.000,-97.168,-824.219
1573890735.890,64.941,9.766,-5.371,109.863,-21.484
1573890735.894,119.629,8.301,-786.621,212.891,937.012
1573890735.898,38.086,3.418,125.488,30.273,156.738
1573890735.902,-24.902,-0.977,-1000.000,-104.004,-744.629
1573890735.906,44.922,-2.930,-270.508,51.758,-354.492
1573890735.910,121.094,-2.930,-803.223,210.449,843.262
1573890735.914,68.848,-2.930,339.355,81.543,476.562
1573890735.918,-19.531,-12.207,-1000.000,-111.328,-687.500
1573890735.922,13.672,-18.555,-548.828,-28.809,-600.098
1573890735.925,104.980,-6.348,-991.211,177.246,596.680
1573890735.929,83.496,1.953,702.637,128.906,701.172
1573890735.933,-11.719,11.719,-825.195,-82.031,-423.340
1573890735.937,-8.301,7.812,-989.746,-70.312,-741.699
1573890735.941,89.844,-1.465,427.734,141.602,259.277
1573890735.945,113.770,5.859,-893.555,176.270,880.371
1573890735.949,20.020,9.277,-243.164,-33.691,-125.000
1573890735.953,-27.344,15.625,-1000.000,-119.629,-855.957
1573890735.957,66.406,16.113,-93.750,86.426,-145.508
1573890735.961,146.973,17.090,-789.062,231.934,935.547
1573890735.965,47.852,19.531,146.973,42.480,221.191
1573890735.968,-65.430,7.324,-1000.000,-143.555,-781.250
1573890735.972,-3.906,7.324,-285.156,1.465,-415.527
1573890735.976,64.941,8.301,-811.035,167.480,783.691
1573890735.980,0.977,-1.465,409.668,42.969,518.066
1573890735.984,-89.844,-1.465,-1000.000,-162.109,-611.816
1573890735.988,-71.289,11.719,-649.414,-91.797,-672.852
1573890735.992,18.555,25.391,907.227,116.699,491.211
1573890735.996,8.789,29.297,810.547,74.707,741.699
1573890736.000,-88.379,36.621,-709.961,-146.973,-364.258
1573890736.004,-89.355,39.551,-1000.000,-158.203,-765.625
1573890736.008,12.695,39.062,305.664,56.152,151.367
1573890736.011,38.086,32.227,-828.613,108.887,919.434
1573890736.015,-55.176,33.203,-68.848,-101.562,-41.992
1573890736.019,-95.703,22.949,-1000.000,-196.289,-849.609
1573890736.023,-14.160,18.555,-142.090,-9.766,-208.496
1573890736.027,56.641,36.133,-777.344,129.395,922.363
1573890736.031,2.441,43.457,244.141,-14.648,312.012
1573890736.035,-64.941,41.504,-1000.000,-169.922,-766.113
1573890736.039,-7.324,31.250,-348.633,-41.992,-477.051
1573890736.043,82.031,28.320,-828.125,146.484,748.047
1573890736.047,47.852,29.297,426.270,64.453,573.730
1573890736.050,-47.363,24.414,-1000.000,-142.090,-594.238
1573890736.054,-19.043,25.879,-862.793,-87.402,-723.633
1573890736.058,83.496,34.180,618.164,134.277,395.996
1573890736.062,83.496,37.109,968.262,130.371,812.988
1573890736.066,-11.719,28.809,-527.832,-83.496,-283.691
1573890736.070,-36.621,19.043,-1000.000,-118.164,-834.961
1573890736.074,53.223,24.414,170.410,92.285,66.406
1573890736.078,97.656,35.156,-795.898,177.246,950.195
1573890736.082,10.254,30.273,38.574,-12.207,33.203
1573890736.086,-44.434,23.926,-1000.000,-123.047,-815.918
1573890736.090,30.273,25.879,-207.520,53.711,-250.977
1573890736.093,102.051,27.344,-787.598,213.379,875.000
1573890736.097,49.316,17.578,263.184,79.102,373.047
1573890736.101,-39.551,13.672,-1000.000,-109.863,-654.297
1573890736.105,0.977,19.531,-421.875,8.301,-488.770
1573890736.109,98.633,16.113,-883.301,218.262,655.273
1573890736.113,77.148,2.930,534.668,145.508,656.738
1573890736.117,-21.484,-1.465,-987.793,-66.406,-448.242
1573890736.121,-15.625,11.719,-843.262,-40.527,-704.590
1573890736.125,87.402,21.973,631.836,171.875,333.008
1573890736.129,103.516,16.113,-960.938,185.059,850.098
1573890736.133,6.348,22.461,-358.887,-34.180,-219.727
1573890736.136,-25.879,31.250,-1000.000,-92.285,-885.742
1573890736.140,72.266,30.273,2.930,110.840,-40.039
1573890736.144,124.512,32.715,-796.875,204.590,929.688
1573890736.148,26.855,30.762,72.754,9.277,102.051
1573890736.152,-44.434,24.902,-1000.000,-133.789,-743.652
1573890736.156,25.391,23.438,-229.980,19.043,-321.289
1573890736.160,104.492,21.484,-792.969,179.199,844.238
1573890736.164,54.688,24.902,331.543,52.246,441.406
1573890736.168,-24.414,28.320,-1000.000,-130.859,-704.590
1573890736.172,22.461,40.527,-575.684,-33.203,-595.703
1573890736.175,119.141,47.852,978.516,169.922,582.031
1573890736.179,95.703,31.250,681.152,110.840,702.637
1573890736.183,-0.977,19.531,-833.496,-104.980,-429.199
1573890736.187,0.000,22.949,-1000.000,-100.586,-768.555
1573890736.191,91.309,29.785,359.863,107.910,266.113
1573890736.195,114.258,27.344,-899.414,148.438,881.348
1573890736.199,28.320,19.531,-243.164,-53.223,-135.742
1573890736.203,-14.160,22.949,-1000.000,-127.441,-812.500
1573890736.207,62.500,28.320,-124.512,67.871,-102.539
1573890736.211,114.258,29.297,-788.574,188.965,940.430
1573890736.215,34.668,25.879,187.012,18.066,220.703
1573890736.218,-46.875,18.555,-1000.000,-133.301,-759.277
1573890736.222,7.812,12.207,-299.316,13.184,-377.441
1573890736.226,97.168,13.672,-812.500,197.754,794.434
1573890736.230,51.270,10.254,379.395,91.309,518.066
1573890736.234,-44.922,6.836,-1000.000,-113.281,-616.699
1573890736.238,-15.625,20.508,-684.082,-45.410,-641.113
1573890736.242,77.637,19.531,887.207,168.457,516.602
1573890736.246,63.965,10.742,752.930,140.625,741.699
1573890736.250,-32.227,7.812,-786.133,-80.566,-372.559
1573890736.254,-44.434,7.324,-1000.000,-93.262,-820.801
1573890736.258,49.316,10.742,324.219,123.047,158.691
1573890736.261,80.078,12.695,-887.207,180.664,914.062
1573890736.265,-8.301,14.160,-223.633,-20.020,-94.238
1573890736.269,-48.340,9.277,-1000.000,-117.676,-833.984
1573890736.273,35.645,7.324,-112.305,67.383,-153.320
1573890736.277,93.262,6.836,-784.180,197.754,918.945
1573890736.281,26.367,5.371,208.008,40.527,297.363
1573890736.285,-45.898,6.348,-1000.000,-121.094,-721.680
1573890736.289,8.301,12.207,-357.910,3.418,-481.445
1573890736.293,96.680,22.461,-839.355,187.500,726.562
1573890736.297,60.547,17.090,442.871,96.191,576.660
1573890736.300,-34.180,17.578,-1000.000,-106.934,-541.016
1573890736.304,-9.277,25.879,-725.098,-50.293,-623.535
1573890736.308,95.703,27.832,803.711,163.086,458.496
1573890736.312,103.027,23.438,905.762,151.367,795.410
1573890736.316,11.230,20.020,-568.359,-58.105,-278.809
1573890736.320,-1.465,29.785,-1000.000,-83.008,-782.227
1573890736.324,88.379,21.484,146.973,129.883,103.516
1573890736.328,121.094,11.230,-821.289,198.242,917.969
1573890736.332,39.551,14.648,-20.996,2.441,15.137
1573890736.336,-8.789,20.996,-1000.000,-103.027,-799.316
1573890736.340,78.125,25.391,-220.215,74.707,-260.742
1573890736.343,153.320,32.227,-795.410,224.609,884.766
1573890736.347,83.984,28.809,286.621,85.449,357.422
1573890736.351,1.953,18.066,-1000.000,-89.844,-717.773
1573890736.355,48.340,18.555,-390.625,20.020,-540.039
1573890736.359,133.301,23.438,-864.258,222.656,660.156
1573890736.363,97.168,14.648,570.801,140.625,621.094
1573890736.367,-10.254,7.812,-947.754,-83.496,-551.758
1573890736.371,-3.906,4.883,-877.441,-47.363,-737.305
1573890736.375,85.938,-7.324,597.168,167.969,347.656
1573890736.379,93.262,4.883,-952.637,181.152,822.266
1573890736.383,2.441,1.953,-368.652,-36.621,-263.672
1573890736.386,-26.367,-11.719,-1000.000,-101.562,-843.750
1573890736.390,58.594,0.977,77.148,99.121,4.883
1573890736.394,97.656,1.953,-770.020,191.895,940.918
1573890736.398,11.719,-9.766,125.000,0.000,106.934
1573890736.402,-50.781,-3.906,-1000.000,-130.859,-789.551
1573890736.406,16.602,-0.977,-198.730,24.902,-316.895
1573890736.410,99.121,-2.441,-777.344,185.059,855.469
1573890736.414,47.852,-5.371,335.449,61.035,425.293
1573890736.418,-52.734,-6.836,-1000.000,-132.812,-682.617
1573890736.422,-27.344,-9.277,-483.887,-50.781,-585.449
1573890736.425,63.965,-17.578,-923.340,148.926,587.891
1573890736.429,45.898,-18.066,646.973,95.703,699.707
1573890736.433,-59.570,-11.230,-906.738,-124.512,-416.504
1573890736.437,-51.758,-8.789,-875.977,-113.770,-706.543
1573890736.441,55.176,-4.395,574.707,106.445,295.898
1573890736.445,70.312,-2.441,-864.746,138.672,888.672
1573890736.449,-15.137,-4.395,-172.852,-66.895,-166.992
1573890736.453,-49.805,-8.789,-1000.000,-138.672,-888.184
1573890736.457,34.668,-5.371,-2.930,52.734,-80.078
1573890736.461,98.633,1.953,-764.648,165.039,942.871
1573890736.465,25.391,-0.977,184.082,-5.859,185.059
1573890736.468,-41.016,0.488,-1000.000,-145.508,-729.492
1573890736.472,26.367,4.883,-273.926,2.930,-333.984
1573890736.476,106.934,8.789,-801.270,170.898,809.082
1573890736.480,63.477,5.371,422.363,62.012,520.996
1573890736.484,-27.344,-1.953,-1000.000,-126.953,-582.031
1573890736.488,-4.395,-8.301,-613.281,-51.270,-580.078
1573890736.492,84.961,-8.301,942.383,156.250,544.922
1573890736.496,66.895,-9.277,829.102,121.094,730.469
1573890736.500,-36.133,-12.207,-687.012,-91.309,-387.207
1573890736.504,-44.922,-10.742,-1000.000,-103.027,-791.504
1573890736.508,61.035,-6.348,375.000,115.234,182.617
1573890736.511,93.262,-7.812,-847.168,180.176,897.949
1573890736.515,-6.348,-15.137,-138.184,-26.367,-79.102
1573890736.519,-55.664,-12.695,-1000.000,-127.930,-766.602
1573890736.523,27.832,-8.789,-104.004,62.988,-118.164
1573890736.527,85.938,-11.719,-773.926,193.359,934.082
1573890736.531,15.137,-10.254,230.957,28.320,301.270
1573890736.535,-50.293,-15.625,-1000.000,-125.977,-750.977
1573890736.539,6.348,-12.207,-333.496,4.395,-469.727
1573890736.543,85.938,-3.906,-821.777,184.082,753.418
1573890736.547,55.664,-2.930,439.453,96.191,579.590
1573890736.550,-32.715,0.977,-1000.000,-105.469,-550.293
1573890736.554,-11.230,4.883,-727.539,-56.641,-644.531
1573890736.558,85.938,-1.953,837.402,156.738,461.914
1573890736.562,79.102,-11.719,804.199,145.020,780.762
1573890736.566,-19.043,-8.789,-720.215,-78.125,-309.082
1573890736.570,-38.574,-3.418,-1000.000,-113.770,-772.949
1573890736.574,61.035,4.883,211.426,103.027,143.066
1573890736.578,107.910,11.719,-812.988,185.059,922.363
1573890736.582,24.414,6.348,-18.555,-14.648,-3.906
1573890736.586,-35.156,5.371,-1000.000,-135.254,-828.613
1573890736.590,43.945,9.766,-156.250,36.621,-262.207
1573890736.593,119.629,11.719,-776.855,182.617,903.320
1573890736.597,55.176,9.766,256.348,38.086,333.496
1573890736.601,-24.902,5.371,-1000.000,-134.277,-775.879
1573890736.605,20.996,2.441,-408.203,-16.113,-539.551
1573890736.609,101.562,1.465,-867.188,179.199,672.852
1573890736.613,70.801,-0.488,498.535,115.234,607.910
1573890736.617,-23.438,4.395,-1000.000,-90.820,-544.922
1573890736.621,-17.090,7.812,-849.121,-62.988,-767.090
1573890736.625,83.008,6.348,605.469,157.227,320.801
1573890736.629,94.238,6.836,-982.422,166.504,836.914
1573890736.633,-8.789,0.977,-396.484,-50.781,-204.102
1573890736.636,-40.039,-1.465,-1000.000,-99.121,-838.867
1573890736.640,52.734,7.324,17.090,107.422,4.883
1573890736.644,99.121,5.859,-785.156,195.801,964.355
1573890736.648,17.578,0.000,106.445,5.859,141.602
1573890736.652,-46.387,2.930,-1000.000,-122.070,-764.648
1573890736.656,24.414,8.301,-236.328,44.434,-329.102
1573890736.660,101.074,9.277,-792.480,205.078,857.422
1573890736.664,48.828,7.812,295.410,74.707,418.457
1573890736.668,-34.180,21.973,-1000.000,-105.469,-687.500
1573890736.672,-3.418,32.715,-519.043,-22.461,-562.500
1573890736.675,72.266,26.367,-960.938,159.180,612.305
1573890736.679,59.570,34.180,633.301,118.652,656.738
1573890736.683,-14.648,47.363,-898.926,-68.359,-503.418
1573890736.687,-38.086,32.715,-959.473,-70.801,-759.277
1573890736.691,29.785,16.602,482.910,113.281,281.250
1573890736.695,62.500,24.414,-932.129,147.949,881.348
1573890736.699,-35.645,23.926,-321.777,-63.477,-141.602
1573890736.703,-105.469,26.855,-1000.000,-160.156,-811.035
1573890736.707,-27.832,34.668,-85.449,27.832,-55.176
1573890736.711,27.344,36.133,-807.617,132.812,938.477
1573890736.715,-63.477,41.504,90.820,-59.570,186.035
1573890736.718,-143.066,43.457,-1000.000,-213.867,-741.211
1573890736.722,-86.914,41.992,-326.172,-71.289,-373.535
1573890736.726,-18.066,50.293,-833.008,85.938,793.457
1573890736.730,-75.195,57.617,349.609,-36.133,490.234
1573890736.734,-167.969,63.965,-1000.000,-238.281,-657.715
1573890736.738,-138.184,72.266,-664.062,-171.875,-664.551
1573890736.742,-44.434,71.289,891.602,40.039,513.184
1573890736.746,-52.734,81.055,715.332,10.742,728.516
1573890736.750,-155.273,78.613,-822.754,-214.844,-395.020
1573890736.754,-160.645,61.035,-1000.000,-214.844,-786.133
1573890736.758,-44.922,74.707,338.867,14.648,209.961
1573890736.761,-12.207,82.520,-865.234,60.547,897.461
1573890736.765,-101.562,64.941,-174.805,-138.184,-88.379
1573890736.769,-124.023,60.547,-1000.000,-207.520,-815.918
1573890736.773,-26.855,53.711,-99.121,-4.883,-147.461
1573890736.777,30.762,45.898,-777.344,132.324,937.988
1573890736.781,-26.367,44.922,208.008,-19.531,281.738
1573890736.785,-77.637,33.203,-1000.000,-169.922,-708.496
1573890736.789,-5.859,25.879,-319.824,-22.949,-407.227
1573890736.793,88.867,33.691,-816.895,178.711,764.160
1573890736.797,53.223,38.086,394.043,87.891,546.875
1573890736.800,-39.551,20.508,-1000.000,-111.816,-584.473
1573890736.804,-8.301,12.207,-827.148,-51.270,-663.574
1573890736.808,91.797,13.184,663.086,163.086,430.664
1573890736.812,91.309,13.184,947.266,154.297,798.340
1573890736.816,1.465,2.441,-569.824,-52.246,-316.895
1573890736.820,-8.301,-11.230,-1000.000,-65.918,-843.750
1573890736.824,99.609,-4.883,253.418,152.832,106.445
1573890736.828,139.160,-7.324,-806.641,219.238,924.805
1573890736.832,47.852,-14.160,-20.996,21.484,-19.043
1573890736.836,-1.953,-13.672,-1000.000,-79.590,-809.570
1573890736.840,79.102,-13.184,-143.555,104.492,-221.191
1573890736.843,143.555,-11.230,-774.902,248.535,901.367
1573890736.847,81.543,-14.648,240.234,100.098,339.844
1573890736.851,8.301,-21.484,-1000.000,-67.871,-699.219
1573890736.855,59.082,-25.391,-379.883,53.223,-483.887
1573890736.859,158.691,-19.043,-851.562,261.230,680.664
1573890736.863,136.230,-21.973,486.328,190.918,645.996
1573890736.867,42.969,-30.273,-1000.000,-20.020,-526.855
1573890736.871,64.941,-24.414,-813.965,18.555,-781.250
1573890736.875,168.945,-22.949,685.059,239.258,354.980
1573890736.879,171.875,-17.578,984.863,236.816,822.266
1573890736.883,73.730,-19.043,-465.820,16.602,-312.988
1573890736.886,49.316,-23.438,-1000.000,-21.484,-873.047
1573890736.890,136.719,-15.137,48.828,179.199,20.508
1573890736.894,181.152,-13.672,-808.594,259.766,928.223
1573890736.898,95.703,-27.832,41.016,66.895,93.750
1573890736.902,31.250,-43.945,-1000.000,-61.523,-782.227
1573890736.906,105.469,-28.320,-195.312,105.957,-281.250
1573890736.910,185.059,-10.742,-782.227,262.695,888.184
1573890736.914,125.977,-13.184,314.453,127.441,456.543
1573890736.918,37.109,-8.301,-1000.000,-52.246,-648.438
1573890736.922,82.031,1.953,-500.977,53.711,-528.320
1573890736.925,176.758,6.836,-947.754,258.301,649.414
1573890736.929,151.367,-3.906,614.258,199.219,660.156
1573890736.933,54.688,-9.766,-882.324,-11.230,-471.191
1573890736.937,62.988,-2.441,-1000.000,7.812,-731.445
1573890736.941,158.691,8.301,366.699,219.727,295.410
1573890736.945,162.109,14.160,-913.574,237.305,869.141
1573890736.949,56.152,-2.441,-295.898,21.973,-184.082
1573890736.953,15.137,-4.395,-1000.000,-44.434,-834.961
1573890736.957,100.098,11.719,-16.113,145.508,-46.875
1573890736.961,144.043,12.207,-777.832,242.188,940.918
1573890736.965,63.965,11.719,155.762,61.035,174.805
1573890736.968,-3.418,10.742,-1000.000,-78.125,-699.707
1573890736.972,62.988,10.254,-270.020,68.359,-319.824
1573890736.976,144.043,16.602,-800.781,229.492,800.293
1573890736.980,92.285,20.508,361.328,110.840,505.859
1573890736.984,2.441,22.949,-1000.000,-87.891,-666.016
1573890736.988,32.715,22.949,-638.184,-6.348,-686.035
1573890736.992,120.605,25.391,933.594,200.195,527.832
1573890736.996,104.980,27.344,711.426,162.109,704.102
1573890737.000,7.324,15.625,-837.402,-58.105,-431.641
1573890737.004,-5.371,18.066,-999.512,-72.754,-771.973
1573890737.008,91.797,25.879,419.922,145.020,224.121
1573890737.011,124.023,22.461,-904.785,199.219,901.855
1573890737.015,32.227,27.832,-258.789,-6.348,-113.770
1573890737.019,-11.230,26.855,-1000.000,-97.656,-864.258
1573890737.023,67.383,23.926,-87.402,90.332,-154.297
1573890737.027,134.277,35.156,-781.250,218.262,935.059
1573890737.031,67.871,30.762,196.289,62.988,246.094
1573890737.035,-17.578,17.578,-1000.000,-98.145,-762.207
1573890737.039,36.133,29.297,-333.984,22.461,-428.223
1573890737.043,125.000,29.785,-826.172,205.566,766.602
1573890737.047,83.496,17.090,408.203,105.957,560.059
1573890737.050,-19.043,18.555,-1000.000,-97.168,-542.969
1573890737.054,9.277,23.438,-698.242,-27.832,-640.137
1573890737.058,113.281,23.926,831.055,187.500,459.473
1573890737.062,99.121,18.066,877.441,166.992,770.020
1573890737.066,0.000,22.461,-620.605,-53.711,-318.848
1573890737.070,-10.254,27.832,-1000.000,-77.148,-784.668
1573890737.074,80.078,23.438,212.402,131.836,132.324
1573890737.078,108.398,22.461,-833.496,189.453,936.523
1573890737.082,20.996,11.230,-62.500,-6.836,2.930
1573890737.086,-23.926,6.836,-1000.000,-105.469,-831.055
1573890737.090,52.734,17.090,-201.660,65.430,-250.488
1573890737.093,115.234,21.484,-793.945,198.242,905.273
1573890737.097,58.594,14.648,255.371,62.988,276.367
1573890737.101,-22.461,7.812,-1000.000,-104.492,-791.504
1573890737.105,24.414,5.859,-372.070,5.371,-462.891
1573890737.109,118.164,10.254,-854.492,201.172,714.355
1573890737.113,80.566,3.418,550.293,119.629,632.324
1573890737.117,-15.625,-3.906,-985.352,-94.238,-484.375
1573890737.121,0.977,3.418,-796.875,-51.270,-679.199
1573890737.125,98.145,7.324,709.961,168.457,392.578
1573890737.129,103.027,10.254,-992.676,170.898,812.988
1573890737.133,6.348,1.953,-438.965,-47.852,-277.832
1573890737.136,-22.461,-8.301,-1000.000,-96.191,-879.395
1573890737.140,70.312,0.488,157.715,117.188,12.207
1573890737.144,110.352,9.766,-775.879,197.754,950.195
1573890737.148,16.602,13.184,86.426,-6.836,60.547
1573890737.152,-44.922,11.230,-1000.000,-125.000,-844.727
1573890737.156,27.344,8.301,-181.152,38.574,-328.613
1573890737.160,94.238,9.277,-774.414,185.547,889.160
1573890737.164,31.250,11.719,306.641,51.758,445.801
1573890737.168,-50.781,3.906,-1000.000,-133.789,-636.719
1573890737.172,-7.812,-5.371,-470.215,-34.668,-524.902
1573890737.175,87.891,-1.465,-901.855,172.852,624.512
1573890737.179,66.895,-1.953,544.922,116.211,649.902
1573890737.183,-32.227,-1.465,-991.699,-98.633,-495.117
1573890737.187,-27.344,1.465,-856.934,-79.102,-789.551
1573890737.191,76.660,7.324,601.562,141.113,285.645
1573890737.195,95.703,10.254,-916.016,164.062,863.281
1573890737.199,-2.441,8.301,-295.898,-54.199,-212.891
1573890737.203,-31.738,5.371,-1000.000,-120.117,-843.262
1573890737.207,66.406,9.277,54.199,87.402,-13.672
1573890737.211,114.258,13.184,-770.996,195.312,940.918
1573890737.215,30.762,11.719,154.785,10.742,127.930
1573890737.218,-41.504,6.836,-1000.000,-132.812,-779.297
1573890737.222,23.438,12.207,-283.203,17.578,-380.371
1573890737.226,105.957,20.508,-806.641,187.012,809.570
1573890737.230,50.781,14.160,375.488,68.359,479.980
1573890737.234,-42.969,5.859,-1000.000,-127.441,-672.852
1573890737.238,-3.418,4.395,-598.145,-43.945,-606.934
1573890737.242,93.750,9.277,963.867,165.527,557.129
1573890737.246,70.312,5.371,756.836,122.070,722.168
1573890737.250,-31.738,2.441,-776.855,-94.727,-427.246
1573890737.254,-37.109,1.465,-1000.000,-97.168,-807.129
1573890737.258,58.594,5.859,417.480,120.117,232.422
1573890737.261,85.938,12.207,-874.023,166.016,897.949
1573890737.265,-7.324,12.695,-209.961,-36.621,-96.191
1573890737.269,-46.387,10.742,-1000.000,-119.629,-795.410
1573890737.273,43.457,16.602,-94.238,70.312,-132.812
1573890737.277,91.797,12.695,-782.715,193.848,928.711
1573890737.281,17.090,-1.953,181.152,28.809,232.910
1573890737.285,-57.129,-3.418,-1000.000,-127.441,-765.137
1573890737.289,0.000,4.883,-312.012,4.395,-418.945
1573890737.293,92.285,17.090,-817.383,190.430,776.367
1573890737.297,54.199,15.625,396.973,92.285,541.016
1573890737.300,-38.086,15.137,-1000.000,-115.234,-616.699
1573890737.304,-11.719,15.137,-707.520,-52.246,-708.984
1573890737.308,83.008,8.789,842.773,159.180,440.918
1573890737.312,76.660,11.719,796.387,139.160,784.180
1573890737.316,-23.926,4.395,-710.449,-83.008,-354.004
1573890737.320,-40.039,-1.465,-1000.000,-107.910,-810.059
1573890737.324,56.641,1.465,219.727,108.398,156.738
1573890737.328,95.215,3.418,-873.047,177.734,908.691
1573890737.332,4.395,1.465,-187.988,-24.902,-21.973
1573890737.336,-41.016,-5.859,-1000.000,-123.047,-830.078
1573890737.340,52.734,2.441,-136.719,65.918,-238.281
1573890737.343,105.957,10.254,-786.133,192.871,927.246
1573890737.347,34.668,6.836,244.141,36.133,324.219
1573890737.351,-41.992,6.836,-1000.000,-126.465,-714.355
1573890737.355,0.977,10.742,-442.383,-4.883,-483.887
1573890737.359,92.285,17.090,-892.090,186.035,677.734
1573890737.363,62.500,19.531,509.277,109.375,612.305
1573890737.367,-38.574,11.230,-1000.000,-99.121,-509.766
1573890737.371,-26.855,4.883,-837.891,-62.500,-719.727
1573890737.375,73.242,11.719,651.367,152.832,375.977
1573890737.379,80.078,27.344,946.289,158.203,806.641
1573890737.383,-16.602,32.715,-517.090,-57.617,-299.316
1573890737.386,-41.504,24.414,-1000.000,-102.539,-798.340
1573890737.390,49.805,20.996,53.711,107.422,97.168
1573890737.394,89.844,20.020,-791.504,186.523,970.215
1573890737.398,8.301,18.066,82.031,-9.766,90.332
1573890737.402,-46.875,20.508,-1000.000,-131.836,-790.527
1573890737.406,20.508,20.996,-229.492,29.785,-281.738
1573890737.410,90.332,21.973,-791.504,184.082,879.395
1573890737.414,26.855,19.043,296.387,52.246,373.535
1573890737.418,-64.453,9.766,-1000.000,-131.348,-711.426
1573890737.422,-15.137,11.719,-468.262,-28.809,-500.977
1573890737.425,81.543,4.883,-916.992,173.828,646.973
1573890737.429,52.246,-2.930,604.004,113.281,676.758
1573890737.433,-43.457,7.812,-930.176,-100.098,-527.832
1573890737.437,-38.086,14.648,-904.785,-82.520,-832.520
1573890737.441,46.387,12.207,573.730,134.277,311.035
1573890737.445,60.547,8.301,-958.496,155.762,858.887
1573890737.449,-21.973,7.812,-373.047,-54.688,-193.848
1573890737.453,-53.223,7.324,-1000.000,-117.188,-827.148
1573890737.457,34.180,9.277,-12.695,85.938,-30.273
1573890737.461,82.520,8.789,-796.387,191.895,947.266
1573890737.465,0.977,-0.488,83.984,6.836,147.949
1573890737.468,-59.570,-11.230,-1000.000,-133.301,-797.852
1573890737.472,17.578,-3.418,-251.465,25.879,-361.328
1573890737.476,100.098,11.719,-800.781,199.707,831.543
1573890737.480,56.152,16.113,351.074,88.867,481.934
1573890737.484,-23.926,10.254,-1000.000,-101.074,-626.465
1573890737.488,7.812,9.277,-576.660,-17.578,-587.891
1573890737.492,104.004,11.719,986.816,194.336,565.918
1573890737.496,88.867,4.883,701.172,146.484,719.727
1573890737.500,-7.812,4.395,-821.289,-76.172,-413.574
1573890737.504,-12.207,9.766,-1000.000,-75.684,-764.648
1573890737.508,80.078,19.531,365.234,135.742,235.840
1573890737.511,102.539,15.137,-872.070,171.387,893.555
1573890737.515,9.766,9.277,-192.383,-35.156,-83.496
1573890737.519,-34.180,14.648,-1000.000,-122.559,-798.340
1573890737.523,53.223,20.996,-85.938,78.613,-104.004
1573890737.527,114.746,25.879,-779.297,208.008,961.914
1573890737.531,38.086,17.090,194.824,33.203,237.793
1573890737.535,-36.133,8.301,-1000.000,-120.605,-818.359
1573890737.539,28.809,6.836,-348.633,24.414,-459.473
1573890737.543,112.793,13.672,-831.543,204.590,781.738
1573890737.547,68.359,18.066,375.977,102.051,549.316
1573890737.550,-21.484,13.184,-1000.000,-98.145,-560.547
1573890737.554,-3.906,19.043,-784.668,-41.016,-615.723
1573890737.558,85.938,20.020,741.699,166.016,499.023
1573890737.562,83.984,15.625,814.941,144.531,748.535
1573890737.566,-20.996,10.254,-716.797,-80.078,-358.398
1573890737.570,-41.016,7.324,-1000.000,-103.027,-764.160
1573890737.574,58.105,8.789,236.328,114.258,172.363
1573890737.578,97.656,16.113,-839.355,182.129,916.016
1573890737.582,11.719,20.020,-96.191,-15.137,-28.809
1573890737.586,-34.668,15.137,-1000.000,-118.164,-834.961
1573890737.590,48.828,9.277,-138.672,58.594,-251.465
1573890737.593,107.910,0.000,-781.250,194.824,914.062
1573890737.597,45.410,0.977,221.191,46.387,327.637
1573890737.601,-23.438,6.836,-1000.000,-117.676,-721.191
1573890737.605,26.367,-0.977,-376.465,3.418,-457.031
1573890737.609,103.027,-3.906,-845.703,188.477,718.262
1573890737.613,62.500,-2.930,414.551,104.492,582.520
1573890737.617,-29.785,-5.859,-1000.000,-98.633,-582.520
1573890737.621,-13.184,-1.465,-806.152,-51.270,-735.352
1573890737.625,83.008,1.953,690.430,165.527,397.461
1573890737.629,88.867,5.859,927.246,165.527,790.039
1573890737.633,-6.348,5.371,-541.504,-51.758,-217.285
1573890737.636,-36.133,-4.395,-1000.000,-98.633,-707.520
1573890737.640,59.570,-3.418,70.312,113.770,74.707
1573890737.644,110.840,9.766,-832.520,200.195,927.246
1573890737.648,31.250,9.766,-33.203,10.742,13.672
1573890737.652,-28.809,4.395,-1000.000,-102.539,-797.852
1573890737.656,44.922,6.836,-192.871,68.848,-251.953
1573890737.660,114.746,7.324,-788.574,220.215,869.141
1573890737.664,56.152,13.672,286.133,75.684,396.973
1573890737.668,-25.879,25.391,-1000.000,-105.469,-657.227
1573890737.672,16.602,22.461,-528.809,-1.465,-547.852
1573890737.675,110.840,9.766,-966.797,193.359,613.770
1573890737.679,83.496,8.789,574.707,128.906,661.621
1573890737.683,-23.926,20.020,-917.969,-83.984,-507.324
1573890737.687,-21.973,11.719,-1000.000,-63.477,-778.320
1573890737.691,76.660,-2.441,352.051,151.855,282.227
1573890737.695,86.426,17.578,-961.426,166.992,860.840
1573890737.699,-5.371,21.973,-380.371,-45.410,-202.148
1573890737.703,-36.621,9.766,-1000.000,-102.539,-884.766
1573890737.707,51.758,12.695,-8.301,93.262,-44.434
1573890737.711,98.633,22.949,-787.109,190.918,966.797
1573890737.715,15.625,17.578,121.582,8.789,134.766
1573890737.718,-48.828,11.719,-1000.000,-130.371,-796.875
1573890737.722,20.020,16.602,-257.812,26.855,-355.469
1573890737.726,103.516,29.297,-799.316,195.801,839.844
1573890737.730,51.758,20.996,311.035,72.266,484.375
1573890737.734,-38.086,3.906,-1000.000,-111.816,-674.805
1573890737.738,0.000,11.719,-561.523,-22.949,-621.582
1573890737.742,88.867,21.973,999.023,175.781,573.242
1573890737.746,66.895,25.879,679.199,129.883,716.797
1573890737.750,-27.832,25.879,-847.656,-92.773,-374.023
1573890737.754,-29.297,17.090,-1000.000,-99.121,-748.535
1573890737.758,69.336,4.395,406.250,123.047,242.188
1573890737.761,101.562,21.973,-941.406,170.898,895.020
1573890737.765,15.137,35.645,-348.145,-32.227,-154.785
1573890737.769,-35.645,25.879,-1000.000,-119.629,-846.191
1573890737.773,39.062,13.672,-64.941,61.035,-93.262
1573890737.777,98.633,10.742,-788.086,184.082,938.965
1573890737.781,27.832,15.137,158.203,18.555,231.445
1573890737.785,-44.922,18.555,-1000.000,-139.160,-742.676
1573890737.789,15.625,22.461,-313.477,-0.977,-406.250
1573890737.793,94.238,23.438,-819.824,181.641,784.180
1573890737.797,54.199,22.949,380.859,79.102,553.711
1573890737.800,-31.738,26.367,-1000.000,-122.070,-575.195
1573890737.804,-7.812,24.902,-653.809,-51.270,-615.234
1573890737.808,87.891,22.949,883.301,164.551,517.090
1573890737.812,85.449,27.832,838.867,141.602,783.203
1573890737.816,-4.395,30.762,-669.922,-69.336,-321.777
1573890737.820,-18.555,27.832,-1000.000,-85.449,-769.043
1573890737.824,74.707,22.949,266.113,127.441,181.641
1573890737.828,109.375,25.879,-840.332,191.406,919.434
1573890737.832,15.625,24.414,-94.727,-8.301,-38.086
1573890737.836,-32.227,21.973,-1000.000,-109.863,-817.871
1573890737.840,54.688,21.484,-182.617,65.430,-201.660
1573890737.843,117.676,25.391,-792.969,201.172,916.992
1573890737.847,45.898,18.555,238.281,46.875,328.613
1573890737.851,-32.715,11.719,-1000.000,-124.023,-733.887
1573890737.855,19.531,20.020,-371.582,-1.465,-474.121
1573890737.859,113.281,28.809,-846.680,187.988,715.332
1573890737.863,80.078,30.762,478.516,109.375,602.051
1573890737.867,-18.555,31.738,-1000.000,-93.262,-551.270
1573890737.871,-1.465,33.691,-789.062,-47.363,-700.684
1573890737.875,94.727,35.156,717.773,168.457,409.668
1573890737.879,100.098,37.598,960.938,166.504,801.758
1573890737.883,0.000,31.738,-518.555,-51.758,-286.133
1573890737.886,-21.484,32.227,-1000.000,-99.121,-825.195
1573890737.890,77.148,35.156,170.898,113.281,74.219
1573890737.894,111.816,30.762,-792.480,190.430,951.660
1573890737.898,17.578,23.438,46.875,-10.254,31.250
1573890737.902,-32.227,29.785,-1000.000,-120.117,-828.125
1573890737.906,45.410,42.969,-172.363,51.758,-268.066
1573890737.910,117.676,46.387,-775.879,195.312,896.484
1573890737.914,57.129,42.969,282.715,60.059,392.578
1573890737.918,-33.691,35.645,-1000.000,-114.258,-731.445
1573890737.922,6.348,35.156,-437.500,-18.066,-562.988
1573890737.925,94.727,39.551,-884.277,179.688,647.461
1573890737.929,71.777,40.527,536.133,125.488,655.273
1573890737.933,-25.879,38.574,-1000.000,-91.309,-488.281
1573890737.937,-20.996,20.020,-813.965,-78.613,-752.441
1573890737.941,79.102,9.277,650.391,137.207,330.078
1573890737.945,92.773,20.508,-924.805,155.762,837.402
1573890737.949,-4.395,22.949,-294.434,-58.105,-202.637
1573890737.953,-35.156,26.367,-1000.000,-115.234,-798.828
1573890737.957,62.988,24.414,39.062,92.285,-35.156
1573890737.961,110.840,22.461,-768.555,197.266,953.613
1573890737.965,24.414,22.461,162.598,6.836,122.559
1573890737.968,-40.039,21.973,-1000.000,-131.836,-826.172
1573890737.972,22.949,23.926,-241.699,20.996,-334.473
1573890737.976,96.191,26.367,-789.551,178.223,828.125
1573890737.980,45.410,22.461,380.371,64.453,481.445
1573890737.984,-41.016,16.113,-1000.000,-122.070,-637.695
1573890737.988,-0.977,19.531,-550.293,-29.297,-590.820
1573890737.992,95.703,24.902,-993.652,179.688,583.984
1573890737.996,78.125,9.766,763.184,128.906,722.656
1573890738.000,-20.020,3.418,-772.949,-86.914,-393.555
1573890738.004,-20.508,12.207,-974.121,-78.125,-732.422
1573890738.008,77.148,16.113,485.352,142.578,278.809
1573890738.011,96.680,21.484,-886.230,178.223,890.625
1573890738.015,-0.488,18.555,-234.375,-30.762,-127.930
1573890738.019,-39.551,11.230,-1000.000,-106.445,-810.547
1573890738.023,48.828,10.742,-68.848,78.613,-86.914
1573890738.027,98.633,12.207,-775.879,195.312,962.402
1573890738.031,29.785,14.160,183.594,28.320,207.031
1573890738.035,-30.273,17.090,-1000.000,-122.070,-770.996
1573890738.039,20.508,19.531,-287.598,16.602,-403.320
1573890738.043,93.750,25.391,-806.152,188.477,784.668
1573890738.047,50.781,25.879,405.273,81.543,556.641
1573890738.050,-41.016,25.391,-1000.000,-112.305,-574.707
1573890738.054,-11.719,25.879,-644.531,-40.039,-612.305
1573890738.058,88.379,30.273,929.688,169.434,512.695
1573890738.062,79.102,30.273,745.605,136.230,764.160
1573890738.066,-25.879,27.344,-784.668,-88.867,-334.961
1573890738.070,-35.156,25.391,-1000.000,-99.121,-763.672
1573890738.074,72.266,23.438,296.875,121.094,193.848
1573890738.078,100.586,26.367,-831.543,177.246,911.621
1573890738.082,2.930,28.809,-82.031,-25.879,-44.434
1573890738.086,-44.922,30.273,-1000.000,-125.000,-808.594
1573890738.090,45.410,34.180,-120.117,58.105,-191.895
1573890738.093,110.352,37.109,-775.879,194.336,930.176
1573890738.097,41.992,37.109,220.703,42.969,300.781
1573890738.101,-30.762,35.645,-1000.000,-118.652,-774.902
1573890738.105,20.020,37.109,-363.281,5.371,-496.094
1573890738.109,106.934,35.645,-837.891,191.406,727.051
1573890738.113,70.801,29.297,429.199,95.703,583.008
1573890738.117,-26.855,26.855,-1000.000,-111.816,-581.055
1573890738.121,-7.812,22.461,-785.645,-59.570,-717.773
1573890738.125,84.473,22.949,708.008,155.273,411.133
1573890738.129,89.844,27.344,924.316,151.367,788.574
1573890738.133,5.371,17.578,-537.598,-52.246,-318.848
1573890738.136,-28.320,17.578,-1000.000,-99.121,-834.473
1573890738.140,54.688,28.809,50.781,94.238,68.359
1573890738.144,101.562,27.344,-816.895,178.223,926.758
1573890738.148,11.719,18.555,13.184,-11.230,3.418
1573890738.152,-41.016,17.090,-1000.000,-124.023,-852.051
1573890738.156,39.062,29.785,-203.125,43.945,-298.340
1573890738.160,113.770,41.992,-789.062,196.289,888.672
1573890738.164,60.059,39.062,280.273,62.012,358.887
1573890738.168,-27.832,34.668,-1000.000,-118.652,-778.809
1573890738.172,13.672,46.387,-451.172,-14.648,-565.918
1573890738.175,107.422,46.875,-904.785,179.199,656.738
1573890738.179,83.496,37.109,598.633,116.699,659.668
1573890738.183,-18.555,41.504,-948.242,-94.727,-513.672
1573890738.187,-13.672,42.480,-850.098,-70.801,-745.117
1573890738.191,85.938,36.133,649.902,146.973,366.211
1573890738.195,96.191,41.016,-978.516,165.527,839.355
1573890738.199,1.465,41.504,-395.020,-49.316,-232.910
1573890738.203,-31.250,36.621,-1000.000,-111.816,-842.285
1573890738.207,57.129,38.574,11.230,91.309,2.441
1573890738.211,113.770,41.992,-793.945,195.312,954.590
1573890738.215,31.250,38.086,68.359,19.043,116.211
1573890738.218,-43.457,35.156,-1000.000,-118.652,-761.230
1573890738.222,28.320,37.598,-219.238,33.203,-299.805
1573890738.226,105.957,37.109,-791.504,194.336,865.234
1573890738.230,49.805,39.062,277.832,67.871,454.590
1573890738.234,-41.016,31.738,-1000.000,-117.676,-636.230
1573890738.238,-0.977,31.250,-576.660,-24.414,-574.219
1573890738.242,100.098,45.410,976.562,186.035,580.078
1573890738.246,80.078,37.598,691.406,135.254,698.730
1573890738.250,-22.949,31.738,-859.863,-83.008,-448.730
1573890738.254,-20.996,35.156,-970.703,-67.871,-729.492
1573890738.258,80.566,37.109,464.844,148.926,292.969
1573890738.261,90.820,35.156,-901.855,175.781,869.629
1573890738.265,-6.348,36.621,-260.742,-39.062,-167.969
1573890738.269,-36.133,35.156,-1000.000,-113.770,-856.934
1573890738.273,55.176,32.715,-57.617,82.520,-99.121
1573890738.277,109.863,33.691,-779.297,192.383,971.680
1573890738.281,24.902,27.832,182.617,11.230,197.754
1573890738.285,-48.828,24.902,-1000.000,-139.648,-778.320
1573890738.289,13.184,23.926,-309.570,0.000,-363.281
1573890738.293,102.539,30.273,-813.965,183.594,805.176
1573890738.297,62.500,29.785,354.980,87.402,527.832
1573890738.300,-29.297,26.855,-1000.000,-110.352,-635.742
1573890738.304,4.395,32.227,-640.137,-33.203,-684.570
1573890738.308,98.145,34.668,904.785,169.922,497.070
1573890738.312,90.820,31.250,795.410,142.090,745.605
1573890738.316,-2.930,25.391,-703.613,-68.848,-373.047
1573890738.320,-19.531,25.879,-1000.000,-88.867,-807.617
1573890738.324,76.660,37.598,220.215,124.023,139.648
1573890738.328,105.957,34.180,-837.402,180.664,916.016
1573890738.332,14.648,28.320,-97.656,-16.113,-44.922
1573890738.336,-28.320,32.715,-1000.000,-106.934,-822.266
1573890738.340,51.758,31.250,-122.559,76.172,-184.082
1573890738.343,111.816,32.227,-779.785,209.473,925.293
1573890738.347,43.945,35.156,203.125,56.152,294.434
1573890738.351,-34.180,34.668,-1000.000,-114.746,-746.582
1573890738.355,20.020,35.645,-355.957,13.672,-480.957
1573890738.359,113.281,36.133,-835.938,197.754,726.074
1573890738.363,72.754,28.809,397.949,104.492,566.406
1573890738.367,-34.668,24.902,-1000.000,-98.145,-565.918
1573890738.371,-12.207,26.855,-766.602,-42.969,-662.109
1573890738.375,89.355,35.645,742.188,164.062,419.434
1573890738.379,85.449,41.016,909.668,152.832,787.109
1573890738.383,-9.277,40.527,-571.777,-53.223,-303.223
1573890738.386,-32.227,40.527,-1000.000,-92.773,-830.078
1573890738.390,52.734,35.645,132.812,110.840,74.219
1573890738.394,95.215,35.645,-853.027,192.383,909.668
1573890738.398,10.742,33.691,-93.262,-4.883,-17.578
1573890738.402,-32.715,27.344,-1000.000,-121.582,-823.730
1573890738.406,57.617,25.391,-167.480,58.105,-262.207
1573890738.410,117.676,28.809,-786.133,203.125,907.227
1573890738.414,48.340,24.902,261.719,58.105,382.812
1573890738.418,-29.785,22.461,-1000.000,-117.676,-722.656
1573890738.422,25.879,34.668,-468.750,-4.883,-546.387
1573890738.425,119.141,37.598,-920.410,187.988,658.691
1573890738.429,84.961,29.297,542.969,113.770,633.301
1573890738.433,-12.695,18.066,-953.613,-99.609,-491.699
1573890738.437,-10.254,21.973,-962.891,-73.242,-707.520
1573890738.441,85.938,33.203,457.520,143.555,346.191
1573890738.445,96.191,28.320,-968.262,150.391,840.332
1573890738.449,-0.488,29.785,-404.785,-60.547,-219.238
1573890738.453,-24.902,33.203,-1000.000,-110.840,-803.223
1573890738.457,66.895,34.668,42.480,89.355,16.602
1573890738.461,112.793,32.227,-786.133,182.129,952.637
1573890738.465,31.250,22.461,96.680,2.441,95.703
1573890738.468,-31.250,20.996,-1000.000,-126.465,-807.129
1573890738.472,33.203,23.926,-231.445,32.715,-322.754
1573890738.476,105.957,30.762,-791.992,196.777,857.422
1573890738.480,56.641,33.691,321.777,74.707,468.262
1573890738.484,-38.574,24.902,-1000.000,-122.559,-661.621
1573890738.488,-6.348,25.879,-555.664,-33.691,-600.586
1573890738.492,96.680,33.691,-982.422,176.270,595.215
1573890738.496,82.031,29.785,648.926,125.977,681.641
1573890738.500,-9.766,19.531,-896.973,-95.215,-500.000
1573890738.504,-5.859,27.344,-953.125,-88.379,-828.613
1573890738.508,87.402,33.691,502.930,136.719,247.559
1573890738.511,113.281,29.785,-956.055,175.293,878.906
1573890738.515,27.344,36.133,-365.723,-38.574,-133.301
1573890738.519,-12.695,41.016,-1000.000,-117.676,-781.738
1573890738.523,69.824,41.016,-60.059,83.496,-52.734
1573890738.527,119.629,35.156,-788.574,194.336,957.031
1573890738.531,50.293,29.785,153.320,20.020,172.852
1573890738.535,-14.648,29.297,-1000.000,-122.559,-793.945
1573890738.539,41.992,38.086,-288.086,23.438,-385.742
1573890738.543,124.023,40.527,-809.082,199.707,793.457
1573890738.547,77.637,39.062,350.586,86.914,523.926
1573890738.550,-20.020,38.574,-1000.000,-115.723,-652.832
1573890738.554,13.672,36.621,-614.746,-39.551,-636.719
1573890738.558,107.422,28.809,933.105,171.387,560.059
1573890738.562,87.891,29.785,777.832,139.160,742.188
1573890738.566,-10.742,33.203,-739.746,-74.707,-381.348
1573890738.570,-14.648,24.414,-1000.000,-85.938,-809.082
1573890738.574,77.148,19.531,311.523,124.023,179.199
1573890738.578,105.957,25.391,-883.301,171.875,900.391
1573890738.582,13.672,22.461,-206.543,-36.621,-96.680
1573890738.586,-33.203,19.531,-1000.000,-126.465,-843.262
1573890738.590,46.387,26.367,-144.043,62.988,-187.012
1573890738.593,103.516,25.391,-793.457,193.359,936.523
1573890738.597,35.156,21.484,218.750,33.691,278.809
1573890738.601,-36.133,20.996,-1000.000,-124.512,-717.773
1573890738.605,25.879,27.344,-448.242,11.719,-418.945
1573890738.609,109.863,31.738,-895.508,195.312,727.051
1573890738.613,70.801,26.855,454.590,103.027,571.289
1573890738.617,-22.949,24.414,-1000.000,-104.980,-616.699
1573890738.621,-3.906,22.461,-765.137,-55.176,-711.914
1573890738.625,97.656,16.113,749.512,161.133,452.637
1573890738.629,98.633,19.531,925.781,148.926,792.480
1573890738.633,1.465,18.066,-564.941,-71.289,-292.969
1573890738.636,-18.066,9.766,-1000.000,-109.375,-819.336
1573890738.640,74.707,17.578,183.105,104.004,94.238
1573890738.644,108.398,26.855,-807.617,182.129,942.383
1573890738.648,19.531,24.414,-11.230,-21.973,26.855
1573890738.652,-33.691,11.719,-1000.000,-134.277,-768.066
1573890738.656,42.969,12.207,-138.184,45.410,-193.359
1573890738.660,108.398,24.902,-774.902,187.500,903.320
1573890738.664,47.363,19.043,250.488,42.969,372.559
1573890738.668,-34.180,8.301,-1000.000,-128.906,-709.961
1573890738.672,8.301,13.184,-432.617,-19.043,-552.246
1573890738.675,97.656,15.137,-897.949,179.199,655.273
1573890738.679,62.988,8.301,592.285,108.887,646.484
1573890738.683,-36.621,7.812,-957.031,-111.816,-501.465
1573890738.687,-25.879,11.230,-826.660,-83.984,-732.910
1573890738.691,80.078,16.113,700.195,145.996,370.605
1573890738.695,97.168,22.461,976.074,159.668,823.730
1573890738.699,-2.441,16.602,-469.727,-63.477,-256.348
1573890738.703,-36.133,11.230,-1000.000,-116.699,-810.547
1573890738.707,55.176,20.508,87.402,90.332,20.996
1573890738.711,103.516,25.879,-778.809,181.152,940.918
1573890738.715,19.043,15.137,116.211,-6.348,73.242
1573890738.718,-46.387,6.836,-1000.000,-134.766,-834.473
1573890738.722,14.160,10.742,-237.793,17.090,-337.402
1573890738.726,89.844,9.766,-791.016,167.480,846.191
1573890738.730,37.598,5.371,348.145,39.062,485.840
1573890738.734,-61.035,15.137,-1000.000,-140.625,-656.738
1573890738.738,-25.879,24.902,-536.621,-45.410,-619.141
1573890738.742,72.754,22.949,-970.215,153.320,602.539
1573890738.746,55.664,25.879,691.895,100.586,710.449
1573890738.750,-35.645,23.926,-859.375,-110.352,-415.039
1573890738.754,-32.227,21.484,-925.293,-96.680,-724.609
1573890738.758,65.918,21.973,551.758,122.070,303.223
1573890738.761,92.773,20.020,-927.246,158.203,877.930
1573890738.765,-0.977,15.137,-318.848,-55.664,-197.266
1573890738.769,-41.992,10.742,-1000.000,-125.488,-820.801
1573890738.773,47.852,18.555,-23.438,83.008,-45.898
1573890738.777,94.727,17.578,-780.762,185.547,947.754
1573890738.781,13.184,12.695,162.598,3.906,208.008
1573890738.785,-53.223,9.277,-1000.000,-139.160,-761.719
1573890738.789,6.836,13.184,-301.270,4.883,-418.457
1573890738.793,88.379,21.973,-813.477,179.688,772.461
1573890738.797,43.945,19.531,375.488,67.383,522.949
1573890738.800,-41.504,9.766,-1000.000,-125.488,-594.238
1573890738.804,-9.277,24.902,-645.508,-39.062,-578.125
1573890738.808,83.984,21.973,934.082,171.875,542.480
1573890738.812,79.590,-2.441,695.312,140.625,755.371
1573890738.816,-19.531,5.859,-835.938,-78.125,-387.695
1573890738.820,-30.273,17.578,-1000.000,-86.914,-852.051
1573890738.824,73.730,16.602,315.430,131.836,176.270
1573890738.828,107.422,20.508,-882.324,185.547,890.137
1573890738.832,26.855,25.879,-208.496,-16.113,-129.395
1573890738.836,-25.879,17.090,-1000.000,-112.793,-897.461
1573890738.840,46.387,15.137,-109.863,70.801,-206.055
1573890738.843,114.746,15.137,-782.227,201.660,960.449
1573890738.847,46.387,10.254,212.402,45.410,291.992
1573890738.851,-34.180,7.812,-1000.000,-119.629,-762.207
1573890738.855,15.625,5.859,-349.609,3.418,-450.684
1573890738.859,99.121,7.812,-831.055,187.500,761.719
1573890738.863,64.453,14.648,385.742,93.262,567.871
1573890738.867,-31.250,10.254,-1000.000,-108.887,-625.000
1573890738.871,-7.324,2.930,-766.113,-52.734,-731.445
1573890738.875,94.727,10.742,743.164,163.574,445.312
1573890738.879,88.379,15.625,877.441,150.391,790.527
1573890738.883,-11.719,10.254,-602.539,-66.406,-262.207
1573890738.886,-22.461,9.766,-1000.000,-86.914,-752.930
1573890738.890,76.660,14.160,77.637,126.953,111.816
1573890738.894,110.352,9.766,-818.359,190.918,950.195
1573890738.898,17.090,4.395,0.000,-13.184,15.625
1573890738.902,-40.039,9.277,-1000.000,-124.512,-862.793
1573890738.906,41.016,9.766,-194.824,50.781,-260.254
1573890738.910,111.816,10.254,-788.086,191.895,919.922
1573890738.914,45.898,20.020,264.160,43.945,398.438
1573890738.918,-37.109,14.160,-1000.000,-131.348,-672.363
1573890738.922,5.859,7.324,-440.430,-22.461,-514.160
1573890738.925,97.656,6.836,-894.043,167.480,678.223
1573890738.929,68.848,4.395,544.922,95.215,663.574
1573890738.933,-33.691,9.766,-991.211,-112.305,-485.840
1573890738.937,-16.113,8.301,-832.031,-74.707,-735.840
1573890738.941,89.844,12.695,673.340,150.879,368.164
1573890738.945,93.750,12.207,991.699,158.203,846.191
1573890738.949,-8.789,-1.953,-453.125,-61.523,-233.398
1573890738.953,-33.691,-0.488,-1000.000,-117.676,-810.059
1573890738.957,62.500,14.648,51.758,93.262,27.344
1573890738.961,108.887,16.113,-801.758,187.500,954.102
1573890738.965,27.344,6.348,41.992,-6.348,131.836
1573890738.968,-32.715,4.395,-1000.000,-125.000,-744.629
1573890738.972,35.645,10.742,-210.449,38.086,-270.020
1573890738.976,110.840,15.625,-791.016,192.383,871.094
1573890738.980,62.012,13.184,263.184,54.688,418.945
1573890738.984,-21.973,12.207,-1000.000,-129.883,-708.496
1573890738.988,14.648,13.672,-494.141,-26.855,-589.355
1573890738.992,105.957,15.137,-945.801,176.270,624.512
1573890738.996,83.496,16.602,623.535,123.047,662.598
1573890739.000,-16.113,13.672,-911.621,-91.797,-496.094
1573890739.004,-10.254,17.090,-937.988,-73.730,-749.512
1573890739.008,94.727,20.508,504.883,142.578,308.594
1573890739.011,106.445,23.926,-916.992,165.039,884.766
1573890739.015,4.883,16.113,-293.945,-43.945,-166.504
1573890739.019,-30.273,0.000,-1000.000,-109.863,-832.031
1573890739.023,62.500,12.695,-37.598,84.473,-22.461
1573890739.027,115.723,27.832,-784.180,195.312,998.047
1573890739.031,34.668,28.809,145.996,20.508,186.035
1573890739.035,-38.574,26.367,-1000.000,-131.836,-801.270
1573890739.039,22.949,22.949,-306.152,14.648,-380.859
1573890739.043,105.957,25.391,-817.383,188.477,812.988
1573890739.047,57.617,21.484,349.609,72.266,537.598
1573890739.050,-28.320,15.625,-1000.000,-124.512,-625.000
1573890739.054,8.301,18.066,-648.926,-42.969,-655.762
1573890739.058,103.516,21.973,915.039,168.457,552.246
1573890739.062,90.332,24.902,743.652,133.789,732.910
1573890739.066,-10.254,24.902,-775.879,-90.332,-393.066
1573890739.070,-17.090,23.926,-1000.000,-102.539,-791.504
1573890739.074,84.961,26.855,259.766,121.582,190.918
1573890739.078,109.375,26.855,-865.723,173.340,930.176
1573890739.082,7.812,21.484,-177.734,-37.598,-104.980
1573890739.086,-42.969,10.742,-1000.000,-128.418,-803.223
1573890739.090,40.039,6.836,-119.141,64.453,-68.359
1573890739.093,103.516,14.160,-785.645,192.871,956.055
1573890739.097,37.109,11.230,192.871,33.691,284.668
1573890739.101,-46.875,6.836,-1000.000,-135.254,-768.555
1573890739.105,4.883,8.301,-345.703,-6.348,-473.633
1573890739.109,109.863,13.184,-831.543,196.289,755.371
1573890739.113,84.473,11.230,366.211,107.422,571.777
1573890739.117,-15.625,0.977,-1000.000,-99.609,-639.160
1573890739.121,7.324,1.465,-729.980,-32.227,-698.730
1573890739.125,116.211,3.906,801.758,193.359,495.117
1573890739.129,125.977,6.836,825.195,186.523,780.273
1573890739.133,35.645,10.254,-679.199,-24.902,-330.566
1573890739.136,18.555,9.766,-1000.000,-52.734,-815.430
1573890739.140,120.605,13.184,146.484,164.062,133.301
1573890739.144,162.598,14.648,-831.055,237.305,967.285
1573890739.148,76.172,13.672,-49.316,41.504,3.906
1573890739.152,26.367,15.137,-1000.000,-62.012,-849.121
1573890739.156,107.910,20.996,-172.363,114.258,-233.398
1573890739.160,176.270,21.973,-786.621,250.000,904.297
1573890739.164,110.840,9.277,240.723,108.887,337.891
1573890739.168,30.762,1.953,-1000.000,-53.711,-765.625
1573890739.172,79.590,0.488,-458.008,57.617,-572.754
1573890739.175,166.016,4.883,-911.133,246.582,673.340
1573890739.179,127.930,8.301,503.418,166.504,652.832
1573890739.183,31.250,-1.465,-994.141,-41.992,-506.836
1573890739.187,39.062,-2.441,-930.664,-14.160,-708.496
1573890739.191,134.277,10.254,534.668,196.777,399.414
1573890739.195,139.160,16.113,955.566,199.707,832.031
1573890739.199,29.297,5.859,-508.301,-32.227,-298.828
1573890739.203,1.465,0.000,-1000.000,-77.637,-863.770
1573890739.207,94.238,6.836,-23.926,136.230,45.898
1573890739.211,130.371,3.906,-808.105,222.168,959.961
1573890739.215,45.898,-0.977,61.523,30.273,93.262
1573890739.218,-15.137,4.395,-1000.000,-97.656,-829.102
1573890739.222,56.152,5.859,-220.215,62.988,-326.172
1573890739.226,124.512,4.883,-792.969,215.820,872.559
1573890739.230,65.430,7.812,289.062,84.473,412.109
1573890739.234,-20.508,11.719,-1000.000,-101.562,-710.938
1573890739.238,21.484,12.207,-553.223,-10.254,-583.984
1573890739.242,111.328,6.348,-981.934,186.035,633.789
1573890739.246,85.449,8.789,605.469,125.488,684.082
1573890739.250,-10.254,6.836,-927.246,-95.215,-482.910
1573890739.254,-1.465,5.859,-962.891,-80.078,-763.184
1573890739.258,98.145,15.137,492.676,143.066,312.988
1573890739.261,117.188,20.020,994.629,174.805,857.422
1573890739.265,28.320,18.066,-453.613,-38.574,-216.797
1573890739.269,-7.324,14.160,-1000.000,-107.910,-867.188
1573890739.273,79.590,15.625,-16.113,97.168,-46.387
1573890739.277,122.559,15.137,-791.504,191.895,965.820
1573890739.281,46.387,7.812,126.465,6.836,186.035
1573890739.285,-19.531,6.348,-1000.000,-132.812,-774.902
1573890739.289,40.039,19.531,-280.762,20.996,-378.906
1573890739.293,122.070,22.949,-807.617,196.777,832.520
1573890739.297,73.242,12.695,320.312,80.566,502.930
1573890739.300,-18.066,10.254,-1000.000,-112.793,-689.941
1573890739.304,14.160,11.230,-580.078,-31.738,-683.594
1573890739.308,109.375,13.672,977.539,175.781,556.641
1573890739.312,94.727,19.531,690.918,141.602,745.605
1573890739.316,-5.371,10.742,-838.867,-75.684,-394.531
1573890739.320,-15.137,5.859,-1000.000,-84.961,-783.203
1573890739.324,83.008,11.230,366.699,129.883,230.957
1573890739.328,100.586,9.766,-879.395,173.340,908.691
1573890739.332,3.418,19.531,-205.566,-33.691,-135.254
1573890739.336,-34.180,24.902,-1000.000,-120.605,-878.906
1573890739.340,50.781,25.879,-140.137,63.477,-170.410
1573890739.343,108.398,26.367,-788.086,185.059,934.082
1573890739.347,29.785,22.949,218.262,22.461,270.508
1573890739.351,-40.039,18.555,-1000.000,-132.324,-797.852
1573890739.355,22.461,19.531,-315.430,0.000,-459.961
1573890739.359,106.445,21.484,-819.824,177.734,767.578
1573890739.363,68.359,13.672,455.078,83.496,571.777
1573890739.367,-23.926,17.578,-1000.000,-117.188,-551.758
1573890739.371,-5.859,26.367,-708.008,-64.941,-645.508
1573890739.375,90.820,26.367,835.938,148.438,467.773
1573890739.379,90.820,22.461,879.395,134.277,766.602
1573890739.383,-7.324,21.973,-633.789,-89.355,-340.332
1573890739.386,-25.391,18.066,-1000.000,-124.023,-807.617
1573890739.390,75.195,8.789,282.715,99.609,139.648
1573890739.394,111.328,13.672,-804.688,173.340,962.402
1573890739.398,5.859,20.020,-18.555,-49.316,-15.625
1573890739.402,-48.828,23.438,-1000.000,-160.156,-832.031
1573890739.406,39.062,26.855,-129.395,28.320,-183.105
1573890739.410,90.332,25.879,-771.973,159.668,943.359
1573890739.414,14.160,19.043,249.023,2.930,354.980
1573890739.418,-60.059,19.043,-1000.000,-165.527,-742.188
1573890739.422,-7.812,21.484,-403.320,-47.363,-517.578
1573890739.425,73.242,23.926,-856.934,142.578,703.613
1573890739.429,33.203,22.461,440.430,55.176,594.727
1573890739.433,-62.012,18.066,-1000.000,-155.762,-565.430
1573890739.437,-47.363,22.461,-745.117,-104.980,-701.660
1573890739.441,50.293,24.902,745.117,114.258,408.691
1573890739.445,54.199,23.438,998.535,116.211,835.449
1573890739.449,-39.062,20.020,-441.895,-93.750,-269.043
1573890739.453,-62.500,14.648,-1000.000,-138.184,-874.023
1573890739.457,33.691,9.766,138.672,78.125,39.551
1573890739.461,82.031,14.648,-788.086,175.293,974.121
1573890739.465,0.488,15.625,66.406,-14.160,77.637
1573890739.468,-55.176,0.977,-1000.000,-140.625,-837.891
1573890739.472,26.367,2.930,-223.145,31.250,-336.914
1573890739.476,107.910,20.020,-790.527,192.871,868.164
1573890739.480,51.758,19.043,304.688,60.547,441.895
1573890739.484,-29.785,11.230,-1000.000,-116.211,-660.645
1573890739.488,19.043,11.230,-532.715,-17.090,-578.613
1573890739.492,116.211,16.113,-964.844,185.059,622.070
1573890739.496,95.215,15.137,622.559,125.977,677.246
1573890739.500,-3.418,12.207,-923.828,-94.727,-485.840
1573890739.504,-0.977,13.184,-918.945,-76.660,-736.816
1573890739.508,96.680,11.719,543.457,140.137,323.730
1573890739.511,109.375,12.695,-947.754,161.621,863.281
1573890739.515,8.789,4.395,-357.910,-53.711,-157.715
1573890739.519,-31.250,-2.441,-1000.000,-122.070,-797.363
1573890739.523,57.617,-0.977,-9.766,74.707,-25.391
1573890739.527,105.469,7.812,-784.668,173.340,963.867
1573890739.531,22.461,9.277,133.301,-4.883,133.301
1573890739.535,-43.945,-5.371,-1000.000,-145.508,-841.309
1573890739.539,17.090,-13.184,-282.715,1.953,-422.363
1573890739.543,94.727,-5.859,-808.594,171.387,816.406
1573890739.547,43.457,1.953,348.633,47.363,491.699
1573890739.550,-55.176,-12.695,-1000.000,-154.785,-636.719
1573890739.554,-31.738,-21.484,-583.008,-76.660,-569.824
1573890739.558,62.012,-18.555,998.047,132.324,585.449
1573890739.562,44.922,-22.949,624.512,90.332,714.355
1573890739.566,-58.594,-27.832,-902.832,-134.277,-421.875
1573890739.570,-60.059,-22.461,-1000.000,-128.418,-774.902
1573890739.574,44.434,-18.066,381.348,100.098,242.676
1573890739.578,71.289,-18.555,-897.461,146.484,895.508
1573890739.582,-22.949,-25.391,-240.234,-57.129,-96.680
1573890739.586,-66.406,-44.434,-1000.000,-143.066,-817.871
1573890739.590,19.043,-44.922,-84.473,46.875,-124.512
1573890739.593,78.125,-26.855,-781.738,175.781,966.309
1573890739.597,11.719,-20.508,180.176,16.602,261.719
1573890739.601,-52.246,-19.043,-1000.000,-135.254,-801.270
1573890739.605,8.789,-30.762,-319.336,-1.465,-471.191
1573890739.609,95.215,-40.039,-819.824,177.246,774.902
1573890739.613,59.082,-35.156,389.160,82.031,562.500
1573890739.617,-27.832,-42.480,-1000.000,-112.793,-594.727
1573890739.621,2.441,-47.363,-670.410,-41.992,-623.535
1573890739.625,108.887,-28.809,858.887,172.363,513.672
1573890739.629,109.863,-23.438,850.098,154.297,767.578
1573890739.633,5.371,-35.645,-632.812,-61.523,-316.895
1573890739.636,-5.371,-31.738,-1000.000,-84.473,-809.570
1573890739.640,93.262,-29.785,160.645,129.883,112.305
1573890739.644,111.816,-41.504,-826.172,176.270,930.176
1573890739.648,27.832,-44.434,-47.852,-18.555,-10.254
1573890739.652,-9.277,-30.762,-1000.000,-103.027,-816.895
1573890739.656,45.410,-12.695,-164.062,53.223,-210.449
1573890739.660,85.938,-26.367,-784.180,166.016,927.734
1573890739.664,30.762,-37.598,247.070,22.949,348.633
1573890739.668,-63.477,-37.598,-1000.000,-159.668,-727.051
1573890739.672,-35.156,-36.621,-415.039,-62.500,-497.559
1573890739.675,47.363,-27.344,-873.535,131.348,712.891
1573890739.679,-6.836,-34.180,521.484,35.156,625.977
1573890739.683,-106.445,-51.758,-1000.000,-179.688,-537.109
1573890739.687,-99.609,-60.059,-797.363,-147.461,-720.703
1573890739.691,-15.625,-48.340,718.262,56.641,394.531
1573890739.695,-10.742,-39.062,961.426,55.176,833.496
1573890739.699,-110.840,-54.199,-487.793,-171.875,-270.508
1573890739.703,-137.695,-54.688,-1000.000,-208.496,-873.535
1573890739.707,-49.316,-45.898,68.848,-2.930,30.762
1573890739.711,-19.043,-52.246,-805.176,62.012,960.938
1573890739.715,-101.074,-57.617,17.090,-132.812,72.754
1573890739.718,-144.043,-53.223,-1000.000,-238.770,-824.219
1573890739.722,-70.801,-41.992,-178.223,-62.988,-277.832
1573890739.726,-4.883,-31.738,-781.250,84.473,921.387
1573890739.730,-52.246,-38.086,286.621,-41.016,388.672
1573890739.734,-122.559,-48.340,-1000.000,-216.309,-746.582
1573890739.738,-80.078,-43.945,-452.637,-112.793,-562.012
1573890739.742,19.043,-34.668,-903.320,96.191,646.484
1573890739.746,9.766,-39.551,590.820,48.340,664.062
1573890739.750,-81.543,-51.270,-938.477,-160.156,-540.527
1573890739.754,-70.312,-35.645,-904.297,-131.348,-793.457
1573890739.758,39.062,-25.879,571.289,104.004,336.426
1573890739.761,53.223,-25.391,-955.566,124.512,845.703
1573890739.765,-47.363,-33.203,-370.117,-98.633,-225.098
1573890739.769,-79.590,-46.387,-1000.000,-155.273,-835.938
1573890739.773,21.973,-41.016,4.395,62.500,-32.715
1573890739.777,80.566,-33.203,-781.250,168.457,964.355
1573890739.781,-8.301,-41.992,142.090,-18.555,176.270
1573890739.785,-63.965,-45.898,-1000.000,-151.367,-815.918
1573890739.789,12.695,-37.598,-269.531,11.719,-371.582
1573890739.793,89.844,-29.785,-800.293,177.246,856.934
1573890739.797,47.363,-22.461,313.477,62.012,501.465
1573890739.800,-35.156,-27.344,-1000.000,-124.512,-626.465
1573890739.804,2.930,-36.133,-696.289,-50.781,-649.414
1573890739.808,105.469,-33.203,843.262,155.273,527.832
1573890739.812,92.285,-27.832,744.629,119.141,730.957
1573890739.816,-3.906,-26.367,-815.430,-99.121,-415.039
1573890739.820,-4.395,-27.832,-996.582,-93.262,-751.953
1573890739.824,84.961,-17.090,407.227,125.488,285.156
1573890739.828,104.004,-9.766,-875.000,157.227,912.598
1573890739.832,8.301,-18.555,-202.637,-58.105,-110.352
1573890739.836,-33.691,-24.414,-1000.000,-138.184,-824.219
1573890739.840,57.617,-26.855,-77.148,56.641,-94.727
1573890739.843,113.281,-19.531,-779.297,175.781,960.938
1573890739.847,34.180,-20.996,176.758,6.836,231.934
1573890739.851,-39.062,-22.949,-1000.000,-150.879,-768.555
1573890739.855,16.602,-18.555,-306.641,-14.648,-397.461
1573890739.859,99.609,-19.043,-813.965,166.992,800.781
1573890739.863,53.223,-23.926,368.164,59.570,550.293
1573890739.867,-45.410,-20.508,-1000.000,-143.555,-602.539
1573890739.871,-16.113,-20.020,-679.199,-74.707,-672.363
1573890739.875,75.195,-19.043,864.746,143.066,479.004
1573890739.879,58.594,-28.809,792.480,115.234,770.508
1573890739.883,-42.969,-29.785,-711.426,-106.445,-377.441
1573890739.886,-53.711,-22.949,-1000.000,-121.094,-869.629
1573890739.890,40.527,-34.180,217.773,96.191,121.582
1573890739.894,72.754,-42.969,-833.496,161.133,936.523
1573890739.898,-15.625,-44.434,-73.730,-44.434,-12.695
1573890739.902,-61.035,-43.945,-1000.000,-144.531,-787.598
1573890739.906,34.180,-37.109,-142.578,47.363,-172.363
1573890739.910,104.980,-32.715,-779.297,184.082,938.965
1573890739.914,42.480,-33.691,232.422,31.738,285.156
1573890739.918,-29.785,-29.785,-1000.000,-131.348,-816.895
1573890739.922,25.391,-34.180,-382.324,-4.883,-499.023
1573890739.925,113.770,-38.086,-853.027,189.453,724.121
1573890739.929,78.125,-47.363,471.680,104.980,621.582
1573890739.933,-7.812,-44.434,-1000.000,-95.215,-543.945
1573890739.937,10.742,-55.176,-865.723,-44.922,-712.402
1573890739.941,101.562,-76.172,597.168,163.086,403.809
1573890739.945,102.539,-62.012,951.660,156.250,825.195
1573890739.949,13.672,-52.734,-520.996,-55.664,-261.230
1573890739.953,0.000,-55.664,-1000.000,-88.379,-844.727
1573890739.957,91.309,-62.012,96.191,121.582,63.965
1573890739.961,130.371,-53.223,-801.758,202.148,962.891
1573890739.965,48.828,-43.457,36.621,9.277,79.590
1573890739.968,-12.207,-41.992,-1000.000,-109.863,-750.977
1573890739.972,50.293,-39.062,-193.359,54.199,-253.418
1573890739.976,119.629,-35.645,-784.180,192.871,902.832
1573890739.980,61.523,-46.875,270.996,54.688,365.234
1573890739.984,-29.785,-60.547,-1000.000,-126.953,-755.371
1573890739.988,10.254,-45.410,-468.750,-30.273,-495.605
1573890739.992,101.562,-32.227,-913.086,168.457,684.570
1573890739.996,66.895,-43.945,573.730,99.609,635.254
1573890740.000,-28.320,-44.434,-959.961,-115.234,-529.785
1573890740.004,-13.184,-30.273,-895.508,-83.984,-753.906
1573890740.008,79.590,-41.016,591.309,126.953,331.055
1573890740.011,84.961,-44.434,-995.117,135.742,858.398
1573890740.015,-10.742,-42.969,-437.500,-73.242,-156.738
1573890740.019,-42.969,-47.852,-1000.000,-131.836,-785.156
1573890740.023,53.711,-44.922,14.160,75.195,-11.719
1573890740.027,108.887,-38.086,-789.551,177.246,974.121
1573890740.031,26.367,-36.621,99.121,1.465,125.488
1573890740.035,-41.016,-29.297,-1000.000,-126.465,-794.922
1573890740.039,26.367,-3.418,-230.957,22.949,-336.426
1573890740.043,105.957,14.160,-791.504,180.176,828.125
1573890740.047,52.734,17.090,313.477,57.617,467.773
1573890740.050,-34.180,21.973,-1000.000,-131.348,-611.816
1573890740.054,7.324,33.691,-499.023,-45.410,-562.012
1573890740.058,98.633,31.250,-976.562,162.598,562.988
1573890740.062,82.520,33.203,775.879,122.559,733.398
1573890740.066,-14.648,39.551,-754.883,-96.191,-404.297
1573890740.070,-18.555,26.855,-948.730,-92.773,-787.109
1573890740.074,84.961,25.879,505.371,133.789,242.676
1573890740.078,110.352,28.320,-869.141,177.734,899.902
1573890740.082,12.695,20.508,-184.570,-35.645,-119.141
1573890740.086,-31.738,19.531,-1000.000,-120.117,-818.359
1573890740.090,49.805,13.184,-70.801,67.871,-106.445
1573890740.093,106.934,12.695,-772.461,183.105,930.176
1573890740.097,30.762,23.438,207.031,20.508,229.980
1573890740.101,-46.875,15.625,-1000.000,-132.324,-802.246
1573890740.105,12.695,5.859,-282.227,-0.977,-445.801
1573890740.109,103.027,5.859,-804.688,183.105,802.246
1573890740.113,59.570,8.789,446.777,85.449,540.039
1573890740.117,-35.645,6.836,-1000.000,-119.141,-612.305
1573890740.121,-13.184,0.000,-596.191,-53.223,-647.461
1573890740.125,73.242,5.371,938.477,148.926,495.605
1573890740.129,59.570,3.906,889.648,121.582,767.090
1573890740.133,-39.551,-0.488,-601.562,-90.332,-353.027
1573890740.136,-49.805,-6.836,-1000.000,-112.305,-819.824
1573890740.140,50.293,-7.324,349.121,108.398,166.016
1573890740.144,79.590,-5.859,-812.988,171.387,921.387
1573890740.148,-10.742,-14.648,-41.504,-39.062,-50.781
1573890740.152,-55.176,-15.137,-1000.000,-139.648,-805.664
1573890740.156,26.367,-11.719,-121.582,51.758,-177.734
1573890740.160,91.797,-8.789,-772.461,189.453,950.195
1573890740.164,26.855,-4.883,225.098,26.367,278.809
1573890740.168,-50.293,-13.672,-1000.000,-138.184,-821.289
1573890740.172,9.277,-17.578,-375.488,-13.672,-479.492
1573890740.175,98.145,-13.184,-842.285,176.758,726.562
1573890740.179,63.477,-16.602,408.203,93.262,583.984
1573890740.183,-28.320,-12.695,-1000.000,-120.605,-584.961
1573890740.187,-13.672,-12.695,-720.703,-64.453,-734.375
1573890740.191,92.285,-0.977,784.180,166.992,417.969
1573890740.195,101.074,14.648,930.664,157.715,794.434
1573890740.199,-6.836,3.418,-542.480,-71.777,-290.527
1573890740.203,-32.715,-12.695,-1000.000,-109.375,-803.223
1573890740.207,62.012,-16.602,148.926,104.492,70.312
1573890740.211,104.004,-13.672,-797.852,184.082,936.523
1573890740.215,16.113,-16.602,36.133,-15.625,31.250
1573890740.218,-42.480,-14.648,-1000.000,-137.695,-854.980
1573890740.222,35.645,-5.371,-204.102,34.180,-324.219
1573890740.226,106.445,0.000,-787.109,182.129,882.324
1573890740.230,46.387,-7.812,295.410,40.039,470.215
1573890740.234,-30.273,-14.160,-1000.000,-133.301,-673.340
1573890740.238,18.555,-1.953,-511.230,-25.391,-590.332
1573890740.242,101.074,-6.348,-940.918,168.945,660.156
1573890740.246,62.500,-12.695,570.312,99.121,630.371
1573890740.250,-38.086,-6.836,-972.656,-115.234,-533.691
1573890740.254,-25.879,-4.395,-881.836,-86.914,-737.305
1573890740.258,79.102,-6.348,603.516,133.301,345.703
1573890740.261,86.914,-14.648,-997.559,150.879,852.051
1573890740.265,-13.184,-8.301,-430.664,-60.059,-242.188
1573890740.269,-44.434,2.930,-1000.000,-119.629,-832.031
1573890740.273,41.992,-4.395,-39.551,76.172,21.973
1573890740.277,87.891,-18.555,-790.039,178.223,966.797
1573890740.281,5.859,-11.719,123.535,1.465,149.414
1573890740.285,-54.688,0.000,-1000.000,-129.883,-779.297
1573890740.289,20.996,2.441,-238.281,29.785,-330.566
1573890740.293,98.633,3.418,-791.504,189.453,858.887
1573890740.297,40.039,-0.977,333.008,67.871,494.141
1573890740.300,-49.316,-12.207,-1000.000,-120.117,-656.250
1573890740.304,-10.254,-13.184,-540.039,-37.598,-601.562
1573890740.308,85.449,-9.277,-966.797,173.828,596.680
1573890740.312,70.801,-9.277,620.117,127.930,691.895
1573890740.316,-26.855,-10.254,-920.898,-98.145,-433.105
1573890740.320,-26.367,-15.625,-944.336,-94.727,-727.539
1573890740.324,74.707,-5.859,491.699,123.535,294.434
1573890740.328,93.262,11.719,-916.504,159.668,884.766
1573890740.332,3.906,14.160,-284.668,-50.293,-155.762
1573890740.336,-29.297,12.207,-1000.000,-126.465,-831.543
1573890740.340,63.477,15.137,-38.086,73.730,-91.309
1573890740.343,115.723,14.160,-775.391,181.641,975.586
1573890740.347,36.621,8.301,183.105,0.977,225.586
1573890740.351,-27.832,6.836,-1000.000,-142.578,-784.668
1573890740.355,33.203,4.883,-292.480,7.812,-387.207
1573890740.359,109.863,8.789,-807.617,182.129,788.574
1573890740.363,61.035,18.066,379.883,80.566,531.250
1573890740.367,-36.133,14.648,-1000.000,-114.746,-610.352
1573890740.371,-7.324,25.391,-618.164,-44.922,-674.805
1573890740.375,96.191,35.156,925.781,169.434,497.559
1573890740.379,87.891,34.668,810.547,142.090,746.094
1573890740.383,-10.254,24.414,-687.988,-89.355,-392.578
1573890740.386,-28.320,18.066,-1000.000,-108.887,-830.566
1573890740.390,60.059,24.902,247.070,115.234,158.691
1573890740.394,99.609,23.926,-840.332,174.316,917.969
1573890740.398,15.625,24.414,-95.703,-26.855,-110.352
1573890740.402,-31.738,31.250,-1000.000,-124.512,-904.785
1573890740.406,50.293,30.273,-133.789,60.547,-198.242
1573890740.410,109.375,25.391,-779.785,191.406,934.082
1573890740.414,41.016,17.090,233.398,32.715,307.129
1573890740.418,-32.227,19.043,-1000.000,-130.859,-724.121
1573890740.422,23.438,33.691,-393.555,-7.324,-459.961
1573890740.425,108.398,32.227,-854.980,179.199,744.141
1573890740.429,68.848,24.902,474.609,91.309,582.031
1573890740.433,-21.973,26.367,-1000.000,-116.699,-616.699
1573890740.437,0.488,35.156,-751.465,-65.918,-708.984
1573890740.441,95.703,30.762,798.828,148.926,448.730
1573890740.445,92.285,20.508,858.887,138.184,785.156
1573890740.449,-4.883,29.785,-639.160,-81.543,-361.328
1573890740.453,-15.137,35.156,-1000.000,-109.863,-875.977
1573890740.457,83.008,44.434,137.207,105.469,69.336
1573890740.461,118.652,36.133,-817.383,180.176,958.984
1573890740.465,29.785,21.973,-23.926,-14.648,30.762
1573890740.468,-26.855,39.551,-1000.000,-134.766,-875.000
1573890740.472,52.734,46.387,-165.039,45.410,-304.688
1573890740.476,123.047,46.875,-782.227,203.613,896.973
1573890740.480,66.895,50.781,261.719,63.477,383.301
1573890740.484,-12.695,46.875,-1000.000,-116.699,-715.820
1573890740.488,22.949,44.434,-430.176,-10.742,-532.715
1573890740.492,114.746,42.969,-888.184,191.406,679.199
1573890740.496,95.215,43.945,554.688,132.324,659.180
1573890740.500,-4.395,49.316,-972.656,-84.961,-539.062
1573890740.504,3.906,48.340,-871.582,-63.477,-769.043
1573890740.508,103.516,51.270,615.723,160.156,372.559
1573890740.511,110.840,65.918,-977.539,172.363,843.750
1573890740.515,8.789,67.871,-413.574,-43.945,-259.766
1573890740.519,-18.066,54.199,-1000.000,-92.773,-860.352
1573890740.523,77.637,44.922,52.246,107.422,6.348
1573890740.527,124.512,51.270,-787.598,198.242,973.633
1573890740.531,37.109,50.293,102.051,5.371,134.766
1573890740.535,-30.762,48.828,-1000.000,-127.930,-804.199
1573890740.539,44.434,58.105,-261.230,34.180,-361.816
1573890740.543,123.047,62.012,-802.734,194.336,859.375
1573890740.547,63.965,44.922,290.527,69.336,430.176
1573890740.550,-20.996,36.621,-1000.000,-112.793,-735.352
1573890740.554,20.020,47.852,-642.090,-17.090,-599.121
1573890740.558,114.258,50.293,912.598,183.594,606.934
1573890740.562,94.727,57.129,672.852,132.324,690.918
1573890740.566,-3.418,64.453,-888.672,-88.379,-461.914
1573890740.570,-6.836,52.734,-957.520,-81.543,-760.742
1573890740.574,93.750,51.758,485.352,139.160,288.086
1573890740.578,111.328,59.082,-927.246,174.316,880.371
1573890740.582,15.137,52.246,-306.152,-31.250,-174.316
1573890740.586,-20.996,37.109,-1000.000,-103.027,-875.000
1573890740.590,67.871,34.668,-44.922,99.121,-83.984
1573890740.593,120.117,37.109,-783.203,212.402,982.422
1573890740.597,33.691,43.945,151.367,32.227,215.332
1573890740.601,-44.922,47.852,-1000.000,-115.234,-759.766
1573890740.605,19.531,35.156,-284.668,29.297,-382.812
1573890740.609,104.004,27.832,-807.129,200.195,813.477
1573890740.613,54.199,31.738,347.168,89.844,547.852
1573890740.617,-44.434,37.598,-1000.000,-116.699,-606.445
1573890740.621,-16.602,42.480,-629.883,-57.129,-621.094
1573890740.625,84.473,53.223,921.387,158.691,536.621
1573890740.629,72.266,46.387,754.883,128.906,745.117
1573890740.633,-24.902,30.762,-754.883,-91.797,-393.066
1573890740.636,-27.832,35.645,-1000.000,-95.215,-846.191
1573890740.640,70.312,42.969,263.184,112.305,155.762
1573890740.644,94.727,42.969,-847.168,156.738,925.781
1573890740.648,-3.418,38.086,-110.840,-43.457,-62.988
1573890740.652,-42.969,48.340,-1000.000,-132.812,-843.750
1573890740.656,44.434,54.688,-120.605,58.105,-140.137
1573890740.660,104.492,49.316,-780.273,181.152,942.871
1573890740.664,33.203,45.410,205.566,18.066,222.656
1573890740.668,-42.480,37.598,-1000.000,-134.277,-804.199
1573890740.672,14.648,35.156,-370.117,0.977,-452.148
1573890740.675,106.445,31.738,-844.727,186.035,759.766
1573890740.679,72.266,37.598,453.613,98.145,597.168
1573890740.683,-28.320,43.945,-1000.000,-100.586,-583.008
1573890740.687,-7.812,42.969,-846.191,-48.340,-746.582
1573890740.691,93.262,51.758,632.812,165.527,410.645
1573890740.695,90.332,57.617,920.898,154.785,807.617
1573890740.699,-9.766,49.805,-580.078,-73.242,-318.848
1573890740.703,-29.785,46.387,-1000.000,-103.516,-868.652
1573890740.707,62.500,52.246,174.316,108.398,100.098
1573890740.711,103.516,53.711,-812.988,183.594,955.566
1573890740.715,30.762,37.598,-20.020,6.348,25.879
1573890740.718,-31.250,24.902,-1000.000,-111.328,-820.312
1573890740.722,36.621,30.273,-162.109,47.852,-270.996
1573890740.726,105.469,33.203,-779.785,197.754,912.598
1573890740.730,37.109,32.227,249.023,53.223,350.586
1573890740.734,-40.527,28.809,-1000.000,-119.141,-779.785
1573890740.738,3.906,26.367,-397.461,-5.371,-550.293
1573890740.742,90.820,41.992,-869.629,186.035,693.359
1573890740.746,57.617,46.387,559.082,100.586,649.414
1573890740.750,-38.086,38.086,-977.051,-112.793,-524.414
1573890740.754,-20.020,42.480,-825.195,-74.707,-732.910
1573890740.758,80.078,49.316,691.406,142.578,380.371
1573890740.761,87.402,41.016,988.770,149.902,848.145
1573890740.765,-9.277,29.785,-466.309,-67.383,-269.043
1573890740.769,-29.785,31.250,-1000.000,-118.164,-882.812
1573890740.773,67.383,39.062,95.215,91.797,36.133
1573890740.777,112.305,39.062,-784.668,192.871,984.863
1573890740.781,34.668,29.785,89.844,12.695,122.559
1573890740.785,-31.738,23.438,-1000.000,-116.699,-824.219
1573890740.789,31.738,24.902,-211.426,41.016,-324.707
1573890740.793,108.398,24.902,-782.715,195.312,888.184
1573890740.797,47.363,27.344,304.688,66.895,432.617
1573890740.800,-42.480,24.902,-1000.000,-115.234,-721.680
1573890740.804,1.953,20.508,-423.828,-16.602,-610.352
1573890740.808,94.238,25.879,-914.062,186.523,621.582
1573890740.812,70.801,32.227,746.582,132.324,719.727
1573890740.816,-33.203,30.273,-783.691,-85.449,-433.594
1573890740.820,-37.109,26.367,-920.410,-76.172,-797.852
1573890740.824,61.035,27.344,564.453,133.789,266.113
1573890740.828,79.102,24.902,-893.066,156.250,885.254
1573890740.832,-10.742,15.137,-243.652,-53.711,-198.242
1573890740.836,-47.852,17.578,-1000.000,-122.070,-888.184
1573890740.840,37.598,32.227,-41.992,68.359,-102.539
1573890740.843,99.609,30.273,-773.438,169.922,964.844
1573890740.847,25.879,40.527,188.965,0.000,170.410
1573890740.851,-45.410,56.152,-1000.000,-137.207,-909.180
1573890740.855,17.090,51.758,-265.625,9.766,-462.891
1573890740.859,97.168,59.082,-795.898,180.176,836.914
1573890740.863,55.664,68.848,397.461,67.383,520.996
1573890740.867,-32.227,63.477,-1000.000,-127.930,-636.719
1573890740.871,-8.789,60.547,-582.031,-48.340,-625.000
1573890740.875,88.379,62.988,969.238,162.109,538.574
1573890740.879,77.148,62.012,776.855,121.094,757.324
1573890740.883,-22.949,57.617,-738.770,-104.004,-400.391
1573890740.886,-25.879,52.246,-1000.000,-108.398,-789.062
1573890740.890,73.730,47.363,394.531,115.723,235.840
1573890740.894,104.004,56.152,-844.727,163.086,925.781
1573890740.898,6.348,54.199,-143.066,-51.270,-85.938
1573890740.902,-41.016,49.805,-1000.000,-137.207,-853.516
1573890740.906,45.898,56.152,-88.379,62.500,-152.344
1573890740.910,104.980,54.199,-775.391,191.406,952.637
1573890740.914,33.203,48.340,204.590,29.785,250.488
1573890740.918,-39.062,41.016,-1000.000,-131.348,-822.754
1573890740.922,21.484,43.457,-360.352,6.836,-503.906
1573890740.925,102.539,40.039,-836.426,200.195,739.746
1573890740.929,66.895,34.180,376.465,100.586,576.660
1573890740.933,-23.926,37.598,-1000.000,-107.910,-614.258
1573890740.937,-1.465,49.805,-708.984,-46.387,-716.309
1573890740.941,91.309,56.641,808.105,166.016,455.078
1573890740.945,82.031,49.316,888.672,152.832,783.203
1573890740.949,-8.789,44.922,-603.516,-69.824,-358.398
1573890740.953,-24.414,45.898,-1000.000,-105.469,-835.449
1573890740.957,69.824,41.992,192.383,104.492,152.832
1573890740.961,106.934,36.621,-812.500,177.734,964.355
1573890740.965,17.578,33.203,-16.602,-19.531,-16.602
1573890740.968,-33.203,29.785,-1000.000,-127.441,-862.305
1573890740.972,45.898,23.926,-178.711,49.805,-224.609
1573890740.976,112.793,30.273,-783.691,184.570,938.477
1573890740.980,41.504,39.062,271.484,32.715,371.582
1573890740.984,-43.945,40.039,-1000.000,-134.277,-742.188
1573890740.988,10.254,41.504,-465.332,-7.324,-516.602
1573890740.992,107.910,42.969,-907.715,187.012,705.078
1573890740.996,71.289,55.664,532.227,99.609,622.559
1573890741.000,-24.414,61.035,-1000.000,-110.352,-536.621
1573890741.004,-2.930,60.059,-837.891,-63.477,-727.539
1573890741.008,90.332,57.617,663.574,151.855,370.117
1573890741.011,94.727,54.688,983.887,166.016,836.426
1573890741.015,-0.488,51.758,-457.031,-46.387,-242.188
1573890741.019,-33.203,56.152,-1000.000,-104.004,-856.934
1573890741.023,50.781,59.082,-0.488,98.633,2.930
1573890741.027,96.191,54.199,-792.969,189.453,962.891
1573890741.031,18.066,50.781,89.355,4.883,86.914
1573890741.035,-39.062,60.059,-1000.000,-120.605,-818.359
1573890741.039,38.086,65.430,-208.008,40.527,-330.078
1573890741.043,117.188,62.988,-783.203,199.219,882.812
1573890741.047,61.523,62.012,311.523,70.801,427.246
1573890741.050,-25.391,59.570,-1000.000,-120.117,-774.414
1573890741.054,5.371,56.641,-480.469,-28.809,-615.234
1573890741.058,102.051,57.129,-917.480,177.734,624.023
1573890741.062,87.402,51.270,586.914,119.141,682.129
1573890741.066,-14.648,50.293,-953.125,-104.492,-516.602
1573890741.070,-12.207,53.223,-893.555,-93.750,-822.266
1573890741.074,85.938,46.875,582.520,126.465,318.848
1573890741.078,101.074,49.805,-962.402,153.809,869.629
1573890741.082,9.766,57.617,-364.258,-53.711,-224.609
1573890741.086,-22.461,55.664,-1000.000,-121.094,-883.301
1573890741.090,64.453,55.176,-10.742,82.520,-70.801
1573890741.093,117.676,59.570,-776.855,195.312,963.379
1573890741.097,39.551,51.758,166.992,22.461,204.102
1573890741.101,-34.180,42.969,-1000.000,-121.094,-812.012
1573890741.105,28.809,51.270,-271.973,20.508,-423.828
1573890741.109,105.957,56.641,-799.316,190.430,830.566
1573890741.113,57.617,49.805,349.609,78.613,530.273
1573890741.117,-29.785,42.480,-1000.000,-112.793,-615.234
1573890741.121,0.977,51.758,-567.871,-36.621,-597.168
1573890741.125,95.215,69.336,973.633,172.363,558.594
1573890741.129,81.055,69.336,773.438,132.812,751.953
1573890741.133,-19.043,53.223,-733.398,-81.543,-422.363
1573890741.136,-26.367,47.363,-1000.000,-79.102,-826.172
1573890741.140,75.684,48.828,324.219,140.625,236.328
1573890741.144,101.562,51.758,-862.793,183.594,916.992
1573890741.148,5.371,50.293,-162.598,-32.715,-125.977
1573890741.152,-38.086,44.922,-1000.000,-122.070,-898.438
1573890741.156,50.781,47.852,-119.629,73.242,-170.410
1573890741.160,114.258,56.152,-782.715,193.848,952.148
1573890741.164,43.945,54.688,211.914,21.973,257.324
1573890741.168,-34.668,48.340,-1000.000,-139.160,-789.551
1573890741.172,19.531,49.805,-373.535,-2.930,-459.473
1573890741.175,106.934,56.152,-843.262,185.547,769.043
1573890741.179,72.266,58.105,416.504,93.262,589.355
1573890741.183,-20.020,45.898,-1000.000,-106.934,-616.699
1573890741.187,1.465,40.527,-692.383,-48.828,-695.801
1573890741.191,99.121,46.875,850.098,166.016,491.699
1573890741.195,93.262,41.504,849.121,148.926,779.785
1573890741.199,-7.812,30.762,-645.508,-71.777,-354.004
1573890741.203,-19.531,31.738,-1000.000,-95.703,-830.566
1573890741.207,80.566,39.062,176.270,122.070,123.535
1573890741.211,107.422,34.180,-825.684,188.965,954.102
1573890741.215,11.719,29.785,-66.406,-14.648,31.738
1573890741.218,-31.738,37.109,-1000.000,-124.512,-852.051
1573890741.222,54.199,43.945,-132.812,65.918,-257.324
1573890741.226,115.234,43.457,-780.762,211.914,928.711
1573890741.230,52.246,43.945,223.633,58.594,350.586
1573890741.234,-28.809,41.504,-1000.000,-109.375,-732.910
1573890741.238,19.531,38.086,-402.344,7.812,-502.930
1573890741.242,115.234,41.016,-869.141,195.312,710.449
1573890741.246,78.613,41.992,509.766,120.605,638.184
1573890741.250,-24.902,38.574,-1000.000,-95.215,-567.383
1573890741.254,-11.719,33.203,-815.430,-68.848,-768.066
1573890741.258,90.332,35.645,703.125,152.832,418.457
1573890741.261,86.914,43.457,952.148,149.414,808.594
1573890741.265,-20.996,47.363,-520.020,-79.102,-304.199
1573890741.269,-41.504,45.898,-1000.000,-118.652,-804.688
1573890741.273,59.082,50.293,108.887,97.656,88.379
1573890741.277,108.887,55.664,-794.922,185.547,965.332
1573890741.281,36.133,56.641,63.477,-2.441,87.891
1573890741.285,-24.902,56.152,-1000.000,-126.465,-839.355
1573890741.289,50.781,52.734,-237.793,44.434,-365.723
1573890741.293,127.930,55.664,-797.852,202.637,866.699
1573890741.297,65.918,64.453,278.809,76.172,426.758
1573890741.300,-12.207,64.453,-1000.000,-102.539,-740.723
1573890741.304,30.273,55.176,-596.680,-13.184,-628.906
1573890741.308,108.398,49.316,963.867,185.547,617.188
1573890741.312,83.984,51.758,609.863,125.488,651.367
1573890741.316,-14.648,55.664,-949.219,-90.820,-534.668
1573890741.320,-12.695,61.523,-908.691,-72.266,-804.688
1573890741.324,92.773,62.988,541.504,152.832,293.457
1573890741.328,109.375,57.617,-936.523,176.270,890.625
1573890741.332,9.277,51.270,-326.660,-42.480,-190.918
1573890741.336,-24.902,48.828,-1000.000,-109.375,-884.766
1573890741.340,61.523,46.387,-19.531,89.844,-60.059
1573890741.343,112.793,47.363,-786.621,202.637,971.191
1573890741.347,41.504,53.223,118.652,27.832,168.945
1573890741.351,-24.414,49.805,-1000.000,-119.629,-765.137
1573890741.355,40.039,49.316,-264.160,34.180,-344.238
1573890741.359,124.023,49.316,-801.270,209.473,826.660
1573890741.363,74.219,55.664,330.078,90.332,494.141
1573890741.367,-21.973,62.500,-1000.000,-110.352,-605.957
1573890741.371,5.371,60.059,-572.266,-30.273,-545.898
