timestamps,TP9,AF7,AF8,TP10,Right AUX
1573890525.541,0.488,24.414,-32.227,-31.250,-42.480
1573890525.545,-48.340,20.020,-1000.000,-127.441,-789.062
1573890525.548,42.480,18.066,-110.352,60.547,-114.258
1573890525.552,110.840,35.645,-766.602,190.430,939.453
1573890525.556,33.203,38.574,254.395,32.227,297.852
1573890525.560,-46.875,31.250,-1000.000,-129.395,-747.070
1573890525.564,9.277,30.762,-325.195,-11.719,-499.512
1573890525.568,104.980,31.250,-831.543,171.875,714.844
1573890525.572,74.707,34.180,550.781,94.727,593.750
1573890525.576,-34.668,24.414,-1000.000,-122.559,-593.262
1573890525.580,-16.602,24.902,-681.152,-73.242,-734.375
1573890525.584,94.238,34.668,850.586,147.949,433.105
1573890525.588,88.379,27.832,-998.535,144.531,794.922
1573890525.591,-13.672,28.809,-447.754,-74.219,-339.355
1573890525.595,-26.367,23.438,-1000.000,-118.164,-831.543
1573890525.599,69.824,17.090,288.574,100.098,77.637
1573890525.603,107.422,27.832,-781.250,179.688,938.477
1573890525.607,13.672,21.973,42.480,-21.973,13.184
1573890525.611,-46.387,17.090,-1000.000,-130.371,-878.906
1573890525.615,32.227,21.484,-141.602,41.992,-303.711
1573890525.619,101.562,22.949,-766.602,190.430,896.484
1573890525.623,37.598,23.926,319.824,54.688,367.676
1573890525.627,-40.527,16.602,-1000.000,-128.906,-728.027
1573890525.631,5.371,13.672,-364.746,-22.461,-512.695
1573890525.634,93.750,19.531,-852.051,173.828,671.875
1573890525.638,65.918,22.949,605.469,95.703,640.137
1573890525.642,-39.551,20.508,-933.105,-113.770,-519.043
1573890525.646,-30.273,17.090,-767.578,-79.102,-732.910
1573890525.650,80.566,11.719,730.469,140.625,359.375
1573890525.654,88.867,14.648,-913.086,154.785,846.680
1573890525.658,-7.812,22.949,-288.574,-53.711,-235.352
1573890525.662,-32.227,12.695,-1000.000,-109.863,-840.820
1573890525.666,63.477,5.859,140.137,88.379,-12.695
1573890525.670,108.398,15.625,-760.254,182.617,944.336
1573890525.673,13.672,22.949,156.738,-8.789,118.164
1573890525.677,-51.758,23.438,-1000.000,-137.695,-797.363
1573890525.681,20.508,22.949,-222.656,26.855,-303.711
1573890525.685,98.633,24.902,-780.273,192.871,869.629
1573890525.689,42.969,22.461,378.906,71.289,459.961
1573890525.693,-49.316,17.578,-1000.000,-118.164,-679.199
1573890525.697,-12.695,14.160,-446.289,-31.738,-585.449
1573890525.701,88.867,6.836,-903.320,174.316,605.957
1573890525.705,75.684,19.531,693.359,127.441,688.965
1573890525.709,-23.926,36.621,-815.918,-88.379,-482.910
1573890525.713,-29.785,38.086,-970.215,-86.426,-810.059
1573890525.716,68.359,33.203,458.984,127.930,256.348
1573890525.720,96.191,30.273,-852.051,168.945,887.695
1573890525.724,-4.395,25.391,-164.062,-39.062,-125.977
1573890525.728,-34.668,20.020,-1000.000,-113.281,-826.660
1573890525.732,61.523,26.855,-5.371,86.914,-88.867
1573890525.736,106.934,22.949,-763.184,196.777,954.102
1573890525.740,22.949,19.043,192.871,13.672,184.082
1573890525.744,-43.457,23.438,-1000.000,-127.441,-814.941
1573890525.748,26.855,27.832,-287.109,14.160,-432.617
1573890525.752,110.352,34.668,-802.734,183.594,792.480
1573890525.756,70.801,40.039,369.629,83.984,499.023
1573890525.759,-24.902,39.062,-1000.000,-117.676,-654.785
1573890525.763,-4.883,31.250,-588.867,-48.828,-625.977
1573890525.767,100.586,33.691,937.012,161.133,518.066
1573890525.771,86.914,40.527,860.840,128.418,750.488
1573890525.775,-15.137,37.109,-648.926,-81.543,-312.988
1573890525.779,-25.391,32.715,-1000.000,-95.215,-730.469
1573890525.783,69.824,31.250,411.621,116.699,210.938
1573890525.787,103.516,30.273,-824.219,174.805,920.898
1573890525.791,0.977,26.367,-71.777,-40.039,-72.754
1573890525.795,-48.340,20.020,-1000.000,-124.512,-842.773
1573890525.798,41.016,25.879,-109.375,68.848,-153.320
1573890525.802,101.074,30.762,-768.066,188.965,947.266
1573890525.806,29.297,24.902,246.094,37.109,315.430
1573890525.810,-56.641,22.461,-1000.000,-130.371,-700.684
1573890525.814,4.395,19.043,-312.988,-6.836,-424.805
1573890525.818,103.027,20.020,-820.312,185.547,751.953
1573890525.822,59.570,29.297,501.953,93.750,576.172
1573890525.826,-30.762,30.273,-1000.000,-101.562,-608.398
1573890525.830,-1.953,18.066,-733.398,-42.480,-744.141
1573890525.834,91.309,13.672,796.875,160.645,448.730
1573890525.838,92.285,26.367,951.172,146.973,794.922
1573890525.841,-7.812,25.879,-503.418,-58.105,-316.895
1573890525.845,-33.691,27.344,-1000.000,-87.402,-857.422
1573890525.849,64.453,28.320,122.559,119.141,60.059
1573890525.853,104.004,31.738,-791.016,191.406,942.871
1573890525.857,12.207,27.344,54.688,-1.953,25.391
1573890525.861,-45.898,20.020,-1000.000,-116.211,-808.105
1573890525.865,40.039,31.250,-142.578,54.688,-227.051
1573890525.869,123.047,32.227,-766.602,199.219,908.691
1573890525.873,60.059,18.555,291.992,51.758,357.910
1573890525.877,-30.762,8.789,-1000.000,-122.070,-692.383
1573890525.881,19.531,21.973,-375.977,-10.742,-495.605
1573890525.884,120.117,35.156,-848.633,187.500,671.387
1573890525.888,84.961,28.320,553.223,116.699,610.840
1573890525.892,-21.973,25.879,-984.375,-105.469,-562.500
1573890525.896,-12.207,35.645,-788.086,-76.660,-733.398
1573890525.900,94.238,45.410,734.863,145.020,373.047
1573890525.904,105.469,44.922,986.816,156.738,809.570
1573890525.908,-0.488,37.598,-460.938,-54.688,-223.145
1573890525.912,-28.809,41.504,-1000.000,-104.980,-789.062
1573890525.916,73.730,43.945,95.215,105.469,10.254
1573890525.920,120.117,49.316,-775.391,199.219,941.406
1573890525.923,23.926,52.246,129.395,15.137,107.910
1573890525.927,-46.875,46.387,-1000.000,-115.234,-746.094
1573890525.931,9.766,46.387,-226.562,19.531,-292.480
1573890525.935,71.777,38.086,-786.133,161.133,865.723
1573890525.939,20.508,44.922,300.293,42.969,471.191
1573890525.943,-76.660,56.152,-1000.000,-150.879,-714.844
1573890525.947,-54.688,61.035,-507.324,-68.848,-592.773
1573890525.951,33.203,67.383,-945.801,113.770,640.625
1573890525.955,-16.113,72.754,611.328,24.902,675.781
1573890525.959,-153.320,69.824,-910.645,-210.449,-489.258
1573890525.963,-165.527,73.242,-965.332,-207.031,-796.875
1573890525.966,-73.730,83.496,467.773,-11.230,301.270
1573890525.970,-82.520,84.473,-961.426,-7.324,879.883
1573890525.974,-197.266,96.191,-358.398,-235.352,-147.949
1573890525.978,-239.746,92.773,-1000.000,-314.941,-837.891
1573890525.982,-158.203,87.891,-94.238,-125.488,-95.703
1573890525.986,-105.957,105.957,-803.223,-24.902,950.195
1573890525.990,-193.848,108.887,118.164,-207.031,203.125
1573890525.994,-264.160,105.957,-1000.000,-347.168,-738.281
1573890525.998,-185.059,111.328,-298.828,-190.430,-336.914
1573890526.002,-95.703,109.375,-818.848,-12.207,832.520
1573890526.006,-131.836,99.609,368.652,-110.352,521.484
1573890526.009,-211.914,92.285,-1000.000,-291.016,-579.590
1573890526.013,-165.039,81.543,-684.082,-204.102,-582.520
1573890526.017,-43.457,68.848,869.141,22.461,547.852
1573890526.021,-37.598,65.918,817.383,0.977,738.281
1573890526.025,-134.766,61.523,-740.723,-210.938,-384.766
1573890526.029,-131.348,56.152,-987.305,-201.660,-750.488
1573890526.033,-14.648,55.176,423.340,28.809,251.953
1573890526.037,32.715,54.688,-851.074,97.656,905.273
1573890526.041,-52.246,40.527,-127.930,-92.285,-116.211
1573890526.045,-97.656,23.926,-1000.000,-177.734,-875.488
1573890526.048,10.254,28.320,-91.309,23.926,-159.180
1573890526.052,90.820,21.973,-773.926,157.227,934.570
1573890526.056,20.996,10.742,199.707,-0.488,234.863
1573890526.060,-40.527,8.789,-1000.000,-147.461,-772.461
1573890526.064,34.668,6.836,-300.781,-3.418,-426.270
1573890526.068,140.625,13.184,-814.941,194.824,763.672
1573890526.072,112.305,18.555,437.500,115.723,553.711
1573890526.076,21.973,16.602,-1000.000,-73.730,-561.523
1573890526.080,46.875,9.277,-704.590,-14.648,-662.598
1573890526.084,146.484,-1.953,848.633,203.613,442.871
1573890526.088,157.227,-11.719,845.215,196.777,793.457
1573890526.091,55.664,-12.695,-666.016,-33.691,-308.594
1573890526.095,36.621,-16.113,-1000.000,-56.152,-801.270
1573890526.099,143.066,-17.578,270.508,168.457,139.160
1573890526.103,184.570,-8.789,-809.082,233.398,933.594
1573890526.107,100.586,-6.836,-16.602,39.551,-41.016
1573890526.111,42.480,-10.742,-1000.000,-64.453,-868.164
1573890526.115,127.930,-7.812,-145.020,119.141,-242.188
1573890526.119,196.777,-0.488,-775.391,265.625,902.832
1573890526.123,126.465,1.465,245.117,117.188,343.750
1573890526.127,62.500,-6.836,-1000.000,-47.363,-807.129
1573890526.131,114.258,-9.766,-433.594,64.453,-588.867
1573890526.134,199.219,0.977,-897.461,249.023,684.082
1573890526.138,163.574,-2.441,558.105,174.805,637.695
1573890526.142,60.547,-17.090,-997.070,-28.320,-496.582
1573890526.146,72.266,-10.254,-776.855,9.766,-640.625
1573890526.150,177.246,6.348,731.445,223.145,439.453
1573890526.154,195.312,13.184,-985.840,228.027,831.543
1573890526.158,87.891,14.160,-420.410,19.531,-225.098
1573890526.162,56.641,4.395,-1000.000,-35.156,-799.316
1573890526.166,160.156,2.930,152.344,161.133,55.176
1573890526.170,187.012,4.395,-781.738,250.977,952.637
1573890526.173,83.008,2.441,67.383,58.594,98.145
1573890526.177,29.785,0.000,-1000.000,-71.777,-786.133
1573890526.181,97.656,-4.395,-178.711,87.891,-289.551
1573890526.185,162.109,5.859,-774.414,232.422,893.066
1573890526.189,108.887,19.531,325.195,95.215,418.457
1573890526.193,20.996,17.090,-1000.000,-93.750,-707.520
1573890526.197,58.105,13.184,-416.504,9.277,-542.969
1573890526.201,149.414,21.484,-875.000,212.402,643.555
1573890526.205,116.211,22.949,612.305,139.160,660.645
1573890526.209,14.648,27.832,-930.664,-60.059,-467.773
1573890526.213,13.184,30.273,-861.328,-39.551,-720.703
1573890526.216,100.586,21.484,663.574,157.715,338.379
1573890526.220,111.328,26.367,978.027,168.945,827.637
1573890526.224,-5.371,33.691,-462.891,-68.848,-199.707
1573890526.228,-68.848,35.645,-1000.000,-146.484,-785.645
1573890526.232,7.324,41.992,18.066,38.086,-12.695
1573890526.236,46.387,54.688,-779.785,116.699,954.102
1573890526.240,-61.523,55.664,150.391,-85.938,150.391
1573890526.244,-155.273,58.105,-1000.000,-235.840,-789.551
1573890526.248,-95.703,77.637,-245.605,-90.332,-370.117
1573890526.252,-20.020,81.055,-791.504,55.176,824.707
1573890526.256,-90.820,71.777,350.098,-79.102,485.352
1573890526.259,-209.961,82.520,-1000.000,-281.250,-635.742
1573890526.263,-190.430,94.727,-617.676,-205.078,-616.699
1573890526.267,-89.355,99.121,947.266,-1.953,554.199
1573890526.271,-99.609,99.121,696.777,-54.199,727.539
1573890526.275,-211.426,100.586,-821.777,-272.461,-390.625
1573890526.279,-221.191,101.562,-1000.000,-271.484,-776.855
1573890526.283,-103.516,91.309,312.988,-46.875,230.469
1573890526.287,-54.199,80.078,-859.375,8.301,903.809
1573890526.291,-133.301,83.496,-171.387,-193.359,-116.699
1573890526.295,-167.969,83.008,-1000.000,-260.254,-821.777
1573890526.298,-72.754,80.078,-52.734,-57.617,-88.379
1573890526.302,5.371,80.566,-770.020,71.777,951.660
1573890526.306,-45.898,71.777,201.660,-64.941,227.539
1573890526.310,-108.887,62.012,-1000.000,-205.078,-745.117
1573890526.314,-38.574,48.828,-312.012,-66.406,-399.414
1573890526.318,68.359,45.410,-819.336,134.766,770.020
1573890526.322,48.340,47.852,470.215,63.477,555.176
1573890526.326,-31.738,30.762,-1000.000,-120.117,-570.312
1573890526.330,-3.418,15.137,-601.562,-62.988,-600.098
1573890526.334,108.398,21.973,937.988,158.691,520.020
1573890526.338,124.512,25.391,895.020,154.785,768.555
1573890526.341,25.879,11.719,-592.773,-55.664,-369.629
1573890526.345,7.812,6.836,-1000.000,-72.754,-779.785
1573890526.349,114.746,4.883,340.820,154.785,188.965
1573890526.353,163.086,3.418,-824.219,232.910,924.805
1573890526.357,73.242,-3.418,-85.938,32.715,-46.875
1573890526.361,16.602,-10.742,-1000.000,-58.594,-867.188
1573890526.365,104.980,-11.230,-98.633,129.395,-222.168
1573890526.369,184.570,-15.625,-771.484,258.301,929.688
1573890526.373,123.535,-12.695,212.402,117.676,311.035
1573890526.377,32.715,-2.441,-1000.000,-53.711,-791.016
1573890526.381,88.867,-4.395,-335.938,61.035,-541.016
1573890526.384,193.848,-0.977,-839.844,260.742,706.543
1573890526.388,152.832,-3.906,537.598,176.270,602.051
1573890526.392,56.641,-9.766,-999.512,-26.855,-555.664
1573890526.396,79.102,0.488,-760.254,21.973,-713.379
1573890526.400,163.086,-1.953,775.879,236.328,399.414
1573890526.404,166.992,-5.371,963.867,229.980,829.590
1573890526.408,70.312,-3.418,-503.906,8.789,-277.344
1573890526.412,50.781,-4.395,-1000.000,-32.227,-829.102
1573890526.416,146.484,-8.301,188.965,172.363,88.379
1573890526.420,186.035,-4.883,-784.180,266.602,926.270
1573890526.423,99.609,-4.395,70.312,83.984,47.363
1573890526.427,41.504,-6.348,-1000.000,-55.664,-786.133
1573890526.431,121.094,5.371,-201.660,111.816,-292.480
1573890526.435,193.359,14.648,-783.691,261.719,863.281
1573890526.439,134.766,8.789,328.125,120.605,427.734
1573890526.443,49.805,6.348,-1000.000,-52.734,-611.816
1573890526.447,86.426,2.930,-501.465,50.781,-481.934
1573890526.451,179.688,-1.953,-948.242,246.094,643.066
1573890526.455,160.156,7.812,639.160,189.453,639.648
1573890526.459,47.852,7.324,-884.766,-26.367,-465.332
1573890526.463,46.875,1.465,-941.895,-4.883,-694.336
1573890526.466,152.832,4.395,505.371,211.426,329.102
1573890526.470,159.668,14.160,-901.855,222.656,836.914
1573890526.474,55.176,17.090,-296.875,8.789,-227.539
1573890526.478,24.902,19.043,-1000.000,-51.758,-841.797
1573890526.482,122.070,23.926,103.027,146.973,-18.066
1573890526.486,168.457,26.367,-760.254,233.887,967.285
1573890526.490,78.613,19.531,167.969,51.270,164.551
1573890526.494,12.207,1.465,-1000.000,-80.078,-786.621
1573890526.498,81.543,11.230,-228.516,73.242,-353.516
1573890526.502,156.250,30.762,-779.785,242.676,841.797
1573890526.506,101.074,14.648,351.074,114.746,479.492
1573890526.509,11.719,7.324,-1000.000,-86.914,-671.387
1573890526.513,40.527,21.484,-453.125,0.000,-594.238
1573890526.517,140.625,28.809,-904.785,210.938,604.004
1573890526.521,127.441,26.855,656.250,155.273,695.801
1573890526.525,18.066,16.602,-885.254,-72.266,-452.637
1573890526.529,5.371,16.113,-874.023,-63.477,-744.141
1573890526.533,105.957,20.508,574.219,148.926,300.781
1573890526.537,125.488,17.578,-857.910,180.664,870.605
1573890526.541,27.344,16.113,-129.395,-20.996,-145.508
1573890526.545,-7.324,12.695,-1000.000,-94.238,-828.125
1573890526.548,83.496,20.020,-36.133,93.262,-95.703
1573890526.552,143.066,26.855,-767.090,206.543,937.500
1573890526.556,63.965,22.461,169.922,39.062,191.406
1573890526.560,-9.766,20.020,-1000.000,-106.934,-750.000
1573890526.564,56.152,23.438,-265.137,42.969,-366.211
1573890526.568,145.996,30.762,-803.223,220.703,789.551
1573890526.572,92.773,29.785,454.102,103.516,548.340
1573890526.576,-10.254,23.438,-1000.000,-96.191,-572.266
1573890526.580,19.043,23.926,-626.465,-28.320,-650.879
1573890526.584,111.816,32.227,917.480,175.781,500.488
1573890526.588,102.539,34.180,868.164,147.461,765.625
1573890526.591,4.395,23.926,-609.375,-70.312,-346.191
1573890526.595,-8.789,16.602,-1000.000,-85.449,-799.805
1573890526.599,87.402,17.578,229.004,129.395,159.668
1573890526.603,120.605,27.344,-812.500,190.430,904.785
1573890526.607,32.715,21.484,-34.668,-11.719,-55.664
1573890526.611,-16.113,14.648,-1000.000,-111.328,-787.598
1573890526.615,73.242,31.250,-100.586,80.078,-159.668
1573890526.619,132.324,36.133,-764.160,209.961,927.734
1573890526.623,52.734,32.715,246.094,52.734,308.105
1573890526.627,-24.414,23.926,-1000.000,-109.863,-718.262
1573890526.631,25.879,19.531,-318.848,9.766,-440.430
1573890526.634,117.188,27.832,-816.406,200.195,744.141
1573890526.638,83.008,30.273,459.961,108.887,576.660
1573890526.642,-14.648,25.391,-1000.000,-99.121,-566.895
1573890526.646,3.906,19.531,-674.316,-36.621,-656.738
1573890526.650,104.980,21.484,859.863,184.082,453.613
1573890526.654,101.074,23.438,932.617,167.480,805.664
1573890526.658,-3.906,20.996,-559.082,-45.410,-281.738
1573890526.662,-18.555,21.484,-1000.000,-81.055,-781.738
1573890526.666,76.172,20.020,267.578,126.465,127.441
1573890526.670,105.957,25.879,-801.270,201.660,932.617
1573890526.673,23.438,25.391,11.719,0.977,36.621
1573890526.677,-26.855,20.996,-1000.000,-110.840,-791.016
1573890526.681,41.992,24.902,-146.484,63.965,-242.676
1573890526.685,113.281,27.344,-770.020,206.055,909.668
1573890526.689,62.988,26.855,286.133,60.059,359.375
1573890526.693,-25.879,16.113,-1000.000,-118.652,-696.777
1573890526.697,15.625,14.160,-374.023,-10.742,-477.051
1573890526.701,111.328,23.438,-857.910,183.594,687.988
1573890526.705,76.172,20.996,600.586,112.305,613.770
1573890526.709,-23.438,20.508,-941.406,-96.191,-561.035
1573890526.713,-11.230,18.066,-803.711,-72.754,-761.719
1573890526.716,88.379,20.508,702.637,151.367,352.051
1573890526.720,94.727,22.949,-946.289,168.457,832.520
1573890526.724,-5.371,15.137,-325.684,-42.969,-209.473
1573890526.728,-24.414,14.648,-1000.000,-92.285,-770.020
1573890526.732,71.777,21.973,37.109,104.492,21.484
1573890526.736,115.723,31.738,-776.855,197.754,929.199
1573890526.740,30.762,31.250,137.695,10.254,118.164
1573890526.744,-39.062,29.297,-1000.000,-114.258,-758.789
1573890526.748,36.621,32.715,-258.301,41.016,-327.148
1573890526.752,117.188,32.715,-795.898,187.500,826.172
1573890526.756,56.152,30.273,368.652,62.988,469.727
1573890526.759,-37.598,24.414,-1000.000,-121.094,-595.215
1573890526.763,-2.441,28.320,-450.684,-29.785,-527.832
1573890526.767,96.680,36.621,-915.039,176.758,605.957
1573890526.771,78.613,31.250,709.473,125.977,696.777
1573890526.775,-25.391,24.414,-823.730,-91.309,-467.285
1573890526.779,-28.320,22.949,-909.668,-84.473,-753.418
1573890526.783,73.242,22.949,556.641,133.789,315.918
1573890526.787,96.191,22.461,-876.953,166.016,870.605
1573890526.791,-1.953,26.367,-206.543,-41.992,-152.344
1573890526.795,-40.039,26.855,-1000.000,-107.422,-793.457
1573890526.798,61.035,28.809,20.508,94.238,-47.363
1573890526.802,119.141,34.180,-762.695,196.777,958.496
1573890526.806,37.598,31.250,178.223,25.879,180.176
1573890526.810,-32.227,30.762,-1000.000,-114.258,-787.109
1573890526.814,27.832,22.949,-242.188,25.879,-353.027
1573890526.818,117.676,16.113,-789.062,197.754,816.895
1573890526.822,77.148,21.973,408.203,94.727,512.695
1573890526.826,-18.555,25.391,-1000.000,-102.051,-644.531
1573890526.830,4.883,24.414,-547.852,-34.668,-650.391
1573890526.834,101.562,20.996,987.793,172.852,526.855
1573890526.838,87.402,20.020,845.215,131.348,736.328
1573890526.841,-20.508,18.555,-677.734,-86.426,-367.188
1573890526.845,-30.762,13.672,-945.801,-94.238,-758.789
1573890526.849,65.430,19.043,498.535,119.141,207.520
1573890526.853,95.703,27.832,-816.406,173.340,894.043
1573890526.857,0.488,14.648,-53.711,-28.809,-93.262
1573890526.861,-50.781,6.836,-1000.000,-118.652,-848.633
1573890526.865,36.621,19.531,-41.992,64.453,-146.484
1573890526.869,102.539,26.855,-756.836,188.477,949.707
1573890526.873,28.809,20.996,232.422,27.832,284.668
1573890526.877,-58.594,11.719,-1000.000,-136.230,-696.289
1573890526.881,0.977,11.230,-298.828,-4.883,-430.176
1573890526.884,90.332,18.555,-826.172,170.410,735.352
1573890526.888,47.363,24.902,571.289,76.660,566.406
1573890526.892,-45.898,22.461,-984.863,-123.535,-573.242
1573890526.896,-18.066,20.508,-678.223,-73.730,-641.602
1573890526.900,89.355,24.902,871.094,148.438,482.910
1573890526.904,83.984,26.367,977.539,134.766,780.762
1573890526.908,-17.578,26.367,-490.234,-86.426,-357.422
1573890526.912,-31.250,26.855,-1000.000,-110.352,-803.223
1573890526.916,69.824,33.691,354.004,108.887,153.320
1573890526.920,106.934,30.762,-788.574,180.176,935.059
1573890526.923,11.230,18.066,21.973,-27.832,-54.688
1573890526.927,-45.898,20.996,-1000.000,-139.648,-834.473
1573890526.931,34.668,25.391,-133.789,36.133,-169.434
1573890526.935,110.352,27.344,-765.137,183.105,903.320
1573890526.939,52.246,32.227,304.688,48.828,341.797
1573890526.943,-29.785,27.344,-1000.000,-118.652,-679.199
1573890526.947,23.926,27.344,-344.727,-5.859,-481.445
1573890526.951,119.629,37.598,-833.984,186.035,692.871
1573890526.955,91.797,45.898,566.895,112.305,619.141
1573890526.959,-4.883,45.898,-976.074,-93.750,-493.652
1573890526.963,14.160,45.410,-748.535,-57.617,-627.441
1573890526.966,120.117,50.781,789.551,163.086,425.781
1573890526.970,121.582,44.922,962.891,163.574,827.148
1573890526.974,12.207,41.016,-494.629,-64.941,-261.719
1573890526.978,-18.555,36.621,-1000.000,-111.816,-849.121
1573890526.982,83.496,26.367,166.504,100.586,29.297
1573890526.986,126.953,38.574,-772.461,188.965,940.918
1573890526.990,31.250,45.410,108.887,-0.488,110.352
1573890526.994,-37.598,41.016,-1000.000,-124.512,-761.230
1573890526.998,40.039,47.852,-172.852,42.969,-270.508
1573890527.002,121.582,49.316,-771.484,187.988,874.023
1573890527.006,63.477,42.969,335.449,43.457,428.223
1573890527.009,-25.879,41.992,-1000.000,-123.535,-643.555
1573890527.013,14.160,43.457,-477.051,-19.043,-557.617
1573890527.017,115.234,34.668,-925.781,179.199,616.699
1573890527.021,98.633,37.109,677.734,120.605,640.137
1573890527.025,-11.719,43.945,-854.980,-97.168,-478.027
1573890527.029,-6.348,34.668,-907.715,-76.172,-730.469
1573890527.033,105.469,34.180,538.574,144.531,287.109
1573890527.037,116.211,45.410,-898.438,166.992,842.773
1573890527.041,13.184,41.504,-240.723,-43.457,-172.363
1573890527.045,-20.020,40.039,-1000.000,-111.816,-833.984
1573890527.048,69.824,45.898,0.000,82.520,-94.238
1573890527.052,118.164,39.551,-766.113,191.406,936.035
1573890527.056,37.598,34.668,178.711,14.648,183.105
1573890527.060,-28.809,34.180,-1000.000,-128.906,-807.617
1573890527.064,36.621,37.109,-262.695,20.508,-439.453
1573890527.068,110.352,30.762,-795.410,185.547,787.109
1573890527.072,55.664,20.020,409.180,66.895,513.184
1573890527.076,-34.668,22.461,-1000.000,-119.629,-609.863
1573890527.080,6.348,31.250,-517.090,-24.414,-592.773
1573890527.084,100.586,32.715,-973.145,172.363,562.012
1573890527.088,82.031,24.902,797.852,116.211,721.680
1573890527.091,-21.973,24.902,-726.074,-96.191,-448.242
1573890527.095,-33.203,31.738,-960.938,-98.633,-826.172
1573890527.099,72.266,35.645,498.047,116.211,246.094
1573890527.103,96.680,34.668,-864.746,166.016,882.812
1573890527.107,-7.324,28.320,-186.035,-50.293,-147.949
1573890527.111,-57.129,31.738,-1000.000,-136.719,-837.402
1573890527.115,36.133,26.367,-49.805,56.152,-124.512
1573890527.119,106.934,21.973,-772.949,177.734,923.340
1573890527.123,32.715,35.645,177.246,18.066,240.723
1573890527.127,-40.527,34.668,-1000.000,-143.066,-730.957
1573890527.131,18.066,32.715,-284.180,-10.254,-400.879
1573890527.134,109.375,41.504,-812.988,177.734,764.160
1573890527.138,74.707,40.527,485.352,84.473,549.316
1573890527.142,-27.344,31.250,-1000.000,-124.023,-561.523
1573890527.146,-8.789,39.062,-619.629,-65.430,-665.039
1573890527.150,90.820,40.527,931.152,156.250,473.145
1573890527.154,85.938,29.297,877.930,133.301,753.906
1573890527.158,-21.484,27.344,-620.117,-86.426,-352.051
1573890527.162,-32.227,29.297,-1000.000,-94.727,-795.898
1573890527.166,75.195,35.156,339.844,120.117,118.164
1573890527.170,105.469,36.133,-803.711,179.688,910.645
1573890527.173,3.418,28.320,-10.742,-25.391,-35.645
1573890527.177,-50.781,30.273,-1000.000,-126.465,-827.637
1573890527.181,42.969,38.086,-133.301,55.176,-216.309
1573890527.185,117.188,42.480,-770.020,186.523,903.320
1573890527.189,48.828,34.668,271.973,44.922,351.562
1573890527.193,-28.320,28.809,-1000.000,-115.234,-670.410
1573890527.197,28.809,34.668,-371.094,11.230,-421.875
1573890527.201,119.141,35.645,-840.820,207.031,731.445
1573890527.205,84.473,37.598,488.281,120.117,590.820
1573890527.209,-8.301,30.273,-1000.000,-89.844,-550.781
1573890527.213,16.113,34.668,-829.590,-46.387,-695.801
1573890527.216,122.070,51.758,653.809,165.527,409.668
1573890527.220,123.535,48.828,996.582,158.203,804.199
1573890527.224,20.020,43.945,-468.262,-60.547,-287.109
1573890527.228,-4.883,35.156,-1000.000,-102.539,-824.707
1573890527.232,92.773,39.551,175.781,102.539,46.875
1573890527.236,141.602,55.664,-779.297,185.059,940.918
1573890527.240,51.270,55.176,93.262,-5.859,62.500
1573890527.244,-17.578,51.270,-1000.000,-128.906,-762.207
1573890527.248,46.875,54.199,-196.777,36.621,-210.449
1573890527.252,120.605,52.246,-776.367,184.570,895.020
1573890527.256,65.430,41.992,291.504,50.293,363.770
1573890527.259,-28.809,37.109,-1000.000,-129.395,-714.355
1573890527.263,11.719,38.086,-386.719,-27.832,-494.629
1573890527.267,112.305,42.969,-862.305,174.316,664.551
1573890527.271,77.637,41.504,576.660,108.887,643.555
1573890527.275,-32.715,32.715,-954.102,-104.004,-530.273
1573890527.279,-27.344,35.156,-818.848,-77.148,-775.391
1573890527.283,69.336,41.992,668.457,139.160,345.215
1573890527.287,77.148,41.016,-922.363,154.297,872.559
1573890527.291,-23.438,38.086,-291.992,-67.383,-178.223
1573890527.295,-49.316,39.062,-1000.000,-128.418,-810.547
1573890527.298,42.480,41.992,32.715,75.195,5.371
1573890527.302,90.820,43.945,-782.715,169.922,949.219
1573890527.306,13.184,43.457,107.422,-14.648,143.066
1573890527.310,-50.293,42.480,-1000.000,-144.531,-743.164
1573890527.314,20.020,41.992,-217.285,15.625,-314.453
1573890527.318,99.121,44.434,-784.668,176.270,836.914
1573890527.322,42.480,42.480,357.910,47.852,472.168
1573890527.326,-48.340,40.039,-1000.000,-140.137,-666.504
1573890527.330,-8.789,42.969,-542.480,-53.223,-628.906
1573890527.334,87.891,44.434,-996.582,150.879,568.359
1573890527.338,72.754,41.992,747.559,104.492,718.262
1573890527.341,-17.090,34.180,-757.812,-96.680,-379.883
1573890527.345,-19.043,35.645,-1000.000,-87.402,-754.395
1573890527.349,71.777,39.062,352.051,112.305,254.883
1573890527.353,101.074,24.902,-863.770,157.227,881.348
1573890527.357,8.301,21.973,-176.270,-44.434,-136.719
1573890527.361,-31.250,25.391,-1000.000,-123.047,-817.871
1573890527.365,71.777,23.926,-86.426,87.402,-117.188
1573890527.369,140.137,27.832,-774.902,217.773,945.312
1573890527.373,68.359,28.809,192.871,52.246,225.098
1573890527.377,-9.277,20.996,-1000.000,-97.656,-748.047
1573890527.381,52.246,20.020,-262.207,50.781,-359.375
1573890527.384,151.855,29.785,-794.922,239.746,815.918
1573890527.388,110.352,28.320,390.137,136.719,514.648
1573890527.392,9.766,21.484,-1000.000,-68.359,-637.695
1573890527.396,36.621,22.949,-593.262,-7.324,-640.625
1573890527.400,138.672,25.391,955.566,208.008,516.602
1573890527.404,129.883,27.344,804.199,185.059,748.047
1573890527.408,24.902,25.879,-715.820,-36.133,-407.227
1573890527.412,11.719,20.020,-1000.000,-54.199,-875.488
1573890527.416,113.281,25.391,372.559,160.156,137.695
1573890527.420,143.066,22.949,-845.215,209.961,928.223
1573890527.423,44.434,20.020,-116.211,-2.930,-67.383
1573890527.427,-9.277,29.297,-1000.000,-96.191,-848.145
1573890527.431,64.453,34.668,-85.449,81.055,-158.203
1573890527.435,128.418,31.738,-770.996,209.961,957.520
1573890527.439,59.570,26.367,208.008,57.617,311.035
1573890527.443,-24.902,26.367,-1000.000,-107.422,-684.570
1573890527.447,30.273,28.320,-312.012,16.602,-411.621
1573890527.451,122.070,32.227,-832.520,199.219,741.211
1573890527.455,84.473,29.785,559.570,109.375,628.418
1573890527.459,-15.625,27.344,-1000.000,-93.262,-537.109
1573890527.463,10.742,24.902,-626.953,-43.945,-655.762
1573890527.466,114.746,29.785,901.855,169.922,478.027
1573890527.470,108.887,36.133,989.746,159.668,789.551
1573890527.474,1.953,30.273,-442.871,-64.941,-306.641
1573890527.478,-17.090,30.762,-1000.000,-102.539,-771.484
1573890527.482,79.590,30.273,278.809,105.469,136.230
1573890527.486,107.422,21.973,-776.367,177.246,931.641
1573890527.490,14.160,20.020,102.051,-20.508,55.664
1573890527.494,-38.574,20.020,-1000.000,-129.883,-745.117
1573890527.498,43.457,23.438,-187.988,43.945,-286.133
1573890527.502,117.188,29.785,-771.973,194.336,862.305
1573890527.506,54.688,32.227,342.773,61.523,403.320
1573890527.509,-26.855,30.762,-1000.000,-111.328,-670.410
1573890527.513,22.461,25.879,-355.469,-5.859,-481.934
1573890527.517,112.305,23.926,-853.516,186.523,675.293
1573890527.521,78.613,17.090,657.715,114.746,613.770
1573890527.525,-23.926,20.508,-886.230,-98.633,-517.578
1573890527.529,-15.137,31.250,-781.250,-69.824,-733.398
1573890527.533,86.914,36.621,738.770,145.996,347.168
1573890527.537,92.773,38.574,-929.199,155.762,832.520
1573890527.541,-20.508,29.297,-310.059,-67.383,-243.652
1573890527.545,-51.758,24.902,-1000.000,-120.605,-838.379
1573890527.548,46.875,36.621,145.020,83.496,15.137
1573890527.552,91.797,38.574,-761.719,173.340,961.426
1573890527.556,0.000,29.297,131.348,-16.602,107.910
1573890527.560,-68.848,28.809,-1000.000,-150.879,-815.918
1573890527.564,8.789,33.203,-185.059,15.625,-339.844
1573890527.568,95.703,34.668,-772.461,184.570,872.559
1573890527.572,51.270,26.855,319.824,67.871,446.289
1573890527.576,-30.762,26.855,-1000.000,-117.188,-671.387
1573890527.580,8.301,46.875,-486.328,-29.297,-558.594
1573890527.584,106.445,51.758,-919.922,173.340,607.422
1573890527.588,101.562,47.852,592.773,134.766,659.668
1573890527.591,15.625,54.199,-953.125,-69.824,-511.230
1573890527.595,15.625,55.664,-858.398,-64.941,-774.414
1573890527.599,124.023,61.035,590.332,157.715,296.875
1573890527.603,149.414,64.941,-886.230,195.312,879.395
1573890527.607,47.852,61.035,-216.309,-18.066,-181.641
1573890527.611,6.348,58.105,-1000.000,-89.844,-864.746
1573890527.615,101.562,60.547,14.648,112.305,-78.613
1573890527.619,155.762,56.152,-769.043,217.285,948.242
1573890527.623,66.895,51.270,165.527,35.156,181.152
1573890527.627,-3.418,54.199,-1000.000,-103.516,-807.129
1573890527.631,62.500,59.570,-292.969,44.434,-441.895
1573890527.634,145.020,55.664,-811.035,206.055,786.133
1573890527.638,92.773,49.316,416.992,92.285,528.809
1573890527.642,-13.184,44.922,-1000.000,-100.586,-625.000
1573890527.646,13.672,48.828,-608.887,-26.855,-614.258
1573890527.650,114.746,52.734,944.824,179.688,545.410
1573890527.654,98.145,48.340,825.195,139.648,741.699
1573890527.658,-7.812,44.434,-700.195,-79.102,-402.344
1573890527.662,-18.066,47.852,-1000.000,-80.078,-815.918
1573890527.666,83.496,48.828,402.832,137.695,213.379
1573890527.670,106.445,43.457,-844.727,177.246,931.152
1573890527.673,1.953,41.992,-125.488,-30.273,-75.195
1573890527.677,-44.434,35.156,-1000.000,-123.047,-823.730
1573890527.681,41.016,37.109,-112.793,56.641,-122.070
1573890527.685,104.980,52.734,-776.367,188.477,945.312
1573890527.689,36.621,54.199,207.520,33.691,239.746
1573890527.693,-46.875,46.875,-1000.000,-125.000,-757.324
1573890527.697,10.254,47.852,-311.523,2.441,-435.059
1573890527.701,101.074,43.457,-816.406,186.035,751.465
1573890527.705,64.453,39.551,447.266,96.191,577.637
1573890527.709,-27.832,41.992,-1000.000,-113.770,-622.559
1573890527.713,-4.395,38.086,-667.969,-63.965,-739.258
1573890527.716,106.445,41.504,880.371,157.715,451.660
1573890527.720,103.516,40.039,855.469,141.113,782.715
1573890527.724,-11.230,30.273,-648.438,-83.008,-335.449
1573890527.728,-21.484,34.180,-1000.000,-107.910,-813.477
1573890527.732,85.449,38.086,306.152,98.633,130.859
1573890527.736,118.164,36.621,-837.402,163.574,910.156
1573890527.740,24.902,32.715,-109.863,-29.297,-39.551
1573890527.744,-27.832,25.879,-1000.000,-135.254,-819.336
1573890527.748,54.199,21.484,-123.047,40.039,-205.566
1573890527.752,119.629,22.461,-775.391,183.105,929.199
1573890527.756,54.199,29.785,280.762,37.109,366.699
1573890527.759,-32.227,23.438,-1000.000,-133.789,-700.195
1573890527.763,12.695,27.344,-396.973,-11.719,-508.301
1573890527.767,107.422,38.086,-869.629,180.664,675.293
1573890527.771,74.219,33.691,590.820,96.680,629.883
1573890527.775,-26.367,39.551,-952.148,-102.539,-502.441
1573890527.779,-5.859,37.598,-793.945,-57.617,-689.453
1573890527.783,92.773,30.273,706.543,154.785,394.043
1573890527.787,91.797,35.645,-970.703,154.297,833.496
1573890527.791,-8.301,33.203,-371.582,-63.965,-236.816
1573890527.795,-28.809,24.414,-1000.000,-111.816,-854.980
1573890527.798,74.707,19.531,58.105,97.656,7.324
1573890527.802,112.305,28.809,-779.785,185.059,960.449
1573890527.806,20.020,34.668,100.098,-4.883,52.246
1573890527.810,-41.016,33.203,-1000.000,-130.859,-849.609
1573890527.814,31.738,32.227,-236.328,22.461,-336.426
1573890527.818,114.746,28.320,-790.527,181.152,867.676
1573890527.822,71.777,31.250,347.168,74.707,454.590
1573890527.826,-17.090,39.062,-1000.000,-114.258,-688.965
1573890527.830,6.836,40.527,-449.707,-38.574,-568.848
1573890527.834,86.426,36.621,-905.762,149.414,647.461
1573890527.838,58.594,48.828,660.156,78.125,651.367
1573890527.841,-63.477,52.246,-884.766,-155.762,-516.602
1573890527.845,-80.566,43.945,-858.398,-153.320,-780.273
1573890527.849,19.043,50.293,626.465,62.012,301.270
1573890527.853,13.672,49.805,-900.879,69.824,886.719
1573890527.857,-90.332,37.598,-257.812,-144.043,-144.531
1573890527.861,-123.535,27.832,-1000.000,-210.938,-806.641
1573890527.865,-42.969,33.203,-2.930,-20.508,-30.762
1573890527.869,15.137,34.180,-777.832,94.727,978.516
1573890527.873,-65.430,29.297,126.953,-86.914,204.590
1573890527.877,-140.137,30.273,-1000.000,-232.422,-793.457
1573890527.881,-63.965,30.762,-216.309,-66.895,-334.961
1573890527.884,24.414,32.227,-785.156,112.793,862.793
1573890527.888,-20.020,34.668,398.438,1.465,521.484
1573890527.892,-104.492,28.809,-1000.000,-181.152,-555.176
1573890527.896,-59.082,24.902,-504.883,-90.820,-540.039
1573890527.900,53.223,34.668,-952.148,119.629,591.797
1573890527.904,41.992,33.691,731.445,89.355,712.402
1573890527.908,-66.895,27.832,-777.344,-122.559,-423.828
1573890527.912,-71.289,23.926,-985.840,-122.070,-774.414
1573890527.916,38.086,21.973,414.551,94.727,231.445
1573890527.920,63.965,31.738,-833.984,134.766,887.207
1573890527.923,-31.250,32.715,-101.074,-62.988,-114.746
1573890527.927,-66.895,34.668,-1000.000,-139.160,-847.656
1573890527.931,29.297,40.527,-47.852,50.781,-132.324
1573890527.935,92.773,37.598,-764.648,176.270,949.219
1573890527.939,15.137,34.668,206.543,17.090,212.891
1573890527.943,-51.270,40.527,-1000.000,-134.277,-797.363
1573890527.947,15.137,48.340,-307.617,0.977,-419.922
1573890527.951,105.957,44.922,-812.012,180.176,788.086
1573890527.955,69.824,33.691,410.645,85.938,516.113
1573890527.959,-15.625,40.039,-1000.000,-114.746,-669.922
1573890527.963,12.695,51.758,-733.398,-55.176,-681.641
1573890527.966,107.422,52.734,779.785,153.809,496.094
1573890527.970,115.234,55.664,921.875,139.648,770.996
1573890527.974,21.973,51.270,-598.145,-74.219,-386.719
1573890527.978,2.441,51.758,-1000.000,-91.309,-830.566
1573890527.982,105.469,59.570,350.586,127.930,179.688
1573890527.986,145.020,53.223,-803.711,187.012,955.566
1573890527.990,52.246,49.805,-1.465,-11.719,12.207
1573890527.994,-2.441,49.805,-1000.000,-106.445,-756.348
1573890527.998,66.895,43.457,-138.184,68.359,-130.371
1573890528.002,122.070,41.504,-769.043,198.242,947.754
1573890528.006,52.246,35.645,250.977,45.410,349.121
1573890528.009,-41.992,28.320,-1000.000,-131.348,-739.258
1573890528.013,-3.418,30.273,-338.867,-17.090,-501.953
1573890528.017,96.191,36.621,-824.219,172.852,726.074
1573890528.021,61.035,35.156,452.637,83.496,604.004
1573890528.025,-54.688,25.879,-1000.000,-128.906,-523.438
1573890528.029,-49.805,23.926,-702.637,-84.961,-631.348
1573890528.033,59.082,24.902,846.191,138.672,460.938
1573890528.037,72.754,25.391,871.582,137.695,790.527
1573890528.041,-36.133,24.414,-606.934,-85.449,-323.242
1573890528.045,-63.477,19.531,-1000.000,-114.746,-827.637
1573890528.048,57.129,16.113,150.879,107.910,66.406
1573890528.052,104.004,16.113,-808.594,186.035,926.270
1573890528.056,-17.578,18.555,21.973,-32.715,33.203
1573890528.060,-78.613,15.625,-1000.000,-153.809,-800.293
1573890528.064,24.414,21.973,-162.598,29.297,-260.254
1573890528.068,92.285,28.809,-773.438,174.316,889.648
1573890528.072,21.484,22.949,334.961,35.645,396.973
1573890528.076,-56.641,20.508,-1000.000,-139.648,-673.828
1573890528.080,-9.277,22.461,-395.508,-39.551,-532.227
1573890528.084,93.750,19.531,-888.184,159.668,629.883
1573890528.088,66.895,17.090,719.238,91.309,666.504
1573890528.091,-43.457,13.184,-824.219,-133.789,-429.688
1573890528.095,-33.203,11.230,-828.613,-107.910,-686.035
1573890528.099,69.336,23.438,667.480,112.305,351.562
1573890528.103,85.938,34.668,-880.371,130.859,849.121
1573890528.107,-14.648,30.273,-186.523,-82.031,-217.285
1573890528.111,-53.223,25.391,-1000.000,-133.301,-810.059
1573890528.115,45.410,35.156,32.227,73.730,1.953
1573890528.119,95.703,35.645,-755.859,178.711,946.289
1573890528.123,15.625,18.555,185.547,2.441,133.301
1573890528.127,-45.410,10.254,-1000.000,-139.160,-787.109
1573890528.131,23.926,17.090,-186.035,21.484,-321.289
1573890528.134,104.492,16.113,-768.555,185.547,862.305
1573890528.138,54.688,17.090,389.648,61.035,469.238
1573890528.142,-37.109,18.066,-1000.000,-123.535,-708.984
1573890528.146,-3.906,17.578,-427.734,-48.340,-618.164
1573890528.150,100.586,20.020,-912.598,154.297,591.309
1573890528.154,91.797,21.484,802.734,119.141,700.195
1573890528.158,-17.578,19.043,-726.562,-95.215,-485.352
1573890528.162,-21.973,12.695,-893.066,-93.262,-846.191
1573890528.166,83.496,15.137,606.934,128.906,234.375
1573890528.170,107.422,27.344,-881.836,171.387,892.578
1573890528.173,5.859,22.461,-202.148,-43.945,-144.043
1573890528.177,-44.434,16.602,-1000.000,-133.789,-870.117
1573890528.181,39.062,25.391,23.926,64.941,-112.305
1573890528.185,95.215,28.809,-766.602,194.824,972.168
1573890528.189,15.137,24.414,161.133,18.555,218.262
1573890528.193,-66.406,20.020,-1000.000,-139.160,-796.387
1573890528.197,-7.812,17.090,-263.672,4.883,-410.156
1573890528.201,81.543,16.602,-804.199,175.293,812.500
1573890528.205,36.621,13.184,476.074,65.430,550.781
1573890528.209,-65.430,18.066,-1000.000,-135.254,-608.887
1573890528.213,-39.062,20.020,-560.059,-69.336,-650.391
1573890528.216,60.547,22.461,979.492,139.648,511.230
1573890528.220,54.199,26.855,879.883,111.328,756.348
1573890528.224,-45.410,17.578,-604.980,-106.934,-380.371
1573890528.228,-55.176,22.461,-1000.000,-119.629,-816.895
1573890528.232,50.293,30.762,375.977,98.145,178.711
1573890528.236,84.473,27.832,-814.453,157.715,929.199
1573890528.240,-6.836,25.879,-23.438,-43.457,-44.434
1573890528.244,-49.316,25.879,-1000.000,-139.160,-855.469
1573890528.248,39.062,32.227,-143.066,49.805,-191.406
1573890528.252,105.957,30.762,-775.391,187.500,948.242
1573890528.256,37.109,26.367,240.723,36.621,297.852
1573890528.259,-43.457,31.250,-1000.000,-127.441,-759.766
1573890528.263,13.184,30.762,-404.785,0.977,-496.094
1573890528.267,104.492,36.133,-873.047,192.871,723.145
1573890528.271,71.289,35.156,546.875,109.863,615.234
1573890528.275,-20.020,25.391,-1000.000,-88.379,-529.297
1573890528.279,-11.719,26.367,-734.375,-52.246,-673.340
1573890528.283,79.102,28.320,788.086,146.973,443.359
1573890528.287,83.008,33.203,981.934,143.066,806.641
1573890528.291,-7.324,29.785,-480.957,-68.359,-254.395
1573890528.295,-23.438,24.902,-1000.000,-100.098,-763.184
1573890528.298,71.777,23.926,253.418,111.816,117.676
1573890528.302,112.305,21.973,-779.785,187.988,949.707
1573890528.306,21.973,25.391,60.059,-13.184,28.320
1573890528.310,-36.133,26.367,-1000.000,-129.883,-818.359
1573890528.314,44.434,28.809,-155.762,48.828,-239.746
1573890528.318,123.047,31.738,-770.020,196.289,929.688
1573890528.322,61.035,29.785,283.203,54.199,417.480
1573890528.326,-28.809,23.926,-1000.000,-120.117,-724.121
1573890528.330,16.602,25.879,-402.832,-15.625,-551.270
1573890528.334,109.375,27.832,-879.395,176.758,681.641
1573890528.338,79.102,27.344,629.395,106.934,642.578
1573890528.341,-19.043,30.762,-922.852,-97.656,-496.582
1573890528.345,-11.719,27.344,-804.199,-62.988,-727.539
1573890528.349,82.520,25.879,729.004,148.926,357.910
1573890528.353,89.355,27.832,995.117,147.949,824.219
1573890528.357,-20.508,19.043,-428.223,-75.195,-268.555
1573890528.361,-55.176,18.555,-1000.000,-125.977,-862.793
1573890528.365,41.016,26.855,110.352,73.730,-13.184
1573890528.369,88.867,31.250,-773.926,162.598,949.707
1573890528.373,1.465,30.762,105.957,-22.461,96.680
1573890528.377,-66.895,31.250,-1000.000,-149.902,-791.016
1573890528.381,13.672,29.297,-199.219,14.648,-303.223
1573890528.384,94.727,23.438,-779.785,172.852,861.328
1573890528.388,35.645,33.203,359.863,48.828,434.570
1573890528.392,-47.852,41.992,-1000.000,-126.953,-703.613
1573890528.396,-3.418,40.039,-478.027,-31.250,-567.383
1573890528.400,102.051,41.016,-936.523,173.340,624.512
1573890528.404,82.520,40.039,742.676,125.000,676.270
1573890528.408,-27.344,37.598,-796.875,-93.262,-477.051
1573890528.412,-24.414,33.203,-908.203,-87.891,-775.879
1573890528.416,79.590,31.250,575.684,132.812,278.320
1573890528.420,99.609,35.645,-896.484,171.387,877.930
1573890528.423,0.977,28.809,-235.352,-40.039,-157.227
1573890528.427,-42.969,19.043,-1000.000,-120.605,-869.141
1573890528.431,47.852,28.809,-41.016,73.730,-114.746
1573890528.435,110.352,35.156,-767.090,200.684,973.633
1573890528.439,36.621,34.180,191.406,34.180,222.656
1573890528.443,-35.156,33.203,-1000.000,-119.141,-829.102
1573890528.447,26.367,31.738,-240.234,22.461,-415.039
1573890528.451,108.887,33.203,-787.109,197.754,839.355
1573890528.455,62.500,33.691,398.438,83.984,505.859
1573890528.459,-28.809,29.297,-1000.000,-115.234,-641.602
1573890528.463,2.441,21.484,-592.285,-39.062,-647.461
1573890528.466,104.492,31.738,978.516,175.781,522.949
1573890528.470,99.121,42.480,760.742,143.555,741.211
1573890528.474,2.441,41.504,-782.715,-75.195,-423.828
1573890528.478,-5.859,37.109,-993.164,-83.496,-795.898
1573890528.482,94.238,39.551,404.297,134.766,245.117
1573890528.486,127.930,44.434,-830.078,188.965,908.691
1573890528.490,33.203,37.598,-87.402,-29.785,-106.934
1573890528.494,-15.137,32.715,-1000.000,-129.395,-810.547
1573890528.498,83.008,47.363,-66.406,73.242,-108.887
1573890528.502,145.996,46.875,-765.625,198.730,962.402
1573890528.506,57.129,35.645,232.910,28.320,279.785
1573890528.509,-20.996,39.062,-1000.000,-125.000,-785.645
1573890528.513,41.016,37.598,-347.168,12.207,-490.723
1573890528.517,126.465,44.434,-834.961,195.801,753.906
1573890528.521,83.008,48.828,506.348,95.215,584.961
1573890528.525,-18.555,38.086,-1000.000,-110.840,-592.285
1573890528.529,-1.953,30.273,-670.410,-51.758,-671.875
1573890528.533,96.191,33.691,856.934,161.621,471.191
1573890528.537,96.680,31.738,924.805,147.949,778.809
1573890528.541,-5.371,29.785,-532.227,-72.754,-295.410
1573890528.545,-27.832,31.738,-1000.000,-101.074,-764.160
1573890528.548,66.406,26.367,214.844,117.188,148.438
1573890528.552,100.586,25.879,-799.316,184.570,945.312
1573890528.556,3.418,29.297,10.254,-15.625,-20.508
1573890528.560,-48.828,28.809,-1000.000,-118.164,-895.996
1573890528.564,26.855,26.855,-185.059,54.688,-276.367
1573890528.568,90.820,28.320,-780.273,190.918,922.363
1573890528.572,32.715,28.809,291.992,44.434,398.926
1573890528.576,-54.688,20.020,-1000.000,-131.348,-675.781
1573890528.580,5.371,22.461,-373.047,-12.207,-478.027
1573890528.584,104.492,31.250,-851.074,180.176,701.660
1573890528.588,61.523,30.273,558.105,96.191,636.230
1573890528.591,-34.180,23.438,-975.586,-109.375,-536.621
1573890528.595,-16.602,20.508,-792.480,-69.824,-762.207
1573890528.599,88.379,32.715,731.934,148.926,397.949
1573890528.603,97.168,33.203,987.793,157.227,808.594
1573890528.607,-12.207,20.508,-463.867,-67.871,-307.617
1573890528.611,-38.574,15.137,-1000.000,-111.816,-871.582
1573890528.615,63.477,25.879,132.812,103.027,22.949
1573890528.619,114.258,34.180,-794.434,191.406,956.543
1573890528.623,23.926,29.785,31.250,-1.465,80.078
1573890528.627,-41.016,27.832,-1000.000,-128.906,-836.426
1573890528.631,42.969,35.645,-171.387,41.016,-320.312
1573890528.634,122.070,40.039,-778.809,200.684,906.738
1573890528.638,58.594,32.227,261.230,60.547,395.996
1573890528.642,-33.203,25.391,-1000.000,-125.000,-779.297
1573890528.646,13.184,26.855,-457.520,-20.996,-633.301
1573890528.650,111.328,38.086,-925.781,179.688,622.070
1573890528.654,87.402,38.086,642.090,121.582,677.734
1573890528.658,-15.137,35.156,-907.227,-94.727,-511.230
1573890528.662,-12.695,34.668,-862.793,-79.590,-714.355
1573890528.666,94.727,41.016,605.957,141.113,367.188
1573890528.670,112.305,47.363,-889.648,167.480,871.582
1573890528.673,-2.441,32.715,-232.910,-52.246,-179.688
1573890528.677,-42.480,22.461,-1000.000,-123.535,-904.297
1573890528.681,55.664,29.297,20.508,79.590,-71.289
1573890528.685,108.887,28.809,-766.602,190.430,989.258
1573890528.689,25.391,34.180,178.711,15.137,211.914
1573890528.693,-39.062,42.969,-1000.000,-123.047,-766.113
1573890528.697,32.715,39.062,-260.254,26.855,-366.211
1573890528.701,109.375,35.156,-791.992,190.918,857.422
1573890528.705,58.594,41.016,370.117,81.055,495.117
1573890528.709,-33.203,31.738,-1000.000,-106.934,-664.551
1573890528.713,1.953,20.508,-493.652,-33.203,-610.840
1573890528.716,100.586,33.203,-983.398,175.293,555.176
1573890528.720,82.031,33.691,849.609,138.672,739.258
1573890528.724,-21.484,25.879,-650.879,-83.008,-417.969
1573890528.728,-20.508,25.391,-985.352,-87.402,-825.684
1573890528.732,86.914,31.250,458.984,134.277,234.863
1573890528.736,109.863,40.039,-819.824,182.617,895.996
1573890528.740,8.301,39.062,-71.777,-35.156,-118.164
1573890528.744,-37.109,31.250,-1000.000,-122.559,-794.434
1573890528.748,56.152,28.320,-44.434,73.242,-86.426
1573890528.752,114.746,28.809,-755.859,190.918,971.191
1573890528.756,40.527,31.738,245.605,25.879,310.547
1573890528.759,-35.645,28.809,-1000.000,-128.906,-694.336
1573890528.763,19.043,29.785,-268.555,5.371,-392.578
1573890528.767,110.352,27.344,-795.898,187.500,801.270
1573890528.771,70.312,18.555,457.031,92.285,557.617
1573890528.775,-31.738,10.254,-1000.000,-111.328,-613.281
1573890528.779,-12.207,14.160,-532.715,-52.246,-669.922
1573890528.783,92.773,23.438,973.633,163.574,483.887
1573890528.787,87.891,20.508,952.148,140.625,770.996
1573890528.791,-18.066,10.742,-495.605,-78.125,-372.559
1573890528.795,-32.227,21.973,-1000.000,-95.215,-804.199
1573890528.798,67.871,36.133,400.391,119.629,177.734
1573890528.802,103.027,29.297,-805.664,173.340,911.621
1573890528.806,9.277,21.484,-23.438,-29.297,-63.477
1573890528.810,-40.527,16.602,-1000.000,-126.953,-871.582
1573890528.814,54.688,21.484,-104.004,56.152,-227.539
1573890528.818,123.535,27.832,-761.719,194.824,935.547
1573890528.822,45.410,29.785,287.109,36.621,348.633
1573890528.826,-37.109,30.273,-1000.000,-131.348,-693.359
1573890528.830,18.066,26.367,-321.777,-2.930,-422.852
1573890528.834,106.934,31.250,-833.008,187.500,737.793
1573890528.838,72.266,37.598,601.562,105.957,632.812
1573890528.841,-28.809,24.414,-931.641,-102.539,-540.039
1573890528.845,-18.066,22.461,-789.551,-60.547,-752.930
1573890528.849,86.426,38.574,735.840,151.855,396.484
1573890528.853,83.496,32.227,-990.723,146.484,790.527
1573890528.857,-20.020,26.367,-445.312,-67.383,-306.641
1573890528.861,-33.691,28.809,-1000.000,-105.957,-816.895
1573890528.865,68.848,31.738,235.840,108.398,60.059
1573890528.869,114.746,39.551,-775.391,196.777,956.543
1573890528.873,29.785,36.621,84.961,2.441,40.527
1573890528.877,-40.039,34.180,-1000.000,-129.395,-850.586
1573890528.881,36.133,41.504,-166.016,35.156,-262.695
1573890528.884,115.723,41.504,-768.555,190.918,895.020
1573890528.888,41.016,24.902,299.316,48.340,403.320
1573890528.892,-47.852,17.578,-1000.000,-138.184,-705.078
1573890528.896,0.488,29.785,-383.789,-26.855,-564.453
1573890528.900,95.703,33.691,-864.258,172.852,663.574
1573890528.904,69.824,22.949,631.348,101.562,647.949
1573890528.908,-36.621,20.508,-913.086,-112.793,-549.316
1573890528.912,-33.203,22.949,-829.590,-92.285,-800.781
1573890528.916,69.824,23.926,691.406,129.883,322.754
1573890528.920,86.914,22.949,-973.633,153.809,856.445
1573890528.923,-13.672,22.461,-389.160,-62.988,-208.984
1573890528.927,-46.875,18.066,-1000.000,-123.535,-812.012
1573890528.931,53.223,20.020,66.406,83.984,23.438
1573890528.935,105.469,20.020,-787.598,184.570,967.773
1573890528.939,14.648,16.113,79.590,-3.906,114.746
1573890528.943,-59.082,20.996,-1000.000,-143.066,-841.309
1573890528.947,14.648,23.926,-210.938,19.043,-362.305
1573890528.951,97.168,33.203,-785.645,185.059,860.352
1573890528.955,41.992,33.691,379.883,63.477,479.004
1573890528.959,-45.898,20.020,-1000.000,-123.047,-642.090
1573890528.963,2.441,25.879,-467.285,-23.926,-541.992
1573890528.966,110.352,28.320,-934.570,193.848,605.957
1573890528.970,91.309,22.949,763.672,142.578,715.820
1573890528.974,-18.066,26.367,-744.629,-78.613,-449.219
1573890528.978,-9.277,30.762,-969.238,-60.547,-822.754
1573890528.982,100.586,41.504,473.145,162.598,249.512
1573890528.986,117.188,45.410,-861.816,191.895,897.461
1573890528.990,23.926,42.480,-176.270,-18.066,-151.855
1573890528.994,-15.625,36.621,-1000.000,-95.703,-838.379
1573890528.998,71.777,36.621,-58.105,98.145,-92.773
1573890529.002,131.348,33.691,-770.020,212.891,961.914
1573890529.006,49.316,30.273,206.055,40.039,227.051
1573890529.009,-26.855,33.691,-1000.000,-109.863,-777.344
1573890529.013,40.039,43.945,-259.766,33.691,-372.070
1573890529.017,129.395,52.246,-797.852,212.891,811.035
1573890529.021,75.195,45.898,449.707,104.980,546.387
1573890529.025,-22.461,36.621,-1000.000,-94.238,-584.961
1573890529.029,10.742,24.414,-617.188,-27.832,-633.301
1573890529.033,108.398,31.250,922.852,182.617,506.836
1573890529.037,95.215,35.156,902.832,157.715,761.230
1573890529.041,-8.301,24.414,-606.934,-61.035,-362.305
1573890529.045,-20.508,27.832,-1000.000,-79.102,-785.156
1573890529.048,78.613,36.621,406.738,136.230,198.730
1573890529.052,106.934,30.762,-810.059,187.988,931.641
1573890529.056,5.371,20.020,-36.133,-21.484,-37.598
1573890529.060,-49.805,12.695,-1000.000,-124.512,-830.566
1573890529.064,36.133,16.113,-103.516,60.547,-196.777
1573890529.068,107.422,33.203,-767.090,206.055,931.152
1573890529.072,33.691,22.461,230.957,45.410,284.668
1573890529.076,-50.293,7.812,-1000.000,-125.000,-757.812
1573890529.080,3.906,14.160,-344.238,4.395,-438.477
1573890529.084,102.051,21.973,-827.637,200.195,749.023
1573890529.088,75.684,27.344,438.965,114.258,590.820
1573890529.091,-30.762,14.648,-1000.000,-99.609,-559.570
1573890529.095,-12.695,9.766,-659.668,-44.922,-617.188
1573890529.099,98.145,26.855,843.750,173.828,491.699
1573890529.103,99.121,26.367,989.746,157.715,820.801
1573890529.107,-2.930,15.625,-451.660,-62.500,-273.926
1573890529.111,-21.484,22.949,-1000.000,-95.215,-825.684
1573890529.115,82.520,39.062,243.652,118.652,106.445
1573890529.119,125.488,37.109,-787.598,195.312,950.195
1573890529.123,38.086,35.156,32.715,5.859,49.316
1573890529.127,-16.602,38.574,-1000.000,-105.957,-780.273
1573890529.131,62.988,42.969,-149.902,59.082,-231.934
1573890529.134,139.648,46.875,-771.973,209.961,921.875
1573890529.138,75.195,45.898,293.945,66.895,355.469
1573890529.142,-5.859,31.250,-1000.000,-101.562,-736.328
1573890529.146,40.527,30.273,-466.309,11.230,-500.977
1573890529.150,122.070,52.246,-922.363,187.012,667.480
1573890529.154,83.984,46.387,642.578,107.910,660.645
1573890529.158,-10.254,45.410,-928.223,-90.332,-487.793
1573890529.162,-3.906,53.223,-800.293,-60.059,-720.703
1573890529.166,84.473,44.922,720.215,147.949,358.887
1573890529.170,100.098,44.922,-973.633,168.457,845.215
1573890529.173,0.488,41.504,-376.465,-48.340,-220.215
1573890529.177,-34.668,26.855,-1000.000,-108.398,-833.984
1573890529.181,53.223,28.320,43.457,92.773,11.230
1573890529.185,103.027,38.574,-769.043,189.453,962.891
1573890529.189,17.578,33.203,143.066,-0.488,93.262
1573890529.193,-47.852,25.879,-1000.000,-134.277,-813.477
1573890529.197,24.902,21.973,-202.148,25.391,-299.805
1573890529.201,104.980,27.344,-775.879,186.523,877.441
1573890529.205,56.152,33.203,349.121,67.383,463.867
1573890529.209,-40.039,23.438,-1000.000,-124.512,-630.859
1573890529.213,-7.324,19.531,-491.699,-30.273,-569.336
1573890529.216,86.426,22.949,-934.082,178.223,593.750
1573890529.220,66.406,18.066,663.574,124.512,700.684
1573890529.224,-32.227,8.301,-904.297,-89.355,-452.148
1573890529.228,-40.527,6.836,-848.145,-75.195,-731.445
1573890529.232,58.594,11.719,621.582,138.672,327.637
1573890529.236,79.102,11.230,-875.000,163.086,891.602
1573890529.240,-23.438,10.742,-180.176,-53.223,-156.738
1573890529.244,-57.129,12.695,-1000.000,-129.883,-852.051
1573890529.248,48.340,16.602,8.789,71.289,-58.105
1573890529.252,108.398,22.461,-761.719,187.500,963.379
1573890529.256,29.785,21.484,190.918,15.137,167.480
1573890529.259,-32.227,13.184,-1000.000,-126.953,-834.473
1573890529.263,34.180,16.602,-278.320,20.508,-409.180
1573890529.267,115.723,24.414,-799.805,192.383,803.711
1573890529.271,71.777,27.344,410.156,85.938,495.117
1573890529.275,-16.602,27.832,-1000.000,-107.422,-618.652
1573890529.279,9.766,23.438,-520.508,-36.621,-620.117
1573890529.283,107.422,29.785,-993.164,168.945,529.785
1573890529.287,104.004,33.691,837.402,135.742,739.258
1573890529.291,-10.254,26.367,-647.949,-87.402,-393.555
1573890529.295,-24.902,22.461,-1000.000,-98.145,-791.992
1573890529.298,74.707,20.508,349.609,122.070,189.941
1573890529.302,97.168,24.414,-821.777,170.898,908.203
1573890529.306,2.930,21.484,-47.852,-36.621,-36.133
1573890529.310,-48.828,12.695,-1000.000,-132.324,-787.598
1573890529.314,37.109,16.602,-142.090,50.293,-156.250
1573890529.318,106.445,28.320,-771.484,184.082,926.758
1573890529.322,33.691,29.297,250.488,23.438,269.531
1573890529.326,-43.945,23.438,-1000.000,-136.230,-756.348
1573890529.330,13.672,26.367,-297.363,2.930,-434.570
1573890529.334,100.098,22.461,-815.430,182.129,758.789
1573890529.338,59.082,20.020,517.090,86.426,575.684
1573890529.341,-41.504,20.020,-1000.000,-117.188,-554.688
1573890529.345,-20.508,16.113,-642.090,-67.383,-653.320
1573890529.349,85.938,23.438,895.996,144.531,459.473
1573890529.353,88.867,23.438,947.754,133.301,790.527
1573890529.357,-8.789,20.508,-531.738,-75.684,-362.793
1573890529.361,-21.484,25.879,-1000.000,-100.586,-897.461
1573890529.365,71.777,20.508,343.750,103.027,104.004
1573890529.369,105.469,17.090,-800.781,168.945,938.965
1573890529.373,12.695,8.789,-23.438,-21.973,-18.066
1573890529.377,-51.270,0.488,-1000.000,-129.883,-830.078
1573890529.381,38.086,7.324,-111.328,60.059,-198.730
1573890529.384,100.586,18.555,-763.672,204.590,933.594
1573890529.388,26.855,17.090,323.242,45.898,387.207
1573890529.392,-35.156,17.090,-1000.000,-121.582,-678.223
1573890529.396,17.090,23.438,-329.590,0.000,-486.328
1573890529.400,109.863,22.461,-833.008,200.195,704.590
1573890529.404,80.566,21.973,607.422,128.906,604.980
1573890529.408,-21.484,10.742,-954.102,-90.332,-555.176
1573890529.412,-10.742,4.395,-671.875,-62.988,-742.676
1573890529.416,99.121,14.648,831.055,161.133,368.652
1573890529.420,108.887,12.695,-911.621,168.945,826.660
1573890529.423,-3.906,6.836,-260.254,-53.223,-253.418
1573890529.427,-24.414,16.113,-1000.000,-102.539,-827.637
1573890529.431,77.637,24.414,238.281,100.098,15.625
1573890529.435,118.164,27.832,-752.930,185.059,950.195
1573890529.439,32.715,24.414,144.531,-1.465,75.195
1573890529.443,-39.551,20.020,-1000.000,-127.441,-834.961
1573890529.447,22.949,20.996,-182.617,33.203,-304.199
1573890529.451,105.957,27.344,-769.531,195.801,878.906
1573890529.455,49.805,30.762,352.539,63.965,436.035
1573890529.459,-47.363,26.855,-1000.000,-120.605,-704.102
1573890529.463,-11.230,21.973,-446.777,-28.320,-603.027
1573890529.466,87.891,25.879,-929.199,171.387,622.070
1573890529.470,75.684,36.133,780.273,125.977,681.152
1573890529.474,-33.691,27.344,-779.785,-92.285,-458.008
1573890529.478,-38.086,16.113,-809.082,-80.078,-718.750
1573890529.482,72.266,18.066,707.031,134.277,336.426
1573890529.486,89.844,18.555,-883.301,156.250,861.816
1573890529.490,-11.719,15.137,-194.336,-48.340,-216.797
1573890529.494,-40.039,17.578,-1000.000,-106.934,-837.891
1573890529.498,50.293,18.555,41.016,95.215,-47.852
1573890529.502,102.539,18.555,-763.672,199.707,952.148
1573890529.506,26.367,25.879,156.738,18.066,131.348
1573890529.509,-45.410,23.926,-1000.000,-118.164,-856.445
1573890529.513,25.391,24.414,-214.355,39.551,-401.367
1573890529.517,111.328,27.832,-778.320,202.637,826.660
1573890529.521,58.105,15.625,363.281,72.754,484.863
1573890529.525,-40.527,14.160,-1000.000,-126.953,-661.133
1573890529.529,-15.625,20.996,-472.168,-40.527,-617.676
1573890529.533,85.938,27.832,-954.590,170.898,550.293
1573890529.537,76.660,30.762,801.758,128.906,735.352
1573890529.541,-23.438,23.926,-683.594,-89.844,-440.918
1573890529.545,-26.855,17.090,-1000.000,-91.797,-904.297
1573890529.548,67.383,17.578,428.223,126.465,171.387
1573890529.552,102.051,27.832,-877.930,179.199,893.555
1573890529.556,10.254,23.926,-209.473,-33.691,-97.168
1573890529.560,-41.504,17.090,-1000.000,-123.535,-815.430
1573890529.564,55.664,27.344,-36.133,85.938,-125.488
1573890529.568,121.094,37.109,-765.625,212.891,956.543
1573890529.572,43.457,28.809,217.773,39.551,258.789
1573890529.576,-25.879,20.996,-1000.000,-113.281,-727.051
1573890529.580,35.645,20.996,-289.551,21.973,-398.438
1573890529.584,121.582,24.902,-808.594,203.613,779.785
1573890529.588,78.125,36.133,471.680,106.445,578.125
1573890529.591,-20.996,40.039,-1000.000,-100.586,-602.539
1573890529.595,0.000,43.945,-667.480,-39.551,-690.918
1573890529.599,98.633,37.598,845.703,177.246,477.051
1573890529.603,93.262,27.832,947.754,155.273,808.105
1573890529.607,-15.625,29.785,-532.227,-68.848,-296.387
1573890529.611,-34.180,37.109,-1000.000,-95.703,-821.289
1573890529.615,67.383,45.410,319.336,125.000,132.324
1573890529.619,103.027,41.504,-789.062,189.941,951.172
1573890529.623,11.719,40.039,18.066,-17.090,12.695
1573890529.627,-41.504,40.039,-1000.000,-118.652,-786.621
1573890529.631,34.180,35.156,-96.191,57.129,-126.465
1573890529.634,105.957,36.621,-760.742,195.312,952.148
1573890529.638,42.480,34.180,241.699,42.969,315.430
1573890529.642,-43.945,32.227,-1000.000,-127.930,-713.867
1573890529.646,11.230,33.203,-320.312,-0.488,-474.609
1573890529.650,108.398,36.133,-834.961,192.871,705.566
1573890529.654,68.848,34.668,590.332,107.910,617.676
1573890529.658,-28.320,27.832,-975.586,-100.586,-522.949
1573890529.662,-11.230,28.809,-671.875,-61.523,-667.969
1573890529.666,88.379,39.062,879.883,153.809,438.965
1573890529.670,88.379,34.668,959.473,150.879,815.918
1573890529.673,-20.996,22.461,-490.723,-74.219,-302.734
1573890529.677,-41.504,29.297,-1000.000,-108.398,-872.559
1573890529.681,57.617,34.180,241.211,105.469,40.527
1573890529.685,98.145,32.227,-795.898,189.453,944.336
1573890529.689,11.719,28.320,-0.977,-0.488,44.922
1573890529.693,-47.852,24.414,-1000.000,-122.559,-860.352
1573890529.697,30.273,25.391,-143.555,55.664,-292.480
1573890529.701,111.328,28.320,-770.020,216.309,923.828
1573890529.705,51.270,25.879,337.402,74.707,411.621
1573890529.709,-38.574,20.508,-1000.000,-112.305,-674.316
1573890529.713,6.836,20.508,-371.094,-0.488,-484.375
1573890529.716,106.934,29.297,-865.234,204.102,666.992
1573890529.720,90.332,32.715,679.199,136.719,659.668
1573890529.724,-8.301,27.832,-845.703,-72.754,-467.285
1573890529.728,-1.953,30.273,-861.816,-60.059,-727.539
1573890529.732,95.215,33.203,632.324,150.391,333.984
1573890529.736,105.469,30.762,-906.738,169.922,835.449
1573890529.740,4.883,24.902,-257.324,-39.062,-161.621
1573890529.744,-33.203,24.902,-1000.000,-104.004,-783.203
1573890529.748,70.801,32.715,49.316,98.145,-26.855
1573890529.752,133.789,40.039,-765.137,201.660,946.777
1573890529.756,41.504,40.039,168.457,6.836,156.250
1573890529.759,-26.367,43.945,-1000.000,-119.141,-745.605
1573890529.763,51.270,40.527,-218.750,42.969,-338.867
1573890529.767,126.953,32.227,-779.785,202.148,845.215
1573890529.771,66.406,39.551,377.930,76.172,461.914
1573890529.775,-34.668,38.086,-1000.000,-114.746,-686.035
1573890529.779,2.930,32.227,-517.090,-34.668,-620.605
1573890529.783,108.887,39.062,-973.633,177.734,565.918
1573890529.787,86.914,41.992,750.000,125.977,701.172
1573890529.791,-19.531,35.645,-784.180,-95.215,-445.312
1573890529.795,-24.414,28.809,-923.340,-88.867,-791.016
1573890529.798,73.242,31.250,530.762,129.395,260.254
1573890529.802,94.238,30.273,-846.680,180.664,883.301
1573890529.806,-1.465,17.578,-136.230,-39.062,-155.273
1573890529.810,-41.016,15.137,-1000.000,-130.859,-827.148
1573890529.814,46.875,23.926,2.441,62.988,-62.012
1573890529.818,106.445,29.785,-759.766,179.688,966.309
1573890529.822,19.043,22.949,188.477,8.789,205.566
1573890529.826,-65.430,13.672,-1000.000,-139.648,-774.414
1573890529.830,0.488,26.367,-259.766,-0.488,-367.676
1573890529.834,93.262,32.227,-792.480,173.828,820.801
1573890529.838,50.781,25.879,395.020,66.895,552.734
1573890529.841,-42.480,18.555,-1000.000,-132.812,-603.027
1573890529.845,-19.043,14.160,-525.879,-61.035,-648.438
1573890529.849,79.590,14.648,979.004,158.691,520.508
1573890529.853,80.078,13.672,916.504,133.301,746.582
1573890529.857,-13.672,19.531,-566.406,-76.660,-352.051
1573890529.861,-18.555,26.855,-993.652,-82.031,-797.363
1573890529.865,81.543,28.320,442.871,133.789,149.414
1573890529.869,116.699,27.832,-810.547,190.918,928.223
1573890529.873,21.973,20.020,-37.598,-11.230,-65.918
1573890529.877,-33.691,17.578,-1000.000,-109.375,-871.582
1573890529.881,45.898,25.391,-113.281,70.801,-209.961
1573890529.884,113.281,29.297,-766.602,199.707,933.105
1573890529.888,38.086,17.090,271.973,36.621,312.988
1573890529.892,-42.480,8.789,-1000.000,-133.301,-767.090
1573890529.896,14.648,24.902,-354.492,-10.254,-509.277
1573890529.900,104.004,24.902,-840.332,179.688,716.797
1573890529.904,68.848,23.926,540.527,95.703,580.566
1573890529.908,-24.414,32.715,-1000.000,-104.492,-535.156
1573890529.912,-10.254,32.715,-688.477,-60.547,-654.297
1573890529.916,90.820,29.297,851.562,156.250,430.664
1573890529.920,99.609,31.250,953.125,156.738,789.551
1573890529.923,-8.789,24.902,-483.398,-66.406,-317.383
1573890529.927,-24.902,19.531,-1000.000,-106.445,-848.633
1573890529.931,77.148,27.344,145.020,102.051,70.801
1573890529.935,107.910,36.133,-776.855,172.852,955.078
1573890529.939,16.113,31.250,76.172,-15.625,39.062
1573890529.943,-35.156,23.438,-1000.000,-125.977,-808.594
1573890529.947,37.109,28.320,-145.996,48.340,-253.418
1573890529.951,108.398,36.621,-765.625,199.707,914.551
1573890529.955,54.688,33.691,297.363,61.523,388.184
1573890529.959,-39.551,26.855,-1000.000,-120.117,-712.891
1573890529.963,-0.488,27.344,-375.977,-13.184,-520.020
1573890529.966,94.238,26.855,-848.633,180.664,670.898
1573890529.970,66.895,26.367,565.430,103.516,638.672
1573890529.974,-43.457,22.949,-977.539,-115.234,-517.090
1573890529.978,-34.180,13.184,-798.828,-91.309,-743.164
1573890529.982,76.660,19.043,713.379,130.371,358.887
1573890529.986,88.379,22.949,-982.422,151.855,838.867
1573890529.990,-11.719,17.578,-396.973,-62.500,-269.043
1573890529.994,-47.363,21.484,-1000.000,-121.094,-805.176
1573890529.998,56.152,20.020,109.863,92.285,78.125
1573890530.002,113.770,14.648,-778.320,193.359,961.914
1573890530.006,23.926,17.578,105.469,2.930,114.258
1573890530.009,-34.668,20.996,-1000.000,-121.582,-800.781
1573890530.013,42.969,25.391,-239.258,46.387,-351.074
1573890530.017,122.070,23.926,-791.016,199.219,848.145
1573890530.021,70.312,20.020,337.891,69.336,434.570
1573890530.025,-24.414,25.391,-1000.000,-120.117,-687.012
1573890530.029,8.301,27.344,-465.332,-28.320,-556.641
1573890530.033,107.422,30.762,-943.359,185.547,606.934
1573890530.037,90.820,34.180,743.164,133.789,701.660
1573890530.041,-19.043,23.438,-776.367,-91.797,-393.066
1573890530.045,-22.461,18.066,-951.660,-89.844,-734.375
1573890530.048,76.660,18.066,483.887,128.418,266.113
1573890530.052,93.262,18.555,-864.258,162.598,880.371
1573890530.056,-5.371,15.137,-168.457,-43.457,-140.625
1573890530.060,-43.945,11.230,-1000.000,-119.629,-824.707
1573890530.064,62.988,24.902,-29.785,83.008,-70.801
1573890530.068,115.234,28.320,-764.160,193.848,962.402
1573890530.072,20.996,19.043,196.289,2.930,179.199
1573890530.076,-55.664,11.230,-1000.000,-139.160,-751.465
1573890530.080,10.742,12.695,-268.066,3.906,-356.934
1573890530.084,99.609,18.555,-799.316,182.617,808.105
1573890530.088,52.734,18.066,453.613,77.637,509.277
1573890530.091,-41.016,17.578,-1000.000,-128.906,-651.367
1573890530.095,-14.648,18.066,-491.699,-54.688,-645.996
1573890530.099,93.262,25.879,-973.145,155.762,536.621
1573890530.103,84.473,28.320,895.996,123.535,745.117
1573890530.107,-22.461,19.043,-604.004,-93.262,-396.484
1573890530.111,-30.762,14.648,-944.824,-103.516,-790.039
1573890530.115,62.500,17.578,532.227,111.816,222.168
1573890530.119,92.285,20.996,-823.242,159.180,893.066
1573890530.123,4.395,17.578,-89.355,-49.805,-95.703
1573890530.127,-37.598,15.137,-1000.000,-130.859,-843.750
1573890530.131,46.387,17.578,-30.762,61.035,-179.688
1573890530.134,104.980,20.996,-760.254,181.152,948.242
1573890530.138,32.227,22.461,198.242,16.113,249.512
1573890530.142,-42.480,20.020,-1000.000,-146.484,-774.902
1573890530.146,21.484,21.973,-272.461,-13.184,-433.105
1573890530.150,111.328,28.809,-806.641,179.688,762.207
1573890530.154,70.801,29.297,492.676,86.426,570.312
1573890530.158,-27.832,18.066,-1000.000,-114.746,-604.492
1573890530.162,-9.277,11.230,-619.141,-59.082,-684.570
1573890530.166,94.238,20.508,914.551,157.227,476.562
1573890530.170,90.820,29.785,938.477,143.555,766.602
1573890530.173,-15.137,25.879,-521.484,-80.566,-312.012
1573890530.177,-28.809,25.879,-1000.000,-97.656,-794.922
1573890530.181,77.148,32.227,296.875,125.488,103.027
1573890530.185,104.492,33.691,-793.457,182.617,913.574
1573890530.189,9.277,23.926,25.879,-18.555,14.648
1573890530.193,-38.574,20.020,-1000.000,-122.070,-790.527
1573890530.197,42.480,29.297,-163.574,55.176,-254.883
1573890530.201,117.676,32.715,-776.855,198.242,904.297
1573890530.205,53.711,35.156,253.906,54.688,313.965
1573890530.209,-36.133,31.738,-1000.000,-119.141,-785.156
1573890530.213,13.184,29.785,-476.074,-11.230,-532.227
1573890530.216,106.934,34.668,-921.875,182.617,693.359
1573890530.220,78.613,28.809,562.012,107.910,609.375
1573890530.224,-18.066,25.391,-1000.000,-97.656,-575.684
1573890530.228,-5.859,33.203,-761.230,-59.570,-739.746
1573890530.232,94.238,26.367,756.348,153.320,391.113
1573890530.236,100.586,27.344,990.234,157.715,831.055
1573890530.240,3.906,32.227,-433.105,-60.059,-282.227
1573890530.244,-20.508,29.785,-1000.000,-107.910,-833.496
1573890530.248,76.660,38.574,52.246,103.516,51.758
1573890530.252,125.488,40.527,-792.969,192.383,934.082
1573890530.256,39.062,36.621,80.078,3.418,86.914
1573890530.259,-29.785,36.133,-1000.000,-128.906,-807.129
1573890530.263,40.039,41.016,-211.426,33.203,-338.379
1573890530.267,121.582,48.828,-784.668,196.289,864.258
1573890530.271,65.918,46.387,289.062,64.453,462.402
1573890530.275,-22.949,34.668,-1000.000,-119.141,-626.953
1573890530.279,16.113,30.273,-472.168,-22.461,-501.465
1573890530.283,107.910,43.945,-914.551,174.805,655.762
1573890530.287,80.078,42.969,541.992,110.840,664.062
1573890530.291,-31.250,25.391,-965.820,-105.469,-501.953
1573890530.295,-24.414,32.715,-929.199,-80.566,-749.023
1573890530.298,86.426,42.969,541.016,139.160,333.496
1573890530.302,102.539,38.086,971.680,157.715,845.215
1573890530.306,4.395,30.273,-492.676,-60.547,-161.621
1573890530.310,-32.227,25.391,-1000.000,-124.023,-744.629
1573890530.314,62.012,34.668,17.090,83.984,-4.883
1573890530.318,116.699,39.062,-783.203,189.453,948.242
1573890530.322,36.621,39.551,144.531,6.348,147.949
1573890530.326,-37.598,38.574,-1000.000,-136.230,-745.605
1573890530.330,23.438,36.133,-255.371,12.695,-312.012
1573890530.334,103.027,30.762,-795.410,178.223,831.543
1573890530.338,49.316,25.391,360.352,66.895,505.859
1573890530.341,-41.504,26.367,-1000.000,-122.070,-586.426
1573890530.345,-4.883,26.367,-643.555,-38.086,-555.664
1573890530.349,97.656,22.949,892.090,170.410,549.805
1573890530.353,83.984,20.020,779.297,128.906,717.773
1573890530.357,-21.973,22.461,-757.324,-88.867,-348.145
1573890530.361,-33.691,21.973,-1000.000,-95.215,-698.730
1573890530.365,70.312,29.785,391.602,120.605,249.023
1573890530.369,97.168,41.016,-853.516,166.992,906.250
1573890530.373,-6.836,29.297,-156.738,-46.875,-103.027
1573890530.377,-56.641,11.230,-1000.000,-139.160,-863.281
1573890530.381,35.645,17.090,-64.453,51.270,-136.719
1573890530.384,99.609,27.832,-772.949,175.781,949.707
1573890530.388,27.832,24.414,181.641,14.648,229.980
1573890530.392,-42.969,22.949,-1000.000,-133.789,-790.527
1573890530.396,17.578,28.809,-285.645,3.418,-433.594
1573890530.400,109.863,34.668,-806.641,187.012,785.645
1573890530.404,74.707,38.574,414.551,90.332,520.020
1573890530.408,-23.438,27.344,-1000.000,-114.258,-617.188
1573890530.412,1.953,26.855,-648.438,-44.922,-661.133
1573890530.416,103.516,25.391,904.785,171.387,476.562
1573890530.420,94.727,17.090,824.707,144.043,764.648
1573890530.423,-11.230,21.973,-701.172,-78.125,-372.559
1573890530.427,-26.367,21.484,-1000.000,-104.004,-797.363
1573890530.431,72.754,27.344,325.684,108.887,170.898
1573890530.435,103.027,31.250,-849.609,173.828,931.152
1573890530.439,5.371,24.902,-116.211,-32.715,27.344
1573890530.443,-53.711,20.020,-1000.000,-135.742,-784.668
1573890530.447,27.344,23.438,-132.324,49.805,-213.379
1573890530.451,95.703,30.762,-780.273,183.105,908.691
1573890530.455,30.762,29.785,206.543,29.297,322.754
1573890530.459,-51.270,22.461,-1000.000,-135.742,-706.543
1573890530.463,0.977,23.926,-344.238,-9.766,-446.289
1573890530.466,95.703,28.809,-839.844,183.594,735.352
1573890530.470,65.918,28.320,509.766,99.121,593.262
1573890530.474,-36.133,25.391,-1000.000,-114.258,-557.129
1573890530.478,-32.715,21.973,-767.090,-77.148,-720.703
1573890530.482,67.383,26.855,750.488,136.719,392.578
1573890530.486,79.590,27.344,967.285,136.719,808.594
1573890530.490,-20.020,25.391,-480.957,-79.590,-269.043
1573890530.494,-46.875,25.391,-1000.000,-121.582,-796.875
1573890530.498,55.664,29.785,99.609,87.402,74.219
1573890530.502,104.980,33.203,-800.781,169.922,925.293
1573890530.506,15.137,10.254,65.918,-19.531,73.730
1573890530.509,-46.387,-0.977,-1000.000,-139.648,-761.230
1573890530.513,34.180,20.508,-243.652,26.855,-302.734
1573890530.517,108.887,34.668,-796.875,182.617,861.816
1573890530.521,49.316,39.062,314.453,50.293,412.598
1573890530.525,-38.086,27.344,-1000.000,-128.906,-655.273
1573890530.529,1.465,23.926,-440.430,-25.879,-494.629
1573890530.533,99.609,37.109,-896.484,171.387,660.156
1573890530.537,72.754,35.156,611.328,107.910,645.996
1573890530.541,-31.738,24.414,-934.082,-107.910,-507.324
1573890530.545,-24.902,26.367,-847.656,-89.844,-708.008
1573890530.548,83.008,37.598,644.043,132.812,372.559
1573890530.552,105.957,38.086,-936.523,155.273,833.008
1573890530.556,-2.441,31.738,-341.309,-64.453,-250.000
1573890530.560,-49.316,30.273,-1000.000,-129.883,-839.355
1573890530.564,41.504,28.809,84.473,69.336,-5.371
1573890530.568,93.750,29.785,-779.297,171.875,945.801
1573890530.572,16.602,31.738,103.516,-5.371,124.512
1573890530.576,-48.828,25.879,-1000.000,-138.184,-805.664
1573890530.580,21.484,25.391,-232.422,14.160,-356.934
1573890530.584,100.586,33.203,-789.062,174.316,853.027
1573890530.588,48.340,29.297,309.082,49.805,488.770
1573890530.591,-41.504,25.879,-1000.000,-134.766,-636.230
1573890530.595,-3.906,34.668,-478.516,-42.969,-571.289
1573890530.599,96.191,37.598,-958.008,159.668,583.008
1573890530.603,78.613,31.250,764.160,115.723,717.285
1573890530.607,-21.973,27.832,-770.996,-97.656,-399.902
1573890530.611,-26.367,29.785,-933.594,-92.773,-750.488
1573890530.615,74.219,26.367,537.598,125.977,284.668
1573890530.619,95.703,30.273,-880.859,159.180,876.953
1573890530.623,-1.465,33.203,-218.262,-48.340,-133.301
1573890530.627,-43.457,27.832,-1000.000,-123.047,-786.133
1573890530.631,48.340,30.273,-38.574,70.312,-87.402
1573890530.634,109.375,33.203,-770.996,185.059,941.406
1573890530.638,30.273,27.832,199.707,15.625,207.520
1573890530.642,-36.621,24.902,-1000.000,-127.441,-737.305
1573890530.646,29.785,26.367,-300.293,12.695,-372.070
1573890530.650,110.840,32.715,-812.988,185.547,772.949
1573890530.654,65.430,33.203,437.500,80.566,541.504
1573890530.658,-29.297,24.902,-1000.000,-120.117,-564.941
1573890530.662,-3.418,22.949,-595.703,-45.898,-601.562
1573890530.666,98.145,26.855,958.008,170.410,520.508
1573890530.670,89.355,30.762,828.613,139.160,740.723
1573890530.673,-21.484,28.809,-664.551,-81.055,-366.699
1573890530.677,-35.645,25.391,-1000.000,-96.680,-799.805
1573890530.681,62.012,29.297,290.527,113.770,154.785
1573890530.685,87.891,28.320,-806.152,165.527,885.254
1573890530.689,-0.977,18.555,-37.598,-37.598,-66.406
1573890530.693,-43.457,10.742,-1000.000,-133.789,-790.527
1573890530.697,44.922,22.949,-74.707,50.781,-132.324
1573890530.701,111.816,32.715,-759.766,185.547,948.242
1573890530.705,40.039,27.344,255.371,24.902,285.156
1573890530.709,-40.527,30.762,-1000.000,-134.766,-758.789
1573890530.713,9.766,35.645,-303.711,-4.883,-480.469
1573890530.716,98.633,33.203,-811.523,177.246,721.680
1573890530.720,67.871,35.645,501.465,89.355,568.359
1573890530.724,-29.785,28.320,-1000.000,-119.141,-557.617
1573890530.728,-15.625,26.367,-605.957,-67.871,-645.020
1573890530.732,92.285,33.203,919.434,158.203,449.219
1573890530.736,95.703,37.109,963.379,145.020,791.992
1573890530.740,-9.766,18.555,-483.887,-79.590,-281.250
1573890530.744,-30.273,11.719,-1000.000,-112.305,-789.062
1573890530.748,68.359,33.203,349.121,98.145,111.328
1573890530.752,109.375,40.527,-770.508,174.316,939.941
1573890530.756,19.531,34.668,83.008,-23.926,0.000
1573890530.759,-38.574,34.180,-1000.000,-133.301,-810.547
1573890530.763,38.086,36.621,-150.391,42.480,-217.285
1573890530.767,107.422,37.598,-763.184,180.664,894.043
1573890530.771,40.527,32.715,325.684,32.715,348.633
1573890530.775,-47.363,24.902,-1000.000,-140.625,-719.727
1573890530.779,2.930,22.949,-334.961,-23.438,-529.785
1573890530.783,93.750,20.020,-842.773,166.016,675.781
1573890530.787,65.430,26.855,638.672,93.750,628.418
1573890530.791,-27.344,26.855,-890.137,-105.957,-487.793
1573890530.795,-20.020,17.090,-793.945,-79.102,-697.266
1573890530.798,76.660,21.484,709.473,135.254,354.492
1573890530.802,88.867,26.367,-934.570,147.461,827.637
1573890530.806,-14.648,22.461,-306.641,-70.801,-245.117
1573890530.810,-42.969,23.438,-1000.000,-121.582,-854.004
1573890530.814,55.176,33.691,96.191,84.961,-0.488
1573890530.818,94.727,31.738,-766.113,168.945,953.613
1573890530.822,9.766,23.926,144.531,-13.184,104.004
1573890530.826,-49.805,20.508,-1000.000,-134.277,-813.965
1573890530.830,18.066,20.020,-229.004,24.902,-316.406
1573890530.834,94.727,27.832,-782.227,182.129,881.836
1573890530.838,45.898,29.785,354.004,53.223,422.363
1573890530.841,-38.574,20.996,-1000.000,-130.859,-685.547
1573890530.845,-8.789,16.113,-436.523,-38.086,-529.785
1573890530.849,90.820,25.391,-893.555,165.039,631.836
1573890530.853,83.008,31.250,643.555,112.793,684.082
1573890530.857,-22.461,26.367,-887.695,-103.516,-456.543
1573890530.861,-23.438,24.902,-883.301,-88.379,-706.055
1573890530.865,81.055,32.227,593.750,132.812,342.773
1573890530.869,102.539,30.273,-903.320,168.457,866.699
1573890530.873,7.324,25.391,-272.461,-42.969,-151.855
1573890530.877,-33.203,24.414,-1000.000,-119.629,-817.383
1573890530.881,59.570,27.344,28.809,82.031,-58.105
1573890530.884,122.070,37.109,-775.879,201.660,967.773
1573890530.888,34.668,30.762,124.023,19.043,173.340
1573890530.892,-44.434,24.414,-1000.000,-130.371,-780.273
1573890530.896,23.438,27.344,-245.117,15.625,-341.309
1573890530.900,105.469,30.762,-793.457,185.059,818.359
1573890530.904,60.547,30.762,344.727,80.078,475.098
1573890530.908,-31.738,22.949,-1000.000,-119.141,-640.137
1573890530.912,-9.766,20.020,-555.176,-46.875,-628.906
1573890530.916,86.426,30.762,988.281,163.574,521.484
1573890530.920,76.172,36.133,766.113,123.047,720.215
1573890530.923,-19.531,32.227,-756.348,-90.332,-465.820
1573890530.927,-26.367,29.297,-983.887,-91.797,-859.863
1573890530.931,70.801,32.227,428.711,122.559,208.496
1573890530.935,99.121,32.227,-843.262,169.922,901.367
1573890530.939,0.488,32.715,-118.164,-36.621,-76.660
1573890530.943,-47.852,30.273,-1000.000,-123.535,-801.758
1573890530.947,38.086,16.602,-81.543,61.523,-151.855
1573890530.951,100.098,21.484,-773.926,184.570,923.340
1573890530.955,29.785,37.598,204.590,23.438,238.770
1573890530.959,-56.641,33.203,-1000.000,-137.207,-765.137
1573890530.963,-2.441,32.715,-370.117,-12.695,-462.402
1573890530.966,90.332,38.086,-850.098,169.434,739.258
1573890530.970,49.805,36.621,506.348,77.148,567.871
1573890530.974,-39.062,34.668,-1000.000,-120.117,-574.707
1573890530.978,-14.160,34.180,-622.070,-62.988,-651.855
1573890530.982,81.543,33.691,917.480,146.973,487.793
1573890530.986,82.031,32.715,911.133,135.742,761.719
1573890530.990,-20.020,27.832,-566.895,-79.102,-356.934
1573890530.994,-37.598,25.391,-1000.000,-105.957,-768.066
1573890530.998,61.035,32.227,291.504,101.562,151.855
1573890531.002,95.703,35.156,-791.992,164.062,937.012
1573890531.006,5.371,35.156,30.762,-32.227,23.438
1573890531.009,-45.410,37.598,-1000.000,-139.160,-810.547
1573890531.013,36.133,38.086,-133.301,38.574,-229.004
1573890531.017,105.469,37.109,-765.625,183.594,930.664
1573890531.021,56.152,36.133,260.742,49.805,338.867
1573890531.025,-20.996,32.227,-1000.000,-120.117,-705.566
1573890531.029,17.090,28.320,-354.980,-13.184,-434.082
1573890531.033,109.375,31.250,-837.402,181.641,722.656
1573890531.037,86.914,32.715,499.512,109.863,589.355
1573890531.041,0.000,27.832,-1000.000,-85.938,-528.809
1573890531.045,19.043,26.855,-771.973,-36.621,-642.578
1573890531.048,116.699,28.320,729.980,179.199,418.457
1573890531.052,119.629,27.344,-990.723,184.570,809.570
1573890531.056,27.832,21.484,-433.594,-22.461,-295.898
1573890531.060,8.301,19.531,-1000.000,-66.406,-842.285
1573890531.064,111.328,25.879,178.223,151.367,76.172
1573890531.068,159.668,26.855,-792.969,247.559,931.641
1573890531.072,76.172,28.809,50.293,54.199,86.426
1573890531.076,19.531,29.785,-1000.000,-72.266,-745.117
1573890531.080,95.703,27.832,-182.617,94.727,-294.434
1573890531.084,178.711,29.297,-778.320,253.906,867.676
1573890531.088,117.676,26.367,304.688,120.117,390.137
1573890531.091,25.879,21.973,-1000.000,-59.082,-691.895
1573890531.095,72.266,17.578,-479.004,44.434,-516.602
1573890531.099,168.945,22.949,-937.988,241.699,634.277
1573890531.103,133.301,33.691,653.320,175.781,668.457
1573890531.107,22.461,30.273,-877.930,-42.480,-480.957
1573890531.111,30.762,30.273,-937.012,-21.484,-731.934
1573890531.115,134.277,35.645,522.461,197.754,330.566
1573890531.119,146.973,32.227,-908.691,215.820,852.539
1573890531.123,45.410,25.879,-284.668,-0.488,-195.801
1573890531.127,4.883,25.391,-1000.000,-65.430,-872.559
1573890531.131,94.727,24.902,16.113,130.371,-43.945
1573890531.134,146.484,20.020,-775.879,229.004,962.402
1573890531.138,61.035,20.020,128.418,43.457,171.875
1573890531.142,-10.254,26.855,-1000.000,-97.656,-761.719
1573890531.146,52.734,26.367,-244.141,51.758,-365.723
1573890531.150,141.602,30.762,-792.480,223.633,832.520
1573890531.154,97.168,41.992,373.535,114.746,499.512
1573890531.158,-6.348,32.227,-1000.000,-81.055,-656.250
1573890531.162,23.438,23.926,-524.902,1.465,-604.980
1573890531.166,122.070,31.250,-969.727,211.426,575.684
1573890531.170,100.098,35.645,724.121,165.039,719.727
1573890531.173,-4.395,32.715,-811.035,-55.664,-404.785
1573890531.177,-7.812,29.785,-968.750,-56.641,-777.344
1573890531.181,95.703,32.715,488.281,160.156,250.000
1573890531.185,120.117,37.109,-911.621,196.289,878.418
1573890531.189,24.902,34.180,-269.531,-14.160,-124.023
1573890531.193,-19.531,31.738,-1000.000,-98.633,-812.012
1573890531.197,72.754,39.551,-68.359,94.727,-123.535
1573890531.201,142.090,39.551,-782.715,214.844,924.316
1573890531.205,56.641,28.320,155.762,37.109,183.594
1573890531.209,-29.785,18.066,-1000.000,-120.605,-781.738
1573890531.213,36.133,24.902,-273.438,20.996,-408.691
1573890531.216,127.930,45.898,-806.641,200.195,777.344
1573890531.220,78.125,45.410,434.082,92.285,542.969
1573890531.224,-23.438,37.109,-1000.000,-108.887,-544.434
1573890531.228,3.906,37.109,-621.094,-45.410,-585.938
1573890531.232,108.887,40.039,929.199,165.527,516.113
1573890531.236,106.934,39.551,837.402,144.043,740.234
1573890531.240,0.977,33.203,-661.133,-81.055,-396.973
1573890531.244,-14.648,35.156,-1000.000,-100.586,-765.137
1573890531.248,87.402,41.504,300.293,115.723,191.406
1573890531.252,117.676,39.062,-808.594,179.199,902.832
1573890531.256,18.555,28.320,-13.672,-16.602,-43.457
1573890531.259,-33.203,27.344,-1000.000,-118.164,-824.219
1573890531.263,49.805,34.180,-133.789,61.035,-169.434
1573890531.267,115.234,37.598,-770.020,197.754,933.594
1573890531.271,47.852,36.133,262.695,46.387,331.055
1573890531.275,-32.715,33.203,-1000.000,-114.746,-681.641
1573890531.279,19.531,33.203,-356.934,9.277,-464.355
1573890531.283,109.863,36.621,-842.285,190.918,721.191
1573890531.287,73.242,37.598,534.668,101.562,604.492
1573890531.291,-20.996,34.180,-1000.000,-108.887,-574.219
1573890531.295,-1.953,32.227,-698.242,-64.941,-709.473
1573890531.298,98.633,32.715,830.078,151.367,429.688
1573890531.302,103.027,30.273,981.934,147.949,799.316
1573890531.306,-0.488,24.902,-471.680,-73.730,-290.039
1573890531.310,-27.344,25.879,-1000.000,-111.816,-802.246
1573890531.314,72.754,31.250,256.836,108.398,88.379
1573890531.318,125.000,37.598,-776.855,197.754,947.754
1573890531.322,36.621,43.457,69.824,0.000,7.812
1573890531.326,-32.715,35.645,-1000.000,-120.117,-854.492
1573890531.330,41.504,34.668,-163.574,55.176,-284.668
1573890531.334,117.188,31.250,-768.555,202.148,881.836
1573890531.338,56.152,25.391,273.926,53.711,409.180
1573890531.341,-34.668,30.762,-1000.000,-135.742,-685.547
1573890531.345,9.277,33.691,-343.262,-27.832,-542.480
1573890531.349,108.398,35.156,-864.746,181.152,653.809
1573890531.353,84.473,31.738,693.848,118.164,647.949
1573890531.357,-27.344,21.484,-862.793,-105.469,-492.188
1573890531.361,-5.859,18.555,-750.977,-63.477,-706.543
1573890531.365,108.398,31.738,772.949,168.457,364.746
1573890531.369,88.867,45.410,-914.062,149.902,830.078
1573890531.373,-30.273,54.688,-290.039,-83.496,-275.391
1573890531.377,-76.172,36.133,-1000.000,-148.438,-817.383
1573890531.381,12.207,26.855,203.125,45.410,23.926
1573890531.384,45.410,49.316,-752.441,111.816,909.180
1573890531.388,-53.711,51.270,167.480,-88.379,132.324
1573890531.392,-118.652,44.434,-1000.000,-211.426,-755.859
1573890531.396,-55.176,44.434,-176.270,-61.523,-337.891
1573890531.400,26.367,46.387,-770.508,93.750,826.660
1573890531.404,-39.062,40.527,428.711,-40.527,468.262
1573890531.408,-125.000,33.203,-1000.000,-219.238,-664.062
1573890531.412,-71.777,44.922,-434.570,-117.676,-628.418
1573890531.416,16.113,44.922,-905.273,74.707,582.520
1573890531.420,4.883,41.992,788.086,30.762,691.895
1573890531.423,-93.262,42.969,-744.141,-180.664,-444.336
1573890531.427,-98.633,39.551,-871.094,-173.340,-790.039
1573890531.431,15.137,39.551,614.746,58.594,240.234
1573890531.435,41.016,30.273,-843.750,97.656,885.742
1573890531.439,-58.105,29.297,-108.398,-117.188,-161.621
1573890531.443,-91.309,32.227,-1000.000,-187.012,-843.262
1573890531.447,-0.977,34.668,5.371,18.555,-67.871
1573890531.451,59.570,41.992,-751.953,142.090,958.008
1573890531.455,-13.184,32.715,199.707,-23.438,191.406
1573890531.459,-85.938,14.160,-1000.000,-166.992,-794.922
1573890531.463,-20.508,20.996,-229.980,-21.973,-384.766
1573890531.466,64.941,35.645,-781.738,154.297,805.664
1573890531.470,16.602,25.879,412.598,48.828,518.066
1573890531.474,-73.242,19.531,-1000.000,-147.949,-598.145
1573890531.478,-34.180,30.762,-533.691,-70.312,-627.930
1573890531.482,73.242,35.645,-988.281,148.438,513.184
1573890531.486,66.406,23.438,802.734,118.652,734.375
1573890531.490,-33.691,20.996,-713.867,-105.469,-426.758
1573890531.494,-41.992,32.715,-973.145,-116.211,-819.824
1573890531.498,62.500,36.621,453.613,106.445,227.051
1573890531.502,95.703,42.969,-830.078,161.621,905.273
1573890531.506,0.000,40.527,-71.777,-41.016,-105.957
1573890531.509,-49.316,26.367,-1000.000,-135.254,-775.879
1573890531.513,32.227,23.926,-109.863,48.340,-108.398
1573890531.517,96.680,29.785,-768.555,174.805,924.316
1573890531.521,26.855,27.832,238.770,12.695,261.230
1573890531.525,-49.316,22.949,-1000.000,-143.555,-769.043
1573890531.529,9.277,23.926,-311.523,-12.207,-461.426
1573890531.533,102.539,31.250,-818.848,173.340,748.535
1573890531.537,65.430,30.762,497.559,78.613,579.590
1573890531.541,-36.133,27.832,-1000.000,-129.395,-541.016
1573890531.545,-13.184,25.879,-685.547,-70.312,-600.586
1573890531.548,90.332,24.414,846.680,144.043,494.141
1573890531.552,86.914,27.832,933.594,130.371,765.625
1573890531.556,-15.625,26.855,-516.113,-82.520,-284.668
1573890531.560,-28.320,32.715,-1000.000,-104.004,-790.039
1573890531.564,70.312,32.715,170.410,107.422,85.449
1573890531.568,118.164,20.020,-797.363,187.012,935.547
1573890531.572,22.461,31.738,21.484,-17.090,8.301
1573890531.576,-61.035,34.180,-1000.000,-150.879,-829.102
1573890531.580,20.508,28.320,-183.105,26.367,-260.254
1573890531.584,89.844,34.668,-778.809,170.898,902.344
1573890531.588,27.344,27.832,283.691,26.855,353.516
1573890531.591,-53.711,26.855,-1000.000,-157.227,-740.723
1573890531.595,-11.719,38.086,-356.445,-45.410,-506.348
1573890531.599,90.332,38.086,-848.145,163.574,687.988
1573890531.603,62.500,32.227,581.055,89.355,604.004
1573890531.607,-34.180,26.855,-962.891,-120.117,-541.016
1573890531.611,-19.531,28.809,-775.879,-81.055,-680.664
1573890531.615,76.660,36.621,741.211,131.348,409.668
1573890531.619,85.449,32.227,-960.938,134.277,818.848
1573890531.623,-11.719,25.391,-386.719,-79.102,-233.887
1573890531.627,-37.598,25.391,-1000.000,-129.395,-828.613
1573890531.631,64.941,27.344,184.082,85.938,28.320
1573890531.634,112.305,30.762,-784.180,176.758,941.406
1573890531.638,22.949,31.738,54.688,-16.113,70.801
1573890531.642,-37.598,30.273,-1000.000,-134.766,-776.855
1573890531.646,37.109,29.785,-189.941,34.180,-277.344
1573890531.650,113.281,30.273,-778.809,190.918,868.652
1573890531.654,50.781,25.391,326.172,56.152,413.086
1573890531.658,-41.016,19.043,-1000.000,-133.301,-664.062
1573890531.662,0.977,12.207,-407.715,-38.086,-531.738
1573890531.666,102.051,20.996,-899.414,170.410,621.094
1573890531.670,78.125,31.250,728.516,117.676,693.359
1573890531.673,-27.344,17.578,-812.012,-100.098,-417.969
1573890531.677,-20.508,17.090,-846.191,-80.566,-696.289
1573890531.681,82.520,28.320,649.902,139.160,325.195
1573890531.685,97.656,31.250,-889.648,159.180,850.098
1573890531.689,5.859,31.738,-218.750,-52.734,-184.082
1573890531.693,-27.344,22.949,-1000.000,-118.164,-841.797
1573890531.697,62.012,17.578,37.109,81.543,-81.055
1573890531.701,114.746,30.273,-769.043,186.035,920.410
1573890531.705,29.785,37.109,158.691,1.953,169.922
1573890531.709,-47.363,34.668,-1000.000,-141.602,-741.211
1573890531.713,20.996,40.039,-277.832,15.625,-362.793
1573890531.716,103.027,40.039,-804.688,187.500,801.758
1573890531.720,46.875,34.668,416.504,64.941,517.090
1573890531.724,-46.875,34.668,-1000.000,-131.348,-633.301
1573890531.728,-18.555,30.273,-505.859,-46.875,-628.906
1573890531.732,83.984,33.203,-960.938,163.574,568.848
1573890531.736,76.660,39.062,783.691,126.465,701.660
1573890531.740,-32.715,26.367,-731.934,-94.727,-403.809
1573890531.744,-40.527,15.625,-975.098,-105.957,-734.375
1573890531.748,62.012,23.926,443.848,112.793,213.867
1573890531.752,83.008,29.785,-844.238,158.203,878.906
1573890531.756,-16.113,22.949,-119.141,-56.152,-118.164
1573890531.759,-57.129,21.484,-1000.000,-140.625,-824.707
1573890531.763,35.645,27.344,-60.547,57.129,-144.043
1573890531.767,101.562,30.762,-766.113,183.105,935.059
1573890531.771,30.762,29.785,206.543,14.648,246.094
1573890531.775,-43.945,25.879,-1000.000,-145.020,-739.258
1573890531.779,13.672,24.414,-282.227,-6.836,-379.395
1573890531.783,104.492,27.344,-802.734,175.781,777.832
1573890531.787,62.988,32.715,417.480,75.684,564.941
1573890531.791,-39.062,31.738,-1000.000,-126.953,-574.707
1573890531.795,-12.695,30.762,-693.848,-68.359,-639.160
1573890531.798,84.961,40.039,884.766,148.926,503.418
1573890531.802,74.707,42.480,772.461,129.883,745.605
1573890531.806,-27.344,32.227,-771.484,-93.750,-394.043
1573890531.810,-44.922,28.809,-1000.000,-108.398,-815.430
1573890531.814,47.852,37.109,311.523,107.422,150.879
1573890531.818,85.938,42.969,-809.570,168.457,920.898
1573890531.822,-4.395,41.504,-30.273,-39.551,-50.781
1573890531.826,-64.453,30.273,-1000.000,-147.949,-818.848
1573890531.830,27.832,21.973,-125.488,48.340,-169.922
1573890531.834,104.004,33.691,-770.996,190.918,919.434
1573890531.838,25.391,33.691,244.629,27.832,311.035
1573890531.841,-60.547,28.809,-1000.000,-143.066,-711.914
1573890531.845,3.418,41.504,-384.766,-20.508,-493.164
1573890531.849,106.445,47.363,-860.352,174.805,683.105
1573890531.853,76.660,34.668,530.273,105.957,591.797
1573890531.857,-22.949,23.438,-995.117,-98.633,-533.203
1573890531.861,-11.230,30.762,-826.660,-64.453,-689.941
1573890531.865,98.633,40.527,680.664,158.691,387.207
1573890531.869,106.445,42.969,-995.117,166.992,819.336
1573890531.873,-0.488,30.762,-463.867,-57.617,-288.574
1573890531.877,-23.926,32.227,-1000.000,-99.121,-850.586
1573890531.881,72.754,38.574,189.453,116.211,58.105
1573890531.884,105.957,23.438,-792.969,188.965,946.289
1573890531.888,16.602,12.207,30.762,-8.301,60.059
1573890531.892,-41.992,19.043,-1000.000,-125.488,-798.828
1573890531.896,39.062,30.762,-190.918,40.039,-261.719
1573890531.900,117.676,39.062,-779.785,187.988,897.949
1573890531.904,56.152,39.062,311.035,53.711,397.949
1573890531.908,-26.855,33.691,-1000.000,-122.559,-633.301
1573890531.912,25.879,41.016,-407.227,-9.766,-483.398
1573890531.916,119.629,47.363,-872.559,187.012,652.344
1573890531.920,89.844,41.016,601.074,117.676,650.391
1573890531.923,-8.789,29.785,-918.945,-91.309,-465.820
1573890531.927,-4.395,30.762,-900.391,-68.359,-705.078
1573890531.931,95.703,39.062,588.379,145.508,323.242
1573890531.935,105.957,34.180,-975.586,163.574,851.074
1573890531.939,3.418,25.879,-428.223,-59.082,-188.965
1573890531.943,-29.297,26.855,-1000.000,-118.652,-780.273
1573890531.947,62.988,22.949,79.590,95.703,19.531
1573890531.951,115.723,30.273,-770.020,196.777,927.734
1573890531.955,35.156,27.832,149.902,9.277,104.492
1573890531.959,-40.527,20.996,-1000.000,-127.930,-779.785
1573890531.963,35.156,33.203,-212.891,31.738,-323.730
1573890531.966,124.023,40.039,-779.297,193.848,844.238
1573890531.970,62.988,39.551,382.324,66.406,470.215
1573890531.974,-33.691,41.504,-1000.000,-125.000,-664.062
1573890531.978,7.324,42.480,-462.402,-34.180,-586.426
1573890531.982,107.422,34.180,-934.082,173.340,589.844
1573890531.986,89.355,34.180,782.227,126.953,705.078
1573890531.990,-13.184,33.691,-752.930,-89.355,-384.766
1573890531.994,-18.066,18.066,-900.391,-83.984,-741.699
1573890531.998,86.426,19.531,564.453,136.719,232.910
1573890532.002,104.492,31.738,-835.938,171.387,874.023
1573890532.006,-5.859,27.344,-89.844,-46.875,-123.535
1573890532.009,-34.180,22.949,-1000.000,-112.793,-793.945
1573890532.013,74.219,27.344,-29.785,98.145,-80.566
1573890532.017,108.398,21.484,-757.324,189.453,948.242
1573890532.021,15.137,11.719,236.816,3.418,259.766
1573890532.025,-54.199,6.836,-1000.000,-141.113,-737.793
1573890532.029,0.488,8.301,-257.812,-5.371,-418.457
1573890532.033,88.379,15.137,-796.875,171.875,796.387
1573890532.037,42.480,15.625,507.324,65.918,535.156
1573890532.041,-58.594,15.137,-1000.000,-134.277,-606.934
1573890532.045,-29.297,16.602,-510.254,-65.918,-630.859
1573890532.048,77.637,14.648,-986.816,145.508,509.766
1573890532.052,70.801,20.508,920.898,121.094,719.727
1573890532.056,-31.250,27.344,-552.246,-94.727,-352.051
1573890532.060,-42.969,21.973,-964.355,-111.328,-687.500
1573890532.064,58.105,18.555,475.098,106.934,208.496
1573890532.068,92.285,24.414,-800.781,170.410,907.715
1573890532.072,-1.465,26.367,-4.883,-37.109,-87.402
1573890532.076,-46.875,16.113,-1000.000,-133.789,-870.117
1573890532.080,45.898,20.508,-85.449,59.570,-176.758
1573890532.084,113.770,35.156,-760.742,197.266,922.363
1573890532.088,35.645,31.738,222.656,35.645,289.551
1573890532.091,-42.969,31.738,-1000.000,-132.324,-727.539
1573890532.095,15.625,36.133,-296.387,-2.441,-479.492
1573890532.099,99.609,37.109,-821.289,188.477,718.262
1573890532.103,62.012,33.691,541.016,95.703,564.941
1573890532.107,-34.668,32.715,-1000.000,-116.699,-552.246
1573890532.111,-19.531,39.062,-661.621,-67.871,-651.855
1573890532.115,78.613,36.133,877.441,141.602,443.359
1573890532.119,83.008,30.273,971.191,134.766,786.133
1573890532.123,-16.602,32.715,-499.023,-81.055,-327.148
1573890532.127,-42.969,34.180,-1000.000,-115.723,-785.645
1573890532.131,54.199,32.227,310.059,100.586,136.719
1573890532.134,99.609,29.785,-783.691,176.758,928.711
1573890532.138,14.160,37.109,45.410,-16.113,15.137
1573890532.142,-45.410,31.738,-1000.000,-128.906,-779.297
1573890532.146,29.785,34.180,-132.324,45.898,-216.309
1573890532.150,98.633,39.551,-765.625,190.918,908.203
1573890532.154,36.621,30.273,282.715,46.875,347.656
1573890532.158,-47.363,27.832,-1000.000,-131.348,-764.160
1573890532.162,-2.441,33.691,-400.879,-22.949,-531.250
1573890532.166,92.773,38.574,-861.816,175.781,681.641
1573890532.170,62.988,35.156,549.805,104.492,625.977
1573890532.173,-40.039,29.297,-950.684,-105.957,-519.043
1573890532.177,-28.320,31.738,-898.926,-74.219,-730.957
1573890532.181,80.566,41.992,541.016,142.090,341.797
1573890532.185,93.750,39.062,-929.688,158.691,835.938
1573890532.189,-3.906,23.926,-343.750,-57.617,-191.406
1573890532.193,-39.551,23.926,-1000.000,-124.023,-759.766
1573890532.197,57.129,35.156,121.094,79.590,36.621
1573890532.201,113.770,39.062,-770.020,181.152,938.965
1573890532.205,25.391,38.574,124.023,-4.395,106.934
1573890532.209,-39.062,36.133,-1000.000,-135.254,-784.668
1573890532.213,34.180,40.039,-218.750,27.832,-332.031
1573890532.216,110.840,41.016,-782.227,188.965,847.168
1573890532.220,57.129,38.574,330.566,61.523,469.238
1573890532.224,-29.785,40.527,-1000.000,-119.629,-611.328
1573890532.228,7.324,39.062,-454.102,-26.855,-517.578
1573890532.232,103.027,35.645,-904.297,172.852,612.305
1573890532.236,80.078,35.645,635.254,115.234,698.730
1573890532.240,-23.926,29.785,-917.480,-108.398,-401.367
1573890532.244,-20.508,22.949,-852.051,-89.355,-680.664
1573890532.248,79.102,26.367,617.676,131.836,336.426
1573890532.252,89.355,30.762,-893.066,153.809,856.445
1573890532.256,-13.184,29.785,-223.145,-56.641,-171.875
1573890532.259,-45.898,31.250,-1000.000,-124.023,-774.902
1573890532.263,46.387,30.273,14.648,76.172,-10.254
1573890532.267,98.633,23.438,-769.043,187.500,947.754
1573890532.271,19.531,24.902,149.414,10.742,202.148
1573890532.275,-48.340,21.973,-1000.000,-130.371,-720.703
1573890532.279,18.555,13.672,-232.422,19.531,-364.746
1573890532.283,94.727,20.996,-789.551,180.664,800.781
1573890532.287,53.223,35.645,418.945,66.895,517.090
1573890532.291,-34.180,33.691,-1000.000,-124.023,-606.934
1573890532.295,-8.789,22.461,-532.715,-53.223,-617.188
1573890532.298,96.191,31.250,-996.094,162.598,529.785
1573890532.302,87.891,30.762,830.078,131.348,728.027
1573890532.306,-20.020,23.926,-649.414,-94.727,-381.348
1573890532.310,-29.297,21.484,-1000.000,-100.098,-767.578
1573890532.314,73.242,27.344,305.664,121.094,189.941
1573890532.318,97.656,29.785,-824.219,167.969,893.066
1573890532.322,3.418,21.484,-77.148,-36.133,-81.055
1573890532.326,-38.086,20.020,-1000.000,-125.488,-816.895
1573890532.330,49.316,30.273,-57.617,63.965,-161.621
1573890532.334,109.375,32.715,-760.742,187.988,934.570
1573890532.338,37.109,26.367,229.492,29.297,268.066
1573890532.341,-36.621,27.344,-1000.000,-128.418,-777.832
1573890532.345,20.508,28.809,-281.250,-1.465,-412.109
1573890532.349,107.422,27.344,-806.641,184.082,773.438
1573890532.353,70.801,31.250,496.582,92.285,564.453
1573890532.357,-26.367,29.785,-1000.000,-110.352,-549.805
1573890532.361,-7.812,29.785,-686.035,-56.152,-646.973
1573890532.365,97.656,32.227,864.258,161.133,460.938
1573890532.369,95.215,31.738,918.945,145.508,770.508
1573890532.373,-11.719,33.691,-583.008,-81.055,-329.102
1573890532.377,-31.738,34.180,-1000.000,-111.816,-764.648
1573890532.381,67.871,34.668,325.195,109.375,152.832
1573890532.384,105.957,38.086,-815.430,181.152,919.434
1573890532.388,13.672,41.992,-58.105,-22.949,-0.977
1573890532.392,-42.969,44.434,-1000.000,-131.836,-790.527
1573890532.396,36.133,49.316,-116.699,45.898,-185.059
1573890532.400,97.656,48.828,-770.996,181.152,913.574
1573890532.404,26.855,40.527,245.605,24.414,340.332
1573890532.408,-54.199,39.062,-1000.000,-147.949,-690.430
1573890532.412,-6.348,51.758,-363.281,-28.809,-508.301
1573890532.416,71.777,63.965,-836.914,154.785,689.941
1573890532.420,29.785,54.199,437.988,52.246,593.750
1573890532.423,-73.242,57.617,-1000.000,-166.016,-553.223
1573890532.427,-68.359,66.406,-776.367,-132.812,-696.289
1573890532.431,26.367,74.707,726.074,68.359,395.508
1573890532.435,28.320,83.984,956.543,64.453,809.082
1573890532.439,-76.172,77.637,-510.254,-151.855,-280.762
1573890532.443,-125.977,73.730,-1000.000,-212.402,-829.102
1573890532.447,-45.898,80.078,102.051,-14.648,35.645
1573890532.451,-4.395,81.055,-799.805,73.242,958.984
1573890532.455,-100.098,79.102,51.758,-133.301,110.352
1573890532.459,-174.805,83.984,-1000.000,-270.508,-782.227
1573890532.463,-109.863,91.797,-248.047,-104.004,-288.086
1573890532.466,-42.969,90.820,-800.781,41.504,867.188
1573890532.470,-104.492,82.520,300.293,-101.562,443.359
1573890532.474,-189.941,80.566,-1000.000,-282.715,-661.133
1573890532.478,-152.344,87.891,-436.523,-183.105,-555.176
1573890532.482,-54.199,79.590,-906.250,23.438,621.094
1573890532.486,-70.312,72.754,645.508,-22.461,671.875
1573890532.490,-163.574,77.148,-895.996,-231.934,-458.496
1573890532.494,-150.879,80.566,-877.441,-207.031,-710.449
1573890532.498,-39.551,83.496,606.445,29.297,344.238
1573890532.502,-12.695,75.684,-918.457,69.336,854.492
1573890532.506,-97.168,63.965,-307.129,-134.766,-164.551
1573890532.509,-122.070,66.406,-1000.000,-197.754,-787.109
1573890532.513,-18.066,63.965,60.547,5.859,-8.301
1573890532.517,51.270,55.176,-765.137,123.535,963.379
1573890532.521,-21.484,48.828,152.344,-51.758,114.746
1573890532.525,-83.496,40.039,-1000.000,-185.059,-792.969
1573890532.529,-6.348,36.621,-214.355,-19.043,-332.031
1573890532.533,96.191,40.039,-779.785,162.598,829.590
1573890532.537,58.594,39.551,338.379,54.199,479.004
1573890532.541,-32.227,25.879,-1000.000,-134.277,-672.852
1573890532.545,7.812,18.555,-536.621,-41.016,-622.559
1573890532.548,116.699,17.578,-969.727,181.152,565.430
1573890532.552,110.352,15.137,669.434,139.160,706.543
1573890532.556,11.230,16.602,-882.812,-74.219,-408.691
1573890532.560,14.160,12.695,-906.738,-62.012,-722.656
1573890532.564,117.676,6.348,522.949,161.621,276.367
1573890532.568,145.020,17.578,-845.703,206.543,864.258
1573890532.572,47.363,15.137,-122.559,-3.906,-112.793
1573890532.576,5.859,2.441,-1000.000,-76.660,-759.766
1573890532.580,102.051,10.254,-24.414,119.141,-81.543
1573890532.584,159.180,19.043,-761.230,242.188,938.965
1573890532.588,82.520,12.207,205.566,81.543,219.238
1573890532.591,11.230,-1.953,-1000.000,-72.266,-708.496
1573890532.595,70.312,-4.395,-284.180,71.289,-340.332
1573890532.599,160.156,7.324,-806.641,260.742,783.203
1573890532.603,118.652,13.184,466.797,160.645,523.926
1573890532.607,13.672,0.977,-1000.000,-45.410,-626.953
1573890532.611,33.203,-3.906,-632.324,20.508,-687.012
1573890532.615,140.137,2.930,880.859,236.328,453.125
1573890532.619,135.742,5.859,932.617,211.914,703.125
1573890532.623,31.738,6.836,-563.965,-10.742,-385.254
1573890532.627,21.973,8.789,-1000.000,-29.297,-786.133
1573890532.631,123.047,13.672,431.152,185.059,166.504
1573890532.634,155.762,12.207,-805.176,247.559,913.574
1573890532.638,64.941,6.836,-20.508,47.363,-23.926
1573890532.642,16.602,5.371,-1000.000,-64.453,-760.254
1573890532.646,100.098,2.930,-134.766,110.352,-176.270
1573890532.650,167.480,10.254,-766.602,247.559,903.809
1573890532.654,102.539,14.160,307.129,93.750,324.707
1573890532.658,16.113,2.930,-1000.000,-75.684,-693.359
1573890532.662,69.824,4.395,-298.340,46.387,-455.078
1573890532.666,164.062,15.137,-820.801,232.422,695.312
1573890532.670,125.977,15.137,609.863,143.555,597.656
1573890532.673,25.391,2.441,-956.543,-64.453,-521.973
1573890532.677,43.945,3.418,-642.578,-16.113,-697.754
1573890532.681,145.996,9.766,910.156,201.660,416.016
1573890532.685,140.137,5.859,975.586,196.289,797.852
1573890532.689,31.250,5.371,-488.770,-29.785,-292.969
1573890532.693,12.695,8.789,-1000.000,-67.871,-774.902
1573890532.697,111.816,14.160,324.707,149.414,110.840
1573890532.701,147.949,13.184,-767.090,224.609,942.383
1573890532.705,55.664,6.348,96.680,29.785,3.906
1573890532.709,-8.789,8.789,-1000.000,-83.008,-790.527
1573890532.713,61.035,13.672,-136.230,84.961,-180.664
1573890532.716,129.883,21.973,-760.254,227.539,906.250
1573890532.720,72.754,27.832,304.199,86.426,371.094
1573890532.724,-12.695,20.508,-1000.000,-90.332,-682.129
1573890532.728,34.180,22.461,-364.746,22.949,-493.652
1573890532.732,128.906,34.180,-854.492,220.703,665.039
1573890532.736,103.516,35.156,618.652,146.973,617.676
1573890532.740,10.254,28.320,-920.410,-60.059,-508.301
1573890532.744,13.672,21.484,-788.574,-32.715,-684.082
1573890532.748,105.957,29.297,717.285,181.641,363.281
1573890532.752,117.188,31.738,-942.871,197.266,830.566
1573890532.756,20.020,17.090,-312.988,-19.043,-201.172
1573890532.759,-4.395,14.648,-1000.000,-71.777,-806.152
1573890532.763,100.098,27.344,53.711,140.137,-28.320
1573890532.767,152.344,34.180,-770.996,243.652,913.086
1573890532.771,68.359,34.668,137.207,48.340,119.141
1573890532.775,2.441,27.344,-1000.000,-92.285,-761.719
1573890532.779,72.754,24.902,-211.426,70.312,-328.613
1573890532.783,155.273,34.180,-781.250,227.051,834.961
1573890532.787,99.609,35.156,337.891,98.145,452.637
1573890532.791,10.254,37.598,-1000.000,-88.379,-627.441
1573890532.795,43.457,38.574,-523.926,-9.766,-569.824
1573890532.798,132.812,33.691,-980.469,187.988,579.590
1573890532.802,115.723,34.668,762.207,144.531,697.754
1573890532.806,7.812,28.809,-791.992,-76.660,-457.520
1573890532.810,-1.953,28.809,-914.062,-75.195,-781.738
1573890532.814,103.027,33.691,570.801,148.926,284.180
1573890532.818,124.023,37.109,-886.719,187.012,878.418
1573890532.822,22.461,30.273,-216.797,-30.762,-174.805
1573890532.826,-21.973,18.555,-1000.000,-110.840,-799.316
1573890532.830,63.965,20.508,-37.109,83.008,-50.781
1573890532.834,125.488,29.785,-769.531,197.754,941.895
1573890532.838,46.875,34.180,180.664,30.273,201.172
1573890532.841,-34.180,31.250,-1000.000,-122.559,-799.316
1573890532.845,27.832,32.715,-249.512,23.438,-411.133
1573890532.849,116.699,35.645,-788.574,206.055,806.641
1573890532.853,75.684,40.527,353.027,96.191,504.883
1573890532.857,-21.973,40.039,-1000.000,-101.074,-654.785
1573890532.861,3.418,33.691,-524.902,-20.996,-626.465
1573890532.865,101.074,32.227,996.582,189.941,541.016
1573890532.869,89.355,30.762,837.402,151.367,745.117
1573890532.873,-20.996,31.738,-678.223,-74.219,-398.926
1573890532.877,-33.203,31.250,-992.676,-89.844,-819.336
1573890532.881,71.777,31.250,435.059,125.488,186.523
1573890532.884,101.074,37.598,-826.660,176.270,883.301
1573890532.888,6.836,37.598,-85.449,-28.809,-102.539
1573890532.892,-36.621,25.879,-1000.000,-118.164,-824.219
1573890532.896,57.129,25.879,-61.035,67.383,-169.922
1573890532.900,122.070,28.809,-762.207,189.941,925.293
1573890532.904,49.805,30.273,243.164,33.691,257.812
1573890532.908,-25.879,28.809,-1000.000,-121.094,-782.227
1573890532.912,33.203,28.809,-335.938,8.301,-440.430
1573890532.916,126.465,38.574,-823.242,197.754,760.254
1573890532.920,89.355,41.016,447.266,106.934,561.523
1573890532.923,-5.859,35.645,-1000.000,-95.215,-569.336
1573890532.927,15.625,31.250,-756.348,-40.527,-689.941
1573890532.931,113.770,34.668,749.512,171.875,435.547
1573890532.935,109.863,31.738,966.797,157.227,778.320
1573890532.939,3.418,23.926,-531.250,-70.312,-375.488
1573890532.943,-14.160,25.391,-1000.000,-99.609,-845.703
1573890532.947,80.566,27.344,310.059,116.211,117.676
1573890532.951,111.328,22.461,-788.574,183.105,932.617
1573890532.955,16.602,16.113,37.598,-20.020,22.461
1573890532.959,-38.574,19.531,-1000.000,-129.395,-785.645
1573890532.963,43.457,30.762,-147.461,50.781,-201.172
1573890532.966,113.281,33.691,-768.066,202.637,910.156
1573890532.970,48.340,27.344,266.602,55.664,362.793
1573890532.974,-37.598,24.414,-1000.000,-128.418,-646.484
1573890532.978,10.742,17.578,-354.004,-9.277,-445.801
1573890532.982,107.422,19.043,-835.938,199.219,703.125
1573890532.986,83.008,37.598,518.066,126.465,635.254
1573890532.990,-15.625,42.969,-1000.000,-87.402,-533.203
1573890532.994,-12.207,27.832,-734.863,-50.781,-712.891
1573890532.998,91.797,26.367,786.133,175.781,410.645
1573890533.002,106.445,37.598,982.910,187.012,816.895
1573890533.006,4.883,34.668,-445.312,-30.273,-275.391
1573890533.009,-19.531,34.180,-1000.000,-73.242,-795.898
1573890533.013,79.102,36.621,127.441,134.277,81.055
1573890533.017,122.559,33.691,-795.898,212.402,939.941
1573890533.021,31.738,27.344,35.156,15.625,90.820
1573890533.025,-35.156,29.785,-1000.000,-111.816,-755.859
1573890533.029,40.039,32.715,-183.105,46.875,-308.105
1573890533.033,111.328,28.320,-779.785,194.336,863.281
1573890533.037,46.387,21.973,325.195,55.664,427.734
1573890533.041,-45.410,16.113,-1000.000,-129.883,-712.891
1573890533.045,-0.977,21.973,-440.430,-31.250,-565.918
1573890533.048,101.074,29.785,-904.785,170.898,628.906
1573890533.052,83.496,30.273,664.551,119.141,667.480
1573890533.056,-19.043,28.320,-848.633,-95.703,-475.098
1573890533.060,-19.531,26.855,-939.453,-85.938,-811.523
1573890533.064,81.055,23.926,495.605,126.953,258.301
1573890533.068,96.680,20.020,-903.320,155.273,868.164
1573890533.072,3.906,19.531,-270.508,-45.898,-159.668
1573890533.076,-37.109,30.762,-1000.000,-118.164,-741.699
1573890533.080,42.969,38.574,40.039,67.871,13.672
1573890533.084,101.074,42.480,-765.137,180.664,942.383
1573890533.088,22.461,33.691,171.387,7.812,177.246
1573890533.091,-55.176,28.809,-1000.000,-137.695,-753.906
1573890533.095,5.859,33.203,-233.398,7.324,-325.684
1573890533.099,83.496,29.785,-784.180,174.805,861.328
1573890533.103,35.156,30.273,344.727,62.988,462.891
1573890533.107,-47.363,31.738,-1000.000,-125.977,-627.930
1573890533.111,-15.625,28.320,-556.152,-46.875,-542.480
1573890533.115,83.984,31.738,983.887,157.715,562.500
1573890533.119,79.590,40.039,798.340,122.070,730.469
1573890533.123,-18.555,40.039,-734.375,-87.402,-387.695
1573890533.127,-23.438,37.109,-981.445,-90.332,-770.020
1573890533.131,79.102,35.156,477.051,128.418,249.512
1573890533.134,106.445,39.551,-876.953,173.828,889.160
1573890533.138,9.766,45.410,-229.004,-38.086,-145.508
1573890533.142,-40.039,34.668,-1000.000,-123.535,-854.492
1573890533.146,43.457,30.273,-44.434,71.289,-131.348
1573890533.150,106.934,34.668,-774.902,196.777,944.824
1573890533.154,39.551,35.645,181.641,27.832,242.676
1573890533.158,-34.180,27.832,-1000.000,-128.418,-773.926
1573890533.162,19.531,22.461,-280.762,5.859,-456.543
1573890533.166,102.539,21.973,-802.246,185.547,770.996
1573890533.170,66.895,23.926,371.582,84.473,532.227
1573890533.173,-23.926,27.832,-1000.000,-114.258,-614.746
1573890533.177,-0.977,26.367,-614.258,-46.387,-658.691
1573890533.181,100.586,33.691,907.227,166.992,489.258
1573890533.185,93.750,35.645,878.418,143.555,740.234
1573890533.189,-11.719,24.902,-627.441,-83.496,-346.680
1573890533.193,-27.832,21.484,-1000.000,-104.492,-761.719
1573890533.197,78.125,25.391,350.586,113.770,162.109
1573890533.201,111.328,27.344,-821.289,171.875,903.809
1573890533.205,12.207,24.902,-61.523,-30.762,-20.508
1573890533.209,-40.527,16.602,-1000.000,-134.766,-758.789
1573890533.213,41.016,16.602,-131.348,41.016,-194.824
1573890533.216,115.234,36.133,-774.902,178.223,905.273
1573890533.220,49.805,35.645,263.672,23.926,300.781
1573890533.224,-35.156,24.902,-1000.000,-144.043,-717.773
1573890533.228,18.066,40.039,-419.434,-22.461,-455.078
1573890533.232,108.398,45.410,-882.324,170.410,705.078
1573890533.236,69.336,40.039,560.059,88.867,599.609
1573890533.240,-30.273,36.621,-1000.000,-119.629,-506.836
1573890533.244,-12.695,38.574,-727.051,-66.895,-660.645
1573890533.248,92.285,41.504,797.363,153.320,411.621
1573890533.252,97.168,41.016,997.559,145.508,812.012
1573890533.256,-2.441,43.457,-460.938,-69.824,-269.043
1573890533.259,-22.949,46.387,-1000.000,-110.840,-760.742
1573890533.263,68.359,39.062,253.418,99.609,123.047
1573890533.267,111.328,32.227,-771.973,185.059,939.941
1573890533.271,18.555,27.344,84.473,-15.137,44.434
1573890533.275,-52.246,20.508,-1000.000,-139.648,-831.543
1573890533.279,18.066,17.578,-145.508,25.391,-303.223
1573890533.283,98.145,22.949,-764.160,176.758,902.344
1573890533.287,41.504,24.902,296.875,34.668,412.109
1573890533.291,-46.875,20.020,-1000.000,-149.414,-714.355
1573890533.295,-1.465,18.555,-384.766,-39.062,-537.598
1573890533.298,91.309,23.926,-860.840,159.668,658.203
1573890533.302,70.801,27.344,603.027,91.309,657.715
1573890533.306,-29.785,25.879,-956.055,-119.141,-463.379
1573890533.310,-34.180,21.973,-753.418,-92.773,-706.543
1573890533.314,65.918,23.438,731.934,127.930,337.402
1573890533.318,72.754,22.461,-897.461,138.672,841.797
1573890533.322,-27.832,19.531,-232.910,-80.078,-193.848
1573890533.326,-54.688,17.090,-1000.000,-133.789,-802.734
1573890533.330,33.691,15.625,155.762,66.895,-13.672
1573890533.334,83.008,18.555,-754.395,161.133,951.172
1573890533.338,3.906,16.113,154.785,-17.578,108.398
1573890533.341,-53.711,12.695,-1000.000,-144.531,-805.664
1573890533.345,16.602,15.137,-212.891,10.254,-329.102
1573890533.349,96.191,21.484,-779.785,171.387,839.844
1573890533.353,45.898,20.508,409.668,50.781,474.609
1573890533.357,-47.363,10.254,-1000.000,-137.695,-603.027
1573890533.361,-8.301,14.648,-485.840,-47.363,-555.664
1573890533.365,88.379,20.508,-957.031,158.691,579.590
1573890533.369,72.754,17.090,808.594,112.305,714.844
1573890533.373,-28.320,19.043,-714.355,-99.609,-462.402
1573890533.377,-37.598,19.043,-940.918,-91.797,-795.410
1573890533.381,60.547,21.484,542.480,132.812,280.762
1573890533.384,87.402,29.297,-861.328,177.246,870.117
1573890533.388,-4.883,33.691,-186.035,-40.039,-135.742
1573890533.392,-49.805,34.180,-1000.000,-129.395,-838.867
1573890533.396,37.109,38.574,-6.836,61.523,-121.582
1573890533.400,94.727,30.762,-764.160,174.805,967.285
1573890533.404,13.184,20.020,189.941,1.465,156.250
1573890533.408,-62.012,25.879,-1000.000,-148.926,-820.312
1573890533.412,5.371,36.133,-253.418,-4.883,-357.422
1573890533.416,93.750,35.645,-793.457,173.828,805.664
1573890533.420,45.410,32.227,440.918,69.824,533.691
1573890533.423,-45.898,25.879,-1000.000,-126.465,-569.824
1573890533.427,-14.160,23.438,-557.617,-54.688,-585.938
1573890533.431,88.379,33.691,-996.582,161.133,531.738
1573890533.435,81.055,33.691,783.691,129.883,737.793
1573890533.439,-29.297,17.090,-729.492,-99.121,-382.812
1573890533.443,-42.969,14.160,-1000.000,-111.816,-833.496
1573890533.447,58.105,30.762,377.930,112.305,152.832
1573890533.451,85.449,38.086,-853.516,166.016,903.809
1573890533.455,-9.766,34.668,-128.906,-43.457,-80.566
1573890533.459,-67.871,25.391,-1000.000,-139.160,-866.699
1573890533.463,11.719,22.461,-88.379,49.316,-198.242
1573890533.466,83.008,33.691,-767.090,183.594,930.664
1573890533.470,14.648,34.668,241.211,29.785,274.414
1573890533.474,-66.895,26.367,-1000.000,-131.836,-750.977
1573890533.478,-0.977,32.715,-317.871,3.418,-467.773
1573890533.482,94.727,43.457,-821.777,191.406,731.445
1573890533.486,44.434,36.133,500.488,90.332,596.191
1573890533.490,-54.199,27.832,-1000.000,-112.793,-545.898
1573890533.494,-28.320,33.203,-670.898,-59.082,-655.273
1573890533.498,75.684,36.621,860.840,156.250,461.426
1573890533.502,73.242,29.297,948.242,141.113,799.805
1573890533.506,-21.484,29.785,-494.629,-82.031,-303.223
1573890533.509,-33.691,31.738,-1000.000,-109.863,-821.777
1573890533.513,67.871,35.645,180.664,103.516,98.145
1573890533.517,110.352,41.992,-796.387,177.246,916.016
1573890533.521,17.578,30.762,30.762,-26.367,-8.789
1573890533.525,-42.969,25.391,-1000.000,-149.414,-822.754
1573890533.529,35.156,37.598,-147.461,22.461,-233.398
1573890533.533,108.887,47.363,-771.484,165.527,910.156
1573890533.537,46.387,41.016,279.297,20.020,342.773
1573890533.541,-39.551,25.879,-1000.000,-149.902,-736.328
1573890533.545,8.301,29.785,-418.945,-30.762,-526.855
1573890533.548,104.492,45.410,-891.602,167.969,668.945
1573890533.552,76.172,48.828,654.297,96.680,673.828
1573890533.556,-22.949,45.410,-915.039,-110.352,-466.797
1573890533.560,-11.719,39.551,-767.578,-74.219,-685.547
1573890533.564,92.285,40.527,764.648,149.414,396.484
1573890533.568,101.562,34.668,-979.980,157.227,834.961
1573890533.572,-3.418,28.320,-394.043,-66.895,-247.559
1573890533.576,-35.156,35.156,-1000.000,-114.746,-859.863
1573890533.580,58.105,27.832,111.816,91.797,7.812
1573890533.584,106.934,28.320,-771.484,184.570,948.730
1573890533.588,23.438,35.645,123.047,1.953,143.555
1573890533.591,-41.504,30.762,-1000.000,-126.465,-728.516
1573890533.595,22.949,32.227,-192.871,34.668,-298.340
1573890533.599,97.168,32.227,-773.926,194.336,849.121
1573890533.603,43.457,28.320,322.266,64.941,408.691
1573890533.607,-41.016,32.227,-1000.000,-118.164,-691.895
1573890533.611,-2.930,32.227,-417.480,-22.949,-550.293
1573890533.615,90.820,26.855,-892.578,176.270,629.395
1573890533.619,69.336,27.832,675.781,123.535,660.645
1573890533.623,-31.738,22.461,-856.445,-93.750,-518.066
1573890533.627,-24.414,31.738,-895.508,-75.195,-793.945
1573890533.631,82.520,40.527,580.566,150.391,289.062
1573890533.634,101.562,36.621,-890.625,172.363,855.469
1573890533.638,-4.395,41.504,-232.910,-45.898,-159.180
1573890533.642,-48.828,36.133,-1000.000,-116.699,-768.555
1573890533.646,41.504,24.414,19.043,79.102,-43.457
1573890533.650,100.098,28.809,-766.113,186.523,937.988
1573890533.654,17.090,28.320,179.688,1.465,169.922
1573890533.658,-57.129,23.926,-1000.000,-141.113,-757.324
1573890533.662,16.113,34.180,-272.949,11.719,-364.746
1573890533.666,100.586,43.945,-801.270,176.758,787.598
1573890533.670,45.898,48.340,378.418,66.406,529.785
1573890533.673,-44.922,42.480,-1000.000,-124.512,-583.496
1573890533.677,-10.742,39.551,-663.086,-48.828,-637.207
1573890533.681,87.402,45.410,875.488,161.133,515.625
1573890533.685,73.730,41.016,838.867,124.023,722.168
1573890533.689,-26.367,38.086,-711.426,-93.750,-403.809
1573890533.693,-25.879,39.062,-991.699,-90.332,-816.406
1573890533.697,71.289,35.645,439.941,127.930,184.570
1573890533.701,94.238,39.551,-836.914,168.945,905.273
1573890533.705,0.977,35.645,-115.723,-42.480,-102.051
1573890533.709,-47.852,30.762,-1000.000,-130.859,-833.984
1573890533.713,45.898,39.062,-60.547,66.895,-141.602
1573890533.716,116.211,36.133,-766.602,194.336,936.035
1573890533.720,34.668,36.621,203.125,24.414,271.973
1573890533.724,-44.434,40.039,-1000.000,-134.277,-765.625
1573890533.728,14.160,40.039,-286.621,4.883,-473.145
1573890533.732,101.562,38.086,-803.711,194.336,773.926
1573890533.736,63.477,29.785,409.180,97.656,553.223
1573890533.740,-35.156,30.762,-1000.000,-109.375,-614.746
1573890533.744,-18.066,31.738,-626.953,-44.434,-646.973
1573890533.748,88.867,31.250,905.762,179.199,497.559
1573890533.752,98.145,39.062,880.371,164.062,767.090
1573890533.756,-5.859,33.203,-605.957,-67.383,-332.031
1573890533.759,-24.902,28.320,-1000.000,-98.145,-794.434
1573890533.763,70.801,35.156,286.133,118.652,143.066
1573890533.767,103.027,33.691,-803.223,181.152,919.922
1573890533.771,13.184,26.367,-2.930,-23.438,-31.250
1573890533.775,-45.410,19.043,-1000.000,-131.836,-814.453
1573890533.779,37.109,23.926,-119.629,54.199,-208.008
1573890533.783,109.863,32.227,-767.090,193.848,907.715
1573890533.787,39.062,29.297,260.742,35.645,291.504
1573890533.791,-45.898,20.508,-1000.000,-135.742,-741.699
1573890533.795,9.277,27.832,-369.629,-12.695,-477.051
1573890533.798,102.051,31.738,-850.098,178.223,700.195
1573890533.802,73.730,34.180,544.922,95.215,598.145
1573890533.806,-17.578,36.621,-979.492,-114.258,-556.641
1573890533.810,-9.766,29.785,-803.223,-74.707,-680.664
1573890533.814,91.797,33.203,689.941,144.043,407.715
1573890533.818,100.098,38.574,-990.723,145.508,809.082
1573890533.822,-1.465,35.156,-426.758,-71.289,-278.809
1573890533.826,-18.555,36.133,-1000.000,-109.863,-836.914
1573890533.830,83.496,48.340,130.371,106.445,69.824
1573890533.834,125.000,48.828,-778.809,190.918,967.285
1573890533.838,36.133,41.992,77.637,-1.465,69.824
1573890533.841,-23.438,43.457,-1000.000,-128.418,-788.574
1573890533.845,49.316,37.109,-178.223,35.645,-265.137
1573890533.849,127.441,35.645,-772.949,192.871,885.254
1573890533.853,67.383,40.527,300.293,55.176,423.828
1573890533.857,-19.043,45.410,-1000.000,-125.000,-644.531
1573890533.861,29.297,48.340,-390.137,-15.137,-510.742
1573890533.865,113.281,46.387,-875.488,180.176,649.902
1573890533.869,88.379,39.551,657.227,115.723,670.410
1573890533.873,-7.324,30.273,-875.977,-100.098,-468.750
1573890533.877,-11.719,32.715,-855.469,-85.449,-752.930
1573890533.881,87.402,35.645,651.855,137.695,310.547
1573890533.884,104.492,33.203,-935.547,164.551,864.258
1573890533.888,1.953,27.832,-345.215,-51.758,-226.562
1573890533.892,-32.227,30.762,-1000.000,-110.840,-844.727
1573890533.896,58.594,37.109,92.285,95.215,7.812
1573890533.900,108.398,36.621,-774.414,187.012,960.449
1573890533.904,21.973,33.203,121.094,-0.977,133.789
1573890533.908,-46.387,33.691,-1000.000,-133.789,-777.832
1573890533.912,21.484,35.645,-226.562,20.020,-318.359
1573890533.916,105.469,30.273,-784.668,185.059,830.566
1573890533.920,54.688,24.414,337.891,56.641,434.082
1573890533.923,-40.527,27.344,-1000.000,-142.090,-624.023
1573890533.927,-0.488,30.273,-447.754,-44.434,-536.621
1573890533.931,101.074,30.762,-937.012,171.387,577.148
1573890533.935,84.961,32.715,788.574,125.000,669.922
1573890533.939,-17.090,30.762,-741.699,-93.262,-529.297
1573890533.943,-29.297,28.809,-900.879,-95.703,-869.141
1573890533.947,72.266,33.691,575.195,125.977,199.219
1573890533.951,99.609,32.227,-847.656,174.316,854.492
1573890533.955,-3.418,22.461,-139.648,-46.875,-207.031
1573890533.959,-49.805,20.996,-1000.000,-130.371,-879.395
1573890533.963,42.480,28.809,3.418,64.453,-104.492
1573890533.966,100.586,31.250,-759.277,173.828,933.594
1573890533.970,19.043,25.879,224.121,6.348,204.102
1573890533.974,-48.828,23.926,-1000.000,-138.672,-778.809
1573890533.978,18.555,26.855,-290.527,3.906,-423.828
1573890533.982,100.098,25.879,-807.617,175.293,784.180
1573890533.986,55.176,26.855,492.676,72.754,522.461
1573890533.990,-38.574,24.414,-1000.000,-122.070,-681.641
1573890533.994,-9.766,21.973,-545.410,-56.152,-704.590
1573890533.998,91.309,26.367,991.211,157.227,505.371
1573890534.002,84.961,32.715,888.184,137.207,723.633
1573890534.006,-20.020,25.879,-603.516,-80.566,-427.734
1573890534.009,-38.574,11.719,-1000.000,-105.469,-798.828
1573890534.013,60.547,16.602,417.480,107.422,186.035
1573890534.017,94.238,27.832,-796.875,165.527,946.289
1573890534.021,-2.930,28.320,0.488,-45.410,-4.883
1573890534.025,-52.246,26.367,-1000.000,-139.160,-789.551
1573890534.029,33.203,30.273,-85.938,54.199,-129.395
1573890534.033,98.145,30.762,-759.766,186.035,954.102
1573890534.037,28.809,29.297,240.234,29.785,351.074
1573890534.041,-50.293,26.855,-1000.000,-131.348,-666.016
1573890534.045,12.695,31.250,-329.102,-4.395,-444.336
1573890534.048,106.445,36.621,-818.359,181.641,751.953
1573890534.052,65.430,35.156,442.871,90.820,591.309
1573890534.056,-26.855,40.527,-1000.000,-111.816,-530.762
1573890534.060,-10.254,39.551,-639.648,-60.547,-621.094
1573890534.064,87.402,35.645,865.234,148.926,461.914
1573890534.068,91.309,35.156,984.863,135.742,805.176
1573890534.072,-15.137,27.832,-452.148,-82.520,-283.203
1573890534.076,-35.156,25.879,-1000.000,-105.957,-814.453
1573890534.080,67.871,29.785,233.398,110.352,108.398
1573890534.084,111.816,34.668,-781.738,183.594,957.520
1573890534.088,25.391,42.969,68.359,-10.742,42.969
1573890534.091,-34.180,38.574,-1000.000,-121.582,-783.203
1573890534.095,40.527,35.645,-166.016,49.805,-225.098
1573890534.099,112.305,35.156,-771.973,194.336,910.156
1573890534.103,47.363,34.180,286.621,60.059,339.844
1573890534.107,-45.898,30.762,-1000.000,-116.699,-717.773
1573890534.111,0.000,34.180,-435.059,-14.160,-478.027
