timestamps,TP9,AF7,AF8,TP10,Right AUX
1573891048.308,-11.230,29.785,-572.754,-74.219,-321.777
1573891048.312,-30.762,27.832,-1000.000,-103.516,-856.445
1573891048.316,78.613,45.898,317.871,111.328,79.102
1573891048.320,115.234,42.969,-793.457,173.828,941.895
1573891048.324,21.973,38.086,26.855,-18.066,-12.207
1573891048.328,-31.738,35.645,-1000.000,-113.281,-838.867
1573891048.332,51.758,33.203,-156.250,56.152,-230.957
1573891048.336,132.324,37.598,-770.996,193.848,917.969
1573891048.340,65.918,41.016,259.766,59.082,367.188
1573891048.343,-25.879,40.527,-1000.000,-105.469,-701.660
1573891048.347,24.414,35.156,-348.633,6.348,-512.695
1573891048.351,120.117,30.273,-847.168,190.430,694.336
1573891048.355,86.426,28.809,589.355,116.211,616.211
1573891048.359,-12.207,30.273,-958.984,-82.520,-555.664
1573891048.363,0.977,23.926,-758.789,-55.664,-745.117
1573891048.367,103.027,21.484,756.348,149.902,362.793
1573891048.371,112.793,33.691,-965.332,160.645,855.957
1573891048.375,14.648,35.645,-366.699,-50.781,-205.078
1573891048.379,-11.230,40.039,-1000.000,-99.609,-794.922
1573891048.383,87.891,39.062,98.633,102.539,6.348
1573891048.386,127.930,29.785,-776.367,184.570,939.941
1573891048.390,32.715,37.598,117.188,-4.883,92.285
1573891048.394,-25.879,46.875,-1000.000,-127.930,-860.840
1573891048.398,46.875,44.922,-197.266,36.133,-377.441
1573891048.402,114.258,39.062,-775.879,188.477,847.656
1573891048.406,53.223,38.086,358.398,60.059,468.750
1573891048.410,-33.691,29.785,-1000.000,-122.559,-661.621
1573891048.414,6.348,27.832,-443.359,-31.250,-593.262
1573891048.418,103.516,32.715,-903.809,170.410,602.539
1573891048.422,78.125,33.203,686.523,120.605,701.660
1573891048.426,-28.809,33.203,-852.051,-91.309,-444.336
1573891048.429,-23.438,31.250,-879.395,-81.055,-791.016
1573891048.433,81.543,34.668,585.938,130.859,262.695
1573891048.437,101.562,39.551,-864.746,160.645,890.625
1573891048.441,0.488,33.691,-177.734,-46.387,-126.465
1573891048.445,-41.992,22.949,-1000.000,-119.629,-810.059
1573891048.449,54.199,17.090,40.527,76.172,-69.336
1573891048.453,107.422,20.508,-758.301,181.641,967.773
1573891048.457,27.344,26.367,179.688,10.254,201.172
1573891048.461,-40.039,28.809,-1000.000,-125.000,-826.172
1573891048.465,23.438,32.227,-229.492,16.113,-444.336
1573891048.468,114.258,33.691,-780.273,187.012,808.594
1573891048.472,64.941,27.832,368.652,77.148,506.836
1573891048.476,-37.109,25.879,-1000.000,-117.188,-655.762
1573891048.480,-5.371,32.227,-465.332,-39.551,-650.879
1573891048.484,93.262,28.809,-970.703,161.621,523.438
1573891048.488,82.520,21.484,892.578,126.953,746.582
1573891048.492,-21.973,20.020,-606.445,-85.938,-393.555
1573891048.496,-33.691,23.926,-949.219,-97.168,-797.363
1573891048.500,65.918,22.949,520.996,106.445,203.613
1573891048.504,86.914,19.043,-815.918,151.855,937.012
1573891048.508,-13.184,22.461,-58.594,-45.410,-65.430
1573891048.511,-57.617,20.996,-1000.000,-137.207,-902.344
1573891048.515,32.227,19.531,-68.848,41.992,-218.262
1573891048.519,93.262,21.484,-760.742,166.016,945.801
1573891048.523,22.949,20.508,251.953,15.137,295.898
1573891048.527,-46.387,14.648,-1000.000,-133.789,-757.812
1573891048.531,14.648,21.484,-314.453,-7.324,-475.098
1573891048.535,95.215,30.762,-825.684,166.504,731.934
1573891048.539,51.758,34.180,544.434,83.008,574.707
1573891048.543,-35.156,37.598,-1000.000,-104.004,-563.965
1573891048.547,-11.719,34.180,-639.648,-57.129,-696.289
1573891048.551,84.961,29.785,899.902,144.531,436.035
1573891048.554,82.520,29.297,974.609,134.766,806.641
1573891048.558,-19.043,28.320,-472.656,-72.754,-300.781
1573891048.562,-29.297,20.508,-1000.000,-91.797,-860.352
1573891048.566,74.219,17.578,298.340,116.699,77.637
1573891048.570,107.422,31.250,-777.832,179.199,935.547
1573891048.574,13.672,32.715,55.664,-13.184,-28.320
1573891048.578,-34.668,26.367,-1000.000,-122.070,-848.145
1573891048.582,46.875,32.715,-131.348,48.340,-230.957
1573891048.586,111.328,37.598,-762.207,194.336,914.062
1573891048.590,46.875,38.574,290.527,52.734,371.094
1573891048.593,-32.715,36.133,-1000.000,-116.699,-739.258
1573891048.597,18.555,36.133,-342.773,-9.766,-533.691
1573891048.601,122.559,40.527,-831.543,188.477,695.801
1573891048.605,82.031,28.809,546.387,111.328,644.531
1573891048.609,-35.156,20.508,-995.117,-114.258,-514.160
1573891048.613,-17.090,29.785,-757.324,-70.312,-713.379
1573891048.617,74.219,39.062,772.949,139.160,384.277
1573891048.621,78.613,37.109,987.305,144.531,821.289
1573891048.625,-21.484,27.344,-451.660,-66.406,-265.137
1573891048.629,-52.246,28.320,-1000.000,-121.094,-845.703
1573891048.633,47.363,29.785,191.895,82.520,29.297
1573891048.636,101.562,29.785,-783.691,177.734,950.195
1573891048.640,20.020,32.715,47.363,-2.930,86.914
1573891048.644,-41.992,36.133,-1000.000,-125.977,-854.492
1573891048.648,35.156,31.250,-175.293,36.133,-375.000
1573891048.652,112.305,26.855,-774.902,183.105,870.605
1573891048.656,49.316,35.645,328.125,53.711,460.449
1573891048.660,-42.969,32.227,-1000.000,-124.023,-646.484
1573891048.664,1.953,33.691,-424.316,-29.785,-542.480
1573891048.668,103.516,37.598,-895.996,167.480,627.930
1573891048.672,73.730,38.086,690.430,106.934,684.082
1573891048.676,-33.203,41.992,-833.008,-98.633,-456.055
1573891048.679,-16.602,41.016,-917.969,-73.242,-758.301
1573891048.683,96.680,45.410,537.109,145.508,288.086
1573891048.687,109.863,42.969,-895.508,170.898,869.629
1573891048.691,7.812,35.156,-246.094,-40.039,-192.871
1573891048.695,-29.297,31.250,-1000.000,-110.352,-866.211
1573891048.699,64.941,33.691,15.625,83.496,-77.148
1573891048.703,123.047,38.086,-769.531,189.941,960.449
1573891048.707,41.016,35.645,157.227,16.113,163.574
1573891048.711,-34.668,28.320,-1000.000,-127.441,-828.613
1573891048.715,29.297,28.320,-281.250,9.766,-432.129
1573891048.718,106.445,27.344,-803.711,171.875,806.152
1573891048.722,51.270,21.973,424.316,62.012,541.992
1573891048.726,-43.945,20.020,-1000.000,-129.883,-636.230
1573891048.730,-8.301,31.738,-495.117,-53.711,-659.180
1573891048.734,92.773,34.180,-964.844,152.832,534.668
1573891048.738,69.336,17.578,827.148,109.863,727.051
1573891048.742,-38.086,20.020,-685.547,-107.910,-378.418
1573891048.746,-43.945,29.785,-964.355,-109.375,-760.742
1573891048.750,55.664,35.156,486.816,99.609,212.891
1573891048.754,81.055,36.621,-852.539,145.996,912.109
1573891048.758,-11.719,33.691,-154.785,-53.711,-91.309
1573891048.761,-58.105,27.344,-1000.000,-138.672,-857.910
1573891048.765,27.832,24.414,-40.039,45.410,-157.227
1573891048.769,91.309,30.762,-766.113,166.504,955.566
1573891048.773,14.160,33.691,204.102,14.648,273.926
1573891048.777,-59.570,23.926,-1000.000,-132.812,-752.930
1573891048.781,7.324,19.531,-272.949,-1.465,-429.688
1573891048.785,98.633,27.832,-802.734,178.711,773.926
1573891048.789,57.617,31.250,458.984,85.449,568.848
1573891048.793,-39.551,32.227,-1000.000,-112.305,-560.059
1573891048.797,-14.160,32.715,-638.184,-47.363,-643.066
1573891048.801,94.727,30.273,896.484,166.504,473.633
1573891048.804,91.797,31.250,932.617,143.066,775.391
1573891048.808,-16.602,35.156,-546.387,-70.801,-358.887
1573891048.812,-25.879,35.156,-1000.000,-88.867,-847.168
1573891048.816,79.590,40.039,321.777,114.746,110.352
1573891048.820,118.652,42.969,-791.016,187.012,944.824
1573891048.824,29.785,35.645,24.414,-0.977,22.461
1573891048.828,-23.438,32.227,-1000.000,-109.863,-834.473
1573891048.832,56.641,37.598,-141.602,66.406,-245.117
1573891048.836,119.141,44.922,-770.020,201.172,929.199
1573891048.840,53.223,43.945,280.762,53.711,368.164
1573891048.843,-30.273,32.227,-1000.000,-114.258,-729.004
1573891048.847,9.766,30.273,-431.641,-12.695,-533.203
1573891048.851,95.215,39.551,-888.672,169.434,684.570
1573891048.855,63.965,40.527,577.637,100.098,616.699
1573891048.859,-41.016,30.762,-986.328,-106.934,-606.934
1573891048.863,-29.785,24.902,-763.184,-73.242,-799.316
1573891048.867,77.148,25.391,751.953,143.555,361.328
1573891048.871,86.914,33.691,-966.797,151.367,830.078
1573891048.875,-19.043,32.227,-387.695,-66.406,-261.719
1573891048.879,-43.945,22.949,-1000.000,-112.793,-833.984
1573891048.883,58.105,27.832,152.344,92.285,48.340
1573891048.886,104.004,30.762,-777.832,174.805,981.934
1573891048.890,18.066,23.926,75.684,-10.254,122.559
1573891048.894,-53.223,25.879,-1000.000,-135.254,-750.488
1573891048.898,17.578,34.668,-170.410,22.949,-256.348
1573891048.902,98.145,39.062,-770.508,180.176,895.020
1573891048.906,40.527,28.320,305.664,51.758,433.594
1573891048.910,-49.316,22.461,-1000.000,-133.301,-699.707
1573891048.914,-4.395,40.039,-394.043,-32.227,-552.734
1573891048.918,102.539,46.875,-873.535,171.387,640.137
1573891048.922,76.660,39.551,636.719,109.863,680.176
1573891048.926,-28.320,32.227,-894.043,-101.074,-487.305
1573891048.929,-16.602,33.203,-854.004,-77.148,-768.066
1573891048.933,90.820,37.598,640.625,139.648,319.824
1573891048.937,108.398,41.016,-923.828,166.504,867.676
1573891048.941,12.207,37.109,-301.270,-35.156,-172.363
1573891048.945,-19.531,31.738,-1000.000,-96.680,-836.914
1573891048.949,73.730,41.992,50.781,94.727,-50.293
1573891048.953,123.535,42.480,-763.184,197.266,966.309
1573891048.957,33.203,37.598,174.316,25.391,152.832
1573891048.961,-40.527,36.621,-1000.000,-118.164,-831.055
1573891048.965,34.668,42.480,-226.074,27.832,-411.621
1573891048.968,122.070,52.734,-783.203,198.730,815.430
1573891048.972,73.242,49.805,401.855,84.961,521.484
1573891048.976,-15.625,41.504,-1000.000,-101.074,-589.355
1573891048.980,17.578,36.133,-575.195,-25.391,-596.680
1573891048.984,111.816,37.109,971.191,171.875,541.992
1573891048.988,98.145,41.016,802.246,135.742,750.977
1573891048.992,1.953,33.691,-696.289,-69.824,-341.797
1573891048.996,1.953,27.344,-1000.000,-73.242,-764.160
1573891049.000,102.051,28.809,341.797,132.812,210.449
1573891049.004,126.953,35.156,-826.172,178.223,910.156
1573891049.008,30.273,36.621,-87.891,-22.949,-72.754
1573891049.011,-18.555,35.156,-1000.000,-110.352,-833.984
1573891049.015,61.523,33.203,-74.707,70.312,-167.480
1573891049.019,117.188,38.086,-764.160,186.035,954.590
1573891049.023,39.551,35.645,231.445,22.461,290.039
1573891049.027,-38.574,26.855,-1000.000,-126.953,-723.633
1573891049.031,21.484,37.598,-297.852,9.277,-391.113
1573891049.035,106.445,41.992,-811.035,179.199,782.227
1573891049.039,61.523,31.738,479.004,82.520,586.914
1573891049.043,-34.180,26.855,-1000.000,-105.957,-565.918
1573891049.047,-5.371,33.691,-604.980,-46.387,-715.820
1573891049.051,99.609,44.922,950.684,162.109,447.754
1573891049.054,91.797,40.527,871.094,143.555,787.109
1573891049.058,-17.578,22.461,-636.719,-79.102,-359.863
1573891049.062,-32.715,23.926,-1000.000,-106.934,-837.402
1573891049.066,64.453,36.133,359.863,104.492,152.344
1573891049.070,94.727,36.133,-838.867,164.062,935.059
1573891049.074,9.277,34.668,-106.934,-31.250,-72.266
1573891049.078,-40.039,30.762,-1000.000,-129.883,-864.258
1573891049.082,41.016,32.227,-140.625,43.457,-235.840
1573891049.086,108.887,41.504,-777.344,173.340,904.785
1573891049.090,41.504,40.527,235.840,22.949,339.355
1573891049.093,-33.203,34.668,-1000.000,-136.719,-671.387
1573891049.097,20.020,35.645,-318.359,-14.160,-432.617
1573891049.101,111.816,36.133,-838.867,173.828,717.773
1573891049.105,83.496,36.621,598.633,95.703,640.625
1573891049.109,-15.625,35.645,-962.402,-103.027,-496.582
1573891049.113,2.441,30.273,-695.312,-61.035,-688.965
1573891049.117,107.910,31.250,836.426,150.391,395.508
1573891049.121,112.793,31.250,-976.562,157.227,829.590
1573891049.125,12.695,25.391,-391.602,-48.340,-232.910
1573891049.129,-5.371,27.344,-1000.000,-87.891,-818.848
1573891049.133,92.285,30.273,177.246,110.840,12.695
1573891049.136,124.023,30.762,-767.578,190.430,927.734
1573891049.140,33.203,24.414,131.348,8.301,56.152
1573891049.144,-17.578,19.043,-1000.000,-100.586,-776.855
1573891049.148,63.477,30.762,-189.941,62.988,-276.367
1573891049.152,130.859,32.715,-770.508,201.172,866.211
1573891049.156,63.477,22.461,361.816,65.918,412.598
1573891049.160,-30.273,15.137,-1000.000,-113.770,-689.941
1573891049.164,5.859,15.137,-385.254,-21.484,-583.008
1573891049.168,98.145,20.996,-865.723,172.363,604.004
1573891049.172,68.359,22.949,673.340,110.840,659.668
1573891049.176,-40.527,21.484,-875.977,-103.516,-518.066
1573891049.179,-36.133,21.973,-803.711,-88.379,-768.555
1573891049.183,64.453,20.508,696.289,125.488,310.547
1573891049.187,77.637,17.578,-887.695,148.438,851.562
1573891049.191,-22.461,20.996,-208.008,-66.895,-173.340
1573891049.195,-59.082,27.344,-1000.000,-127.441,-835.938
1573891049.199,30.273,18.555,75.684,66.406,-73.730
1573891049.203,78.613,16.602,-755.859,164.062,976.562
1573891049.207,-3.906,18.066,166.016,-9.277,184.082
1573891049.211,-70.801,12.207,-1000.000,-148.926,-828.613
1573891049.215,6.348,19.531,-213.379,4.395,-402.832
1573891049.218,94.727,22.949,-775.879,170.410,833.984
1573891049.222,34.668,18.066,334.961,47.852,500.977
1573891049.226,-57.617,20.996,-1000.000,-137.695,-651.367
1573891049.230,-20.996,28.809,-463.379,-53.711,-636.719
1573891049.234,73.730,23.926,-956.055,147.461,534.180
1573891049.238,57.129,19.531,827.637,106.934,741.699
1573891049.242,-42.969,22.949,-692.871,-101.562,-381.836
1573891049.246,-38.086,29.785,-939.453,-95.215,-788.574
1573891049.250,73.730,29.785,526.855,125.488,213.379
1573891049.254,93.750,22.949,-840.332,166.016,919.922
1573891049.258,-7.324,27.832,-107.910,-36.133,-91.309
1573891049.261,-39.551,33.203,-1000.000,-112.305,-891.113
1573891049.265,54.688,37.598,-60.059,74.707,-162.598
1573891049.269,110.840,33.691,-764.160,191.406,952.637
1573891049.273,32.715,27.832,223.633,30.273,260.254
1573891049.277,-31.250,28.809,-1000.000,-113.281,-764.648
1573891049.281,35.156,23.926,-313.477,16.602,-459.473
1573891049.285,113.281,27.832,-818.848,181.152,742.676
1573891049.289,63.965,30.762,467.285,83.984,558.105
1573891049.293,-25.879,33.691,-1000.000,-99.121,-586.426
1573891049.297,1.953,32.715,-658.691,-38.086,-648.926
1573891049.301,96.191,24.902,889.160,157.227,491.699
1573891049.304,88.867,32.227,905.273,141.113,760.254
1573891049.308,-22.949,37.598,-596.191,-73.242,-354.980
1573891049.312,-42.480,31.250,-1000.000,-100.098,-818.848
1573891049.316,60.059,33.691,322.266,109.375,120.605
1573891049.320,91.309,36.621,-797.363,170.410,928.711
1573891049.324,-0.488,31.250,-2.441,-20.020,-44.434
1573891049.328,-48.340,26.367,-1000.000,-114.258,-866.211
1573891049.332,38.086,28.320,-116.211,60.059,-221.191
1573891049.336,104.004,28.320,-765.137,189.453,914.551
1573891049.340,41.016,30.273,265.137,44.922,330.566
1573891049.343,-33.691,32.227,-1000.000,-113.770,-719.727
1573891049.347,24.414,34.668,-338.379,0.977,-499.512
1573891049.351,117.676,42.480,-826.660,184.082,706.055
1573891049.355,74.707,34.668,505.859,102.539,616.211
1573891049.359,-26.367,29.785,-1000.000,-101.074,-539.062
1573891049.363,-6.836,34.180,-712.891,-60.059,-692.871
1573891049.367,96.680,37.598,842.285,152.344,415.527
1573891049.371,101.562,42.969,913.574,159.180,808.105
1573891049.375,-5.859,42.969,-580.078,-54.688,-296.387
1573891049.379,-33.691,42.480,-1000.000,-104.492,-802.734
1573891049.383,66.895,41.016,228.027,100.586,91.309
1573891049.386,110.352,37.598,-775.879,184.570,944.824
1573891049.390,16.113,40.039,92.773,-1.465,88.867
1573891049.394,-50.781,35.156,-1000.000,-125.000,-783.203
1573891049.398,30.273,32.715,-169.434,35.645,-320.801
1573891049.402,104.492,33.691,-769.531,181.641,870.605
1573891049.406,41.016,28.320,300.293,50.293,417.480
1573891049.410,-43.457,26.367,-1000.000,-123.535,-689.941
1573891049.414,4.883,30.273,-415.527,-24.902,-583.496
1573891049.418,104.492,33.691,-893.555,171.387,619.629
1573891049.422,76.172,29.297,676.758,111.816,677.734
1573891049.426,-21.973,24.414,-859.375,-95.215,-425.781
1573891049.429,-11.230,24.902,-857.910,-72.266,-724.609
1573891049.433,89.355,37.598,623.047,142.578,292.969
1573891049.437,102.051,41.016,-908.691,158.691,863.281
1573891049.441,-1.953,34.668,-250.000,-55.664,-191.406
1573891049.445,-35.156,33.691,-1000.000,-112.793,-833.984
1573891049.449,55.664,24.902,-9.277,82.031,-35.645
1573891049.453,105.957,19.531,-775.391,184.082,964.844
1573891049.457,25.879,28.809,148.438,12.207,148.926
1573891049.461,-38.574,28.809,-1000.000,-124.023,-812.012
1573891049.465,31.250,29.785,-252.930,26.367,-361.328
1573891049.468,108.887,32.227,-792.969,190.918,838.379
1573891049.472,54.199,30.273,388.672,74.219,471.680
1573891049.476,-38.574,28.809,-1000.000,-112.305,-659.180
1573891049.480,3.418,34.180,-461.426,-25.879,-573.730
1573891049.484,102.051,40.527,-935.059,175.293,590.820
1573891049.488,79.102,35.645,791.504,129.883,721.680
1573891049.492,-16.113,30.273,-724.609,-81.543,-435.059
1573891049.496,-15.625,26.855,-958.984,-79.590,-793.457
1573891049.500,81.543,33.691,499.023,131.836,243.164
1573891049.504,103.516,37.109,-857.422,170.898,889.648
1573891049.508,7.324,28.809,-176.758,-30.273,-106.934
1573891049.511,-30.762,32.227,-1000.000,-111.816,-844.727
1573891049.515,62.012,44.434,-36.133,77.148,-157.227
1573891049.519,122.070,43.945,-770.996,194.824,941.406
1573891049.523,44.434,39.551,169.434,30.273,253.418
1573891049.527,-26.367,35.645,-1000.000,-118.164,-719.727
1573891049.531,36.621,30.762,-263.672,16.113,-398.438
1573891049.535,116.699,31.250,-797.363,184.082,778.320
1573891049.539,70.801,26.367,381.836,76.660,568.848
1573891049.543,-20.996,30.273,-1000.000,-111.328,-571.289
1573891049.547,6.348,45.898,-606.445,-41.016,-629.395
1573891049.551,107.910,40.527,921.875,157.715,496.094
1573891049.554,98.633,35.645,872.559,126.953,766.113
1573891049.558,-15.137,38.574,-628.418,-87.402,-346.680
1573891049.562,-31.738,35.645,-1000.000,-101.562,-812.500
1573891049.566,69.824,36.621,369.629,110.352,139.648
1573891049.570,100.098,35.156,-801.758,170.410,958.008
1573891049.574,8.301,28.809,-6.348,-20.020,-20.996
1573891049.578,-45.410,22.461,-1000.000,-122.559,-896.484
1573891049.582,37.109,27.832,-133.789,50.293,-235.840
1573891049.586,103.027,32.227,-770.020,183.105,944.336
1573891049.590,35.156,28.320,265.625,35.156,333.984
1573891049.593,-42.480,29.297,-1000.000,-122.070,-757.812
1573891049.597,12.207,29.297,-390.137,-4.395,-509.766
1573891049.601,106.445,30.762,-865.234,182.617,702.148
1573891049.605,71.289,35.156,571.777,106.445,625.977
1573891049.609,-28.320,30.762,-997.559,-93.262,-517.578
1573891049.613,-5.371,25.879,-692.383,-45.898,-674.805
1573891049.617,98.145,33.203,832.520,165.527,410.645
1573891049.621,94.727,34.668,997.559,154.785,815.918
1573891049.625,-9.766,22.949,-428.223,-61.523,-253.906
1573891049.629,-30.273,15.625,-1000.000,-101.074,-796.875
1573891049.633,71.289,22.949,215.332,99.609,97.168
1573891049.636,107.910,27.344,-787.598,176.270,929.199
1573891049.640,15.137,24.902,20.996,-11.230,-10.254
1573891049.644,-37.598,27.832,-1000.000,-128.906,-852.539
1573891049.648,42.480,32.227,-154.297,36.621,-292.969
1573891049.652,113.281,34.668,-770.996,189.453,891.113
1573891049.656,45.898,37.109,289.062,54.688,383.301
1573891049.660,-40.039,38.574,-1000.000,-120.605,-725.098
1573891049.664,8.789,44.922,-372.070,-21.484,-520.508
1573891049.668,104.980,49.316,-853.027,171.387,669.922
1573891049.672,73.242,37.598,573.242,108.398,644.531
1573891049.676,-33.203,25.391,-962.891,-101.074,-541.016
1573891049.679,-18.066,25.391,-794.922,-68.359,-778.320
1573891049.683,87.402,27.344,699.707,145.020,333.984
1573891049.687,99.609,33.691,-928.711,159.180,858.887
1573891049.691,-2.441,31.250,-310.547,-51.758,-150.391
1573891049.695,-35.156,29.297,-1000.000,-110.840,-797.363
1573891049.699,64.941,34.668,73.242,93.262,-38.574
1573891049.703,116.211,35.645,-764.648,191.406,971.191
1573891049.707,32.227,37.598,155.273,16.113,161.133
1573891049.711,-34.180,34.180,-1000.000,-112.305,-818.359
1573891049.715,39.551,38.574,-210.449,35.156,-379.883
1573891049.718,121.582,34.668,-778.809,188.965,846.680
1573891049.722,61.523,29.785,381.348,66.895,482.910
1573891049.726,-27.832,36.621,-1000.000,-114.746,-653.809
1573891049.730,8.789,36.621,-515.137,-28.809,-592.773
1573891049.734,108.398,32.715,-963.867,171.387,583.984
1573891049.738,94.727,34.180,726.562,128.418,701.660
1573891049.742,-13.672,35.645,-766.602,-81.055,-432.617
1573891049.746,-18.066,39.062,-1000.000,-80.566,-797.852
1573891049.750,90.332,41.992,339.844,128.418,215.820
1573891049.754,105.957,33.203,-847.168,161.621,895.020
1573891049.758,2.930,24.414,-153.809,-41.016,-149.902
1573891049.761,-32.227,30.273,-1000.000,-108.887,-825.684
1573891049.765,59.570,34.668,-26.855,83.008,-86.426
1573891049.769,117.676,35.645,-761.719,195.312,958.984
1573891049.773,42.480,32.715,209.961,32.715,223.633
1573891049.777,-28.809,25.391,-1000.000,-111.328,-796.875
1573891049.781,36.621,26.855,-275.879,21.484,-423.340
1573891049.785,122.070,35.645,-802.734,193.359,779.785
1573891049.789,74.219,41.016,474.609,92.285,551.270
1573891049.793,-22.949,36.133,-1000.000,-104.004,-571.777
1573891049.797,1.953,30.273,-531.250,-36.621,-624.512
1573891049.801,96.191,25.391,-998.535,162.109,500.000
1573891049.804,93.262,30.273,890.137,134.766,789.062
1573891049.808,-8.301,36.621,-609.375,-74.707,-318.359
1573891049.812,-24.414,30.273,-1000.000,-99.121,-811.523
1573891049.816,76.660,20.996,446.777,107.910,151.855
1573891049.820,104.980,24.414,-833.984,169.434,930.664
1573891049.824,14.160,21.484,-107.422,-31.738,-65.430
1573891049.828,-38.086,20.508,-1000.000,-125.977,-855.469
1573891049.832,40.039,25.391,-98.145,60.059,-219.727
1573891049.836,106.934,21.973,-768.066,186.523,914.062
1573891049.840,37.109,19.043,225.586,30.762,294.922
1573891049.843,-38.574,20.020,-1000.000,-122.559,-781.738
1573891049.847,22.949,26.367,-276.367,3.418,-478.516
1573891049.851,116.699,36.621,-821.289,184.570,735.352
1573891049.855,74.707,27.832,593.750,94.727,622.559
1573891049.859,-29.297,16.602,-963.867,-111.816,-540.527
1573891049.863,-11.719,18.066,-674.316,-67.871,-714.844
1573891049.867,87.891,22.461,872.070,139.160,429.199
1573891049.871,86.914,24.414,992.676,129.883,802.734
1573891049.875,-15.625,22.461,-448.242,-81.543,-277.832
1573891049.879,-40.527,16.602,-1000.000,-118.652,-747.070
1573891049.883,54.199,12.695,237.793,85.938,109.863
1573891049.886,93.750,15.625,-777.344,166.504,947.266
1573891049.890,1.953,27.832,94.238,-20.996,54.688
1573891049.894,-53.223,32.227,-1000.000,-130.859,-811.035
1573891049.898,25.879,25.879,-189.941,35.645,-290.039
1573891049.902,90.820,25.391,-775.879,173.828,883.301
1573891049.906,23.438,25.879,328.613,42.480,413.574
1573891049.910,-61.523,25.391,-1000.000,-124.512,-714.844
1573891049.914,-18.066,27.344,-472.168,-29.785,-605.469
1573891049.918,77.637,32.227,-914.551,158.203,614.258
1573891049.922,51.758,21.973,629.395,102.051,637.207
1573891049.926,-47.363,18.555,-937.012,-101.074,-542.480
1573891049.929,-39.551,25.879,-810.547,-79.590,-767.090
1573891049.933,63.477,31.738,683.105,134.766,335.938
1573891049.937,83.008,31.738,-908.691,153.809,862.793
1573891049.941,-15.625,23.438,-276.855,-57.617,-216.797
1573891049.945,-49.316,20.508,-1000.000,-117.676,-860.352
1573891049.949,52.734,26.367,102.539,87.891,-14.648
1573891049.953,112.305,31.250,-762.207,190.430,971.191
1573891049.957,30.273,28.809,141.113,12.695,139.648
1573891049.961,-35.645,30.273,-1000.000,-119.141,-823.730
1573891049.965,34.668,32.227,-211.426,30.273,-367.188
1573891049.968,111.816,33.691,-778.320,187.012,863.770
1573891049.972,59.570,31.250,333.496,64.941,468.750
1573891049.976,-27.344,33.203,-1000.000,-114.258,-673.340
1573891049.980,5.859,38.086,-450.684,-30.762,-583.984
1573891049.984,103.516,43.457,-921.875,163.574,592.285
1573891049.988,84.473,45.410,729.492,117.676,697.266
1573891049.992,-23.926,33.203,-806.152,-96.680,-463.867
1573891049.996,-23.438,28.809,-908.691,-87.402,-812.500
1573891050.000,84.961,35.645,565.918,131.836,256.348
1573891050.004,103.516,36.621,-880.371,161.621,874.023
1573891050.008,-0.488,31.738,-185.547,-48.828,-136.719
1573891050.011,-40.527,32.715,-1000.000,-123.535,-834.961
1573891050.015,51.270,39.062,-48.828,65.430,-142.090
1573891050.019,109.863,42.969,-768.555,175.293,945.801
1573891050.023,25.391,42.480,201.660,7.324,216.797
1573891050.027,-51.758,34.668,-1000.000,-136.230,-775.391
1573891050.031,10.742,32.227,-289.551,-3.906,-417.480
1573891050.035,96.680,41.504,-808.105,165.039,773.438
1573891050.039,49.805,42.969,443.359,65.918,522.949
1573891050.043,-44.434,34.180,-1000.000,-128.906,-643.066
1573891050.047,-5.859,21.484,-609.863,-54.199,-666.016
1573891050.051,100.586,29.785,934.082,164.551,505.859
1573891050.054,89.844,35.645,886.719,137.207,772.461
1573891050.058,-16.602,22.949,-619.141,-81.055,-347.168
1573891050.062,-20.020,34.180,-1000.000,-85.938,-788.574
1573891050.066,90.820,41.992,394.531,129.883,190.918
1573891050.070,127.441,41.504,-805.664,185.059,935.059
1573891050.074,34.668,40.527,-21.973,-15.137,-63.477
1573891050.078,-20.508,34.668,-1000.000,-113.281,-884.766
1573891050.082,65.430,41.992,-82.520,73.242,-194.336
1573891050.086,127.930,37.598,-759.766,202.637,972.168
1573891050.090,52.246,20.508,230.469,43.457,329.102
1573891050.093,-29.785,17.578,-1000.000,-117.676,-736.816
1573891050.097,22.949,25.879,-305.176,4.883,-470.215
1573891050.101,114.258,34.668,-815.430,187.500,737.305
1573891050.105,73.242,34.180,498.535,95.703,606.445
1573891050.109,-29.297,30.273,-1000.000,-106.934,-574.219
1573891050.113,-2.930,28.320,-691.895,-54.688,-727.051
1573891050.117,105.469,30.762,874.023,155.762,420.410
1573891050.121,101.562,33.203,886.719,147.949,804.688
1573891050.125,-1.465,29.297,-619.629,-61.035,-312.500
1573891050.129,-22.949,27.344,-1000.000,-95.215,-829.590
1573891050.133,75.684,26.367,265.137,108.398,121.094
1573891050.136,115.234,31.250,-778.320,184.570,971.680
1573891050.140,23.438,38.086,77.148,-5.371,31.738
1573891050.144,-27.832,36.621,-1000.000,-115.234,-818.848
1573891050.148,55.664,40.527,-174.316,54.688,-275.391
1573891050.152,119.141,40.039,-770.996,191.895,879.395
1573891050.156,49.316,32.715,291.992,50.293,403.320
1573891050.160,-34.668,31.738,-1000.000,-116.699,-729.492
1573891050.164,12.207,35.645,-376.953,-8.301,-576.660
1573891050.168,105.957,36.621,-859.863,181.641,667.969
1573891050.172,83.496,31.738,619.141,115.234,653.320
1573891050.176,-10.742,19.531,-924.316,-88.379,-548.828
1573891050.179,-4.395,20.508,-811.523,-66.895,-751.465
1573891050.183,95.215,34.668,679.688,140.625,358.398
1573891050.187,101.562,44.434,-944.336,155.273,838.867
1573891050.191,-2.930,43.945,-311.523,-56.152,-219.727
1573891050.195,-26.855,38.574,-1000.000,-109.863,-823.730
1573891050.199,75.684,34.180,38.574,97.656,7.812
1573891050.203,122.070,37.598,-772.461,191.406,967.773
1573891050.207,38.574,46.387,125.000,14.648,132.812
1573891050.211,-28.320,40.527,-1000.000,-113.770,-817.383
1573891050.215,41.504,36.621,-241.699,34.668,-388.672
1573891050.218,120.117,43.457,-790.039,194.824,834.961
1573891050.222,62.500,43.457,371.582,73.730,476.074
1573891050.226,-21.973,40.039,-1000.000,-107.422,-663.574
1573891050.230,15.625,34.180,-443.359,-20.996,-571.777
1573891050.234,105.469,35.156,-910.645,170.898,616.699
1573891050.238,84.473,42.480,723.633,116.699,695.312
1573891050.242,-15.625,40.039,-807.129,-93.750,-469.727
1573891050.246,-15.625,40.039,-916.992,-82.520,-789.062
1573891050.250,85.449,34.668,547.852,127.441,255.859
1573891050.254,110.352,34.668,-874.512,159.668,887.695
1573891050.258,8.789,30.273,-214.844,-40.527,-145.020
1573891050.261,-32.227,27.832,-1000.000,-104.492,-835.449
1573891050.265,61.035,37.109,4.883,87.402,-69.336
1573891050.269,118.164,45.410,-770.996,202.148,971.191
1573891050.273,44.922,45.898,151.367,33.203,215.820
1573891050.277,-32.227,40.039,-1000.000,-120.605,-747.070
1573891050.281,28.809,34.180,-248.047,21.973,-378.418
1573891050.285,112.793,32.715,-793.945,193.848,804.199
1573891050.289,60.547,27.344,412.598,79.590,514.648
1573891050.293,-33.691,23.926,-1000.000,-117.676,-623.047
1573891050.297,7.812,33.203,-584.961,-41.992,-604.004
1573891050.301,107.910,36.133,949.219,165.527,530.273
1573891050.304,90.820,37.109,871.094,131.836,750.977
1573891050.308,-17.578,35.156,-637.207,-84.473,-322.754
1573891050.312,-19.043,34.180,-997.559,-89.355,-737.793
1573891050.316,87.402,34.180,423.828,125.977,197.266
1573891050.320,107.910,35.645,-825.195,175.781,927.246
1573891050.324,14.160,36.133,-73.242,-25.391,-79.102
1573891050.328,-29.297,31.250,-1000.000,-119.141,-854.980
1573891050.332,56.641,27.832,-93.750,62.012,-159.180
1573891050.336,119.141,29.297,-767.090,190.430,948.242
1573891050.340,42.480,28.320,250.977,34.668,340.820
1573891050.343,-36.621,25.391,-1000.000,-125.000,-708.984
1573891050.347,22.461,31.250,-373.047,-0.488,-482.910
1573891050.351,111.816,38.086,-848.145,184.570,734.375
1573891050.355,73.730,40.039,526.855,97.168,590.820
1573891050.359,-23.438,38.086,-1000.000,-107.422,-558.594
1573891050.363,-0.488,37.109,-667.969,-57.617,-641.602
1573891050.367,98.145,38.086,878.906,153.320,453.125
1573891050.371,100.586,39.551,921.875,143.066,794.434
1573891050.375,2.441,40.527,-557.617,-71.289,-288.574
1573891050.379,-17.578,44.922,-1000.000,-105.469,-825.195
1573891050.383,88.379,57.129,271.484,107.422,81.543
1573891050.386,125.488,56.641,-788.086,181.641,940.918
1573891050.390,29.297,50.293,27.832,-12.207,34.668
1573891050.394,-32.715,45.898,-1000.000,-127.441,-823.242
1573891050.398,35.645,45.410,-149.902,29.785,-287.598
1573891050.402,100.586,53.223,-769.531,164.062,895.020
1573891050.406,46.875,54.688,273.438,32.715,359.863
1573891050.410,-34.180,50.781,-1000.000,-135.254,-746.582
1573891050.414,-4.395,56.641,-378.906,-50.293,-562.988
1573891050.418,80.078,66.406,-852.051,135.254,652.832
1573891050.422,36.621,50.293,529.785,61.523,638.184
1573891050.426,-78.125,49.316,-985.352,-159.180,-520.020
1573891050.429,-65.918,63.965,-836.426,-131.836,-768.066
1573891050.433,27.344,75.684,665.527,71.289,321.289
1573891050.437,20.508,70.312,992.188,67.871,817.383
1573891050.441,-96.191,51.758,-465.332,-155.762,-283.691
1573891050.445,-134.277,53.711,-1000.000,-219.238,-876.953
1573891050.449,-40.039,63.965,110.840,-24.902,-18.066
1573891050.453,9.277,75.195,-772.461,69.824,965.820
1573891050.457,-88.867,74.707,133.789,-118.164,117.188
1573891050.461,-166.016,65.430,-1000.000,-254.883,-791.016
1573891050.465,-92.773,65.430,-203.125,-95.215,-288.086
1573891050.468,-19.531,66.406,-775.879,58.594,882.324
1573891050.472,-78.125,63.965,341.797,-69.336,413.086
1573891050.476,-166.504,59.082,-1000.000,-247.559,-701.172
1573891050.480,-125.000,59.570,-477.051,-155.762,-554.199
1573891050.484,-25.879,62.500,-940.918,40.527,593.750
1573891050.488,-48.340,60.059,706.055,-9.277,682.129
1573891050.492,-137.695,54.688,-806.641,-206.055,-476.074
1573891050.496,-122.559,42.969,-975.098,-192.871,-806.152
1573891050.500,-13.184,40.527,437.012,22.949,248.535
1573891050.504,16.113,50.781,-847.656,62.988,873.047
1573891050.508,-77.637,47.852,-166.992,-140.137,-163.086
1573891050.511,-110.840,36.133,-1000.000,-202.637,-868.652
1573891050.515,-10.742,35.645,43.945,3.906,-125.488
1573891050.519,49.805,44.922,-754.883,115.234,977.539
1573891050.523,-26.855,41.504,194.336,-51.758,171.875
1573891050.527,-84.473,33.691,-1000.000,-184.570,-822.266
1573891050.531,-12.207,30.762,-237.793,-38.086,-367.676
1573891050.535,66.895,29.297,-791.016,128.906,814.941
1573891050.539,24.902,25.391,477.539,26.855,555.664
1573891050.543,-60.059,12.695,-1000.000,-149.414,-568.359
1573891050.547,-21.973,5.371,-490.723,-72.266,-600.098
1573891050.551,92.285,15.625,-951.660,138.184,550.781
1573891050.554,89.355,22.949,862.305,120.605,750.977
1573891050.558,2.441,24.414,-649.902,-84.473,-343.750
1573891050.562,2.930,20.020,-959.961,-85.449,-738.770
1573891050.566,104.980,15.137,509.277,136.230,198.242
1573891050.570,140.625,18.555,-849.609,188.477,904.297
1573891050.574,46.875,17.578,-114.258,-10.254,-56.641
1573891050.578,1.465,11.230,-1000.000,-90.332,-847.168
1573891050.582,94.727,20.996,-66.895,95.703,-209.473
1573891050.586,162.598,21.973,-767.090,218.750,929.199
1573891050.590,91.309,10.254,203.125,63.477,243.652
1573891050.593,18.555,14.160,-1000.000,-92.285,-783.691
1573891050.597,77.148,13.672,-299.805,39.551,-462.402
1573891050.601,169.922,13.184,-819.824,228.027,736.328
1573891050.605,133.789,22.949,511.230,144.531,555.664
1573891050.609,39.551,23.438,-1000.000,-46.875,-605.469
1573891050.613,65.430,24.902,-639.648,5.859,-670.410
1573891050.617,163.086,25.879,902.832,211.426,459.961
1573891050.621,159.668,23.438,934.570,204.102,765.625
1573891050.625,55.176,10.254,-530.273,-8.301,-332.031
1573891050.629,36.133,4.883,-1000.000,-40.527,-846.191
1573891050.633,142.578,12.207,246.094,168.945,58.594
1573891050.636,182.129,17.090,-788.086,243.164,947.266
1573891050.640,86.426,13.672,55.176,51.758,-15.137
1573891050.644,32.715,13.184,-1000.000,-54.688,-871.094
1573891050.648,109.375,17.578,-179.199,109.375,-265.137
1573891050.652,167.969,17.090,-773.926,238.281,904.785
1573891050.656,101.562,14.160,273.926,101.074,368.164
1573891050.660,17.578,13.184,-1000.000,-65.430,-715.820
1573891050.664,61.523,18.555,-335.938,38.574,-500.000
1573891050.668,157.715,23.926,-835.449,228.516,679.199
1573891050.672,125.488,20.020,558.105,154.785,638.184
1573891050.676,16.602,8.301,-977.539,-53.223,-534.668
1573891050.679,29.785,7.324,-772.461,-18.555,-753.418
1573891050.683,135.742,11.719,730.469,194.336,359.375
1573891050.687,137.695,12.207,-943.359,204.590,846.680
1573891050.691,28.809,8.301,-338.867,-6.348,-222.656
1573891050.695,0.977,2.441,-1000.000,-54.688,-818.359
1573891050.699,98.145,10.742,144.531,146.484,37.598
1573891050.703,145.020,20.508,-763.184,239.258,958.496
1573891050.707,63.477,24.414,128.906,62.500,139.160
1573891050.711,2.441,20.996,-1000.000,-61.523,-766.113
1573891050.715,74.707,14.160,-185.059,93.262,-353.027
1573891050.718,154.785,18.066,-770.020,247.070,853.027
1573891050.722,104.980,24.902,315.430,122.559,444.336
1573891050.726,21.484,18.066,-1000.000,-57.129,-698.242
1573891050.730,63.965,22.461,-417.480,32.227,-569.824
1573891050.734,158.203,36.621,-877.441,220.215,608.887
1573891050.738,134.277,34.180,606.934,161.621,667.969
1573891050.742,38.574,30.273,-937.988,-45.898,-465.332
1573891050.746,38.574,35.645,-834.961,-37.109,-757.812
1573891050.750,128.906,35.645,626.953,166.992,283.203
1573891050.754,147.949,36.621,-874.512,199.219,882.324
1573891050.758,46.387,36.133,-173.340,-7.812,-132.812
1573891050.761,3.418,34.668,-1000.000,-82.031,-837.891
1573891050.765,97.168,35.156,-13.184,107.422,-109.375
1573891050.769,144.043,28.809,-761.719,204.590,953.613
1573891050.773,55.176,27.344,190.430,30.762,162.598
1573891050.777,-17.578,33.203,-1000.000,-108.398,-820.801
1573891050.781,47.852,38.574,-236.816,34.668,-357.422
1573891050.785,127.441,34.668,-787.598,200.195,836.914
1573891050.789,82.031,30.762,419.434,95.215,523.926
1573891050.793,-13.672,27.344,-1000.000,-90.820,-662.109
1573891050.797,9.277,21.973,-573.730,-21.973,-689.941
1573891050.801,106.445,22.949,982.910,179.688,520.508
1573891050.804,94.238,20.508,821.289,143.066,745.117
1573891050.808,-7.324,18.555,-706.055,-70.312,-405.273
1573891050.812,-20.020,22.461,-972.656,-76.660,-791.992
1573891050.816,77.148,30.762,449.707,129.883,211.426
1573891050.820,105.469,33.691,-824.707,180.664,921.387
1573891050.824,7.324,28.320,-68.359,-20.996,-46.387
1573891050.828,-37.598,21.484,-1000.000,-112.305,-786.133
1573891050.832,49.316,23.438,-76.172,72.266,-125.977
1573891050.836,110.352,35.156,-760.254,194.824,955.078
1573891050.840,33.691,31.738,234.863,34.180,276.367
1573891050.843,-46.387,28.809,-1000.000,-117.188,-750.977
1573891050.847,19.531,35.156,-283.203,17.090,-441.406
1573891050.851,111.328,31.250,-804.199,202.148,747.559
1573891050.855,70.801,30.273,478.516,109.863,603.027
1573891050.859,-18.555,31.738,-1000.000,-90.820,-491.699
1573891050.863,11.230,34.668,-678.711,-32.715,-605.957
1573891050.867,108.887,39.062,900.391,171.875,471.191
1573891050.871,103.027,39.551,838.379,153.320,771.973
1573891050.875,0.488,28.809,-677.734,-64.941,-327.148
1573891050.879,-16.602,22.461,-1000.000,-93.750,-823.730
1573891050.883,83.008,35.645,265.625,112.793,83.008
1573891050.886,119.141,38.574,-791.992,183.105,930.176
1573891050.890,35.156,33.691,37.109,-2.930,1.465
1573891050.894,-19.043,33.691,-1000.000,-113.770,-813.477
1573891050.898,60.059,42.969,-131.836,55.176,-211.426
1573891050.902,137.207,45.410,-765.625,197.754,912.109
1573891050.906,76.172,38.086,251.953,57.129,337.402
1573891050.910,-1.465,44.434,-1000.000,-111.816,-739.258
1573891050.914,51.758,57.129,-338.379,-0.977,-507.324
1573891050.918,140.137,55.664,-843.750,184.082,700.684
1573891050.922,109.375,50.293,599.609,111.816,625.000
1573891050.926,9.766,42.969,-946.289,-89.844,-491.211
1573891050.929,18.555,44.922,-767.090,-49.316,-669.922
1573891050.933,118.164,53.711,753.906,162.109,377.930
1573891050.937,123.047,48.340,-987.305,166.992,822.266
1573891050.941,18.555,42.480,-399.902,-36.133,-257.812
1573891050.945,-8.301,45.410,-1000.000,-83.496,-824.219
1573891050.949,92.285,50.293,82.031,115.723,40.039
1573891050.953,131.836,46.875,-780.762,198.242,973.145
1573891050.957,39.551,33.203,90.332,13.184,98.145
1573891050.961,-23.926,32.227,-1000.000,-111.328,-814.453
1573891050.965,49.316,40.527,-234.375,40.527,-333.496
1573891050.968,126.465,46.875,-790.527,196.777,846.680
1573891050.972,60.059,38.574,358.398,71.289,499.023
1573891050.976,-31.738,28.320,-1000.000,-108.887,-588.379
1573891050.980,16.602,30.273,-435.059,-15.625,-571.289
1573891050.984,113.770,29.785,-907.227,179.199,587.402
1573891050.988,92.285,31.250,712.891,123.047,698.242
1573891050.992,-13.184,34.668,-821.777,-83.496,-391.113
1573891050.996,-14.648,34.180,-882.812,-70.312,-714.844
1573891051.000,85.938,34.668,609.863,134.277,293.457
1573891051.004,99.121,37.109,-908.691,161.621,864.258
1573891051.008,-4.395,36.621,-270.020,-48.828,-167.969
1573891051.011,-38.574,28.809,-1000.000,-116.211,-785.645
1573891051.015,57.129,28.809,17.090,78.125,-41.992
1573891051.019,112.793,34.180,-772.461,181.641,937.500
1573891051.023,39.062,37.109,134.277,18.555,163.574
1573891051.027,-22.949,41.504,-1000.000,-110.840,-780.762
1573891051.031,49.316,37.598,-229.980,32.715,-368.652
1573891051.035,125.000,33.203,-788.574,185.547,824.707
1573891051.039,67.383,35.645,392.578,69.336,512.207
1573891051.043,-19.531,37.598,-1000.000,-112.793,-609.863
1573891051.047,16.602,46.875,-541.504,-33.691,-594.727
1573891051.051,115.723,53.223,-996.582,164.062,550.781
1573891051.054,98.633,42.480,794.434,124.023,725.586
1573891051.058,-2.930,41.992,-726.562,-83.496,-370.605
1573891051.062,1.465,46.875,-955.078,-76.660,-759.277
1573891051.066,97.656,46.875,477.051,135.742,204.102
1573891051.070,119.629,48.340,-817.871,186.523,908.203
1573891051.074,24.414,43.457,-63.477,-12.695,-54.199
1573891051.078,-19.531,39.062,-1000.000,-100.098,-810.547
1573891051.082,78.125,41.992,-54.688,91.309,-149.902
1573891051.086,138.672,46.387,-762.207,212.402,933.594
1573891051.090,53.711,39.062,227.539,44.922,243.652
1573891051.093,-24.902,33.203,-1000.000,-111.328,-794.434
1573891051.097,36.133,34.180,-329.102,16.113,-489.746
1573891051.101,120.117,30.762,-826.660,189.453,753.906
1573891051.105,67.383,27.832,496.094,86.914,555.664
1573891051.109,-33.203,26.367,-1000.000,-111.816,-625.000
1573891051.113,-13.184,29.297,-683.594,-60.059,-701.660
1573891051.117,82.520,35.156,834.473,140.625,449.707
1573891051.121,74.707,31.738,986.816,127.930,793.457
1573891051.125,-32.227,24.414,-493.164,-89.355,-302.246
1573891051.129,-47.852,17.578,-1000.000,-120.605,-819.824
1573891051.133,54.199,19.043,388.184,84.961,107.422
1573891051.136,86.426,18.066,-783.203,148.438,937.500
1573891051.140,-14.160,10.254,21.973,-51.758,4.395
1573891051.144,-68.359,8.301,-1000.000,-161.133,-817.871
1573891051.148,20.996,14.648,-99.121,18.555,-222.656
1573891051.152,88.867,16.602,-758.301,161.621,927.734
1573891051.156,15.625,14.160,283.691,19.043,327.637
1573891051.160,-69.336,16.602,-1000.000,-149.414,-732.422
1573891051.164,-11.230,21.484,-334.961,-32.715,-484.863
1573891051.168,87.891,21.973,-835.938,162.109,694.336
1573891051.172,54.688,18.066,577.148,85.449,612.793
1573891051.176,-41.016,15.625,-979.004,-116.699,-547.852
1573891051.179,-22.461,22.949,-689.941,-73.242,-718.750
1573891051.183,83.008,28.320,833.496,144.043,385.742
1573891051.187,92.773,28.320,-962.891,149.902,823.730
1573891051.191,-9.277,18.555,-385.742,-64.453,-257.324
1573891051.195,-40.039,15.625,-1000.000,-108.887,-798.340
1573891051.199,53.711,28.809,268.066,97.168,88.379
1573891051.203,99.609,30.273,-770.508,177.734,958.496
1573891051.207,10.742,20.996,87.402,-9.277,65.430
1573891051.211,-56.152,19.531,-1000.000,-128.418,-814.941
1573891051.215,18.555,27.832,-173.828,33.691,-307.129
1573891051.218,98.633,32.715,-770.996,185.547,876.953
1573891051.222,40.527,32.227,312.012,57.129,395.020
1573891051.226,-46.387,28.320,-1000.000,-119.141,-718.262
1573891051.230,-0.488,29.297,-441.406,-26.367,-551.270
1573891051.234,97.656,34.180,-911.621,171.387,621.094
1573891051.238,78.125,34.668,681.641,118.652,694.336
1573891051.242,-17.578,32.227,-831.055,-88.867,-424.805
1573891051.246,-17.090,24.902,-937.988,-72.754,-757.324
1573891051.250,79.102,25.391,506.348,133.789,285.645
1573891051.254,87.891,32.715,-886.230,154.297,866.699
1573891051.258,-13.184,35.156,-246.582,-54.199,-206.055
1573891051.261,-42.480,38.086,-1000.000,-118.652,-854.492
1573891051.265,58.594,43.945,48.340,84.961,-62.500
1573891051.269,110.840,44.434,-762.207,195.801,967.773
1573891051.273,10.742,35.645,179.688,10.742,178.711
1573891051.277,-64.453,28.320,-1000.000,-137.695,-797.363
1573891051.281,12.695,24.902,-254.395,14.160,-348.633
1573891051.285,100.586,24.414,-791.016,184.082,832.031
1573891051.289,52.734,26.367,399.902,76.172,519.043
1573891051.293,-43.457,24.902,-1000.000,-116.699,-605.469
1573891051.297,-6.348,23.438,-520.508,-42.480,-615.723
1573891051.301,96.191,33.203,-972.656,169.922,541.992
1573891051.304,77.637,30.762,789.551,130.371,751.465
1573891051.308,-26.855,17.090,-748.047,-79.102,-429.688
1573891051.312,-30.762,20.508,-955.566,-82.031,-879.883
1573891051.316,78.125,33.691,507.324,128.906,188.477
1573891051.320,104.004,34.180,-872.559,174.805,921.875
1573891051.324,5.859,26.855,-171.875,-24.414,-111.328
1573891051.328,-33.691,27.832,-1000.000,-102.539,-887.695
1573891051.332,56.641,28.809,-85.938,85.449,-150.879
1573891051.336,119.141,27.344,-773.438,203.613,935.059
1573891051.340,43.945,23.926,187.012,32.715,246.094
1573891051.343,-33.691,24.414,-1000.000,-119.629,-725.586
1573891051.347,21.973,22.461,-269.531,15.625,-398.926
1573891051.351,107.422,28.320,-804.688,191.895,781.250
1573891051.355,65.430,31.250,464.355,98.145,566.406
1573891051.359,-30.273,20.020,-1000.000,-101.562,-582.031
1573891051.363,-2.441,23.438,-600.098,-39.062,-645.020
1573891051.367,98.145,32.715,939.941,167.969,490.723
1573891051.371,101.562,41.016,905.762,145.996,775.391
1573891051.375,5.371,39.551,-584.961,-58.105,-372.070
1573891051.379,-13.184,27.832,-1000.000,-80.078,-828.613
1573891051.383,83.984,36.133,342.773,118.652,147.949
1573891051.386,110.840,41.992,-791.504,175.293,937.500
1573891051.390,10.254,33.203,35.156,-18.555,43.945
1573891051.394,-37.109,35.156,-1000.000,-112.305,-759.766
1573891051.398,47.363,37.598,-158.203,62.012,-216.797
1573891051.402,106.934,32.715,-768.555,185.547,919.434
1573891051.406,40.527,28.320,293.457,37.109,379.883
1573891051.410,-34.180,29.297,-1000.000,-117.188,-660.156
1573891051.414,16.113,34.180,-334.473,-0.977,-467.773
1573891051.418,110.352,33.691,-827.637,183.594,693.848
1573891051.422,76.660,27.832,533.203,107.910,604.004
1573891051.426,-27.344,24.414,-1000.000,-96.191,-519.043
1573891051.429,-14.648,21.484,-737.793,-62.500,-701.660
1573891051.433,84.473,27.344,783.691,144.531,377.930
1573891051.437,86.426,33.691,-984.863,148.438,815.430
1573891051.441,-20.020,23.438,-415.527,-66.406,-268.555
1573891051.445,-48.828,20.508,-1000.000,-113.281,-813.477
1573891051.449,48.340,26.367,173.340,95.215,53.223
1573891051.453,94.727,32.227,-772.461,183.105,942.871
1573891051.457,4.395,26.855,94.238,-6.348,47.363
1573891051.461,-59.570,16.602,-1000.000,-127.930,-780.762
1573891051.465,15.137,24.902,-162.598,31.250,-269.531
1573891051.468,88.379,36.133,-767.578,175.781,863.281
1573891051.472,28.320,29.297,296.387,44.922,413.574
1573891051.476,-56.641,20.020,-1000.000,-127.441,-710.449
1573891051.480,-13.184,22.949,-392.578,-33.203,-587.402
1573891051.484,83.984,21.484,-854.980,163.574,625.488
1573891051.488,75.684,20.508,549.805,115.723,641.113
1573891051.492,-22.461,30.762,-989.258,-96.191,-507.812
1573891051.496,-38.086,41.504,-804.199,-94.727,-750.488
1573891051.500,61.035,45.410,670.410,108.398,314.453
1573891051.504,83.496,46.875,-912.109,136.719,842.285
1573891051.508,-20.020,48.828,-265.137,-76.172,-224.121
1573891051.511,-59.082,52.246,-1000.000,-148.926,-810.547
1573891051.515,33.203,54.199,43.945,45.410,-20.996
1573891051.519,79.102,67.871,-767.578,141.113,937.988
1573891051.523,-10.742,73.242,161.133,-42.969,160.156
1573891051.527,-86.914,68.359,-1000.000,-189.941,-773.438
1573891051.531,-25.879,71.777,-236.816,-53.711,-388.672
1573891051.535,51.270,84.961,-787.598,101.562,808.105
1573891051.539,1.953,84.961,378.906,-13.672,504.395
1573891051.543,-89.355,79.590,-1000.000,-201.660,-646.973
1573891051.547,-61.035,91.309,-532.715,-128.418,-634.766
1573891051.551,28.809,101.074,-979.980,59.570,557.617
1573891051.554,7.324,98.633,768.555,12.695,719.727
1573891051.558,-98.633,91.309,-758.301,-196.289,-409.180
1573891051.562,-109.863,87.891,-972.656,-203.125,-797.363
1573891051.566,-16.113,99.609,458.984,-1.953,206.055
1573891051.570,7.324,109.375,-860.352,37.598,886.230
1573891051.574,-83.496,101.074,-160.156,-164.551,-131.348
1573891051.578,-127.930,94.727,-1000.000,-250.977,-856.445
1573891051.582,-33.691,99.609,-76.172,-58.594,-154.297
1573891051.586,29.297,104.980,-768.066,67.871,933.594
1573891051.590,-43.457,84.473,215.332,-92.285,284.180
1573891051.593,-109.863,67.383,-1000.000,-234.375,-744.141
1573891051.597,-47.852,75.684,-286.133,-96.191,-464.844
1573891051.601,49.316,86.914,-802.734,96.191,766.602
1573891051.605,9.277,78.613,431.641,9.766,558.105
1573891051.609,-83.008,64.453,-1000.000,-186.035,-592.773
1573891051.613,-44.434,80.566,-603.516,-113.770,-614.258
1573891051.617,56.641,85.449,961.914,94.727,516.602
1573891051.621,53.711,62.988,810.059,74.219,760.742
1573891051.625,-37.598,47.852,-719.727,-125.488,-319.336
1573891051.629,-47.852,43.457,-1000.000,-135.254,-767.578
1573891051.633,61.035,41.016,365.723,82.031,161.133
1573891051.636,100.586,43.945,-807.617,148.926,915.527
1573891051.640,10.742,36.133,-26.367,-41.992,-82.520
1573891051.644,-32.227,29.785,-1000.000,-131.348,-813.477
1573891051.648,64.941,35.156,-104.492,54.688,-173.340
1573891051.652,136.719,35.645,-765.137,188.965,912.109
1573891051.656,60.059,26.855,240.723,40.527,313.965
1573891051.660,-18.066,27.344,-1000.000,-115.234,-744.629
1573891051.664,43.945,34.668,-329.590,9.277,-490.723
1573891051.668,134.766,37.598,-830.566,188.477,709.473
1573891051.672,89.844,31.250,536.621,98.633,595.215
1573891051.676,-13.672,20.020,-1000.000,-96.191,-531.738
1573891051.679,7.324,16.113,-730.469,-46.875,-693.359
1573891051.683,117.676,20.508,796.387,160.645,392.090
1573891051.687,125.488,27.344,982.910,162.598,791.992
1573891051.691,20.020,24.414,-449.707,-44.434,-317.871
1573891051.695,-10.742,17.578,-1000.000,-90.332,-843.750
1573891051.699,87.402,23.926,147.461,110.840,49.316
1573891051.703,131.836,30.273,-785.645,193.359,955.078
1573891051.707,35.156,26.367,58.105,0.000,56.641
1573891051.711,-26.855,13.184,-1000.000,-117.188,-828.125
1573891051.715,56.641,15.625,-208.008,48.340,-307.129
1573891051.718,128.418,27.344,-783.203,191.895,897.461
1573891051.722,64.453,23.438,318.359,57.617,406.250
1573891051.726,-16.602,20.020,-1000.000,-110.840,-729.980
1573891051.730,25.391,23.926,-409.668,-12.207,-541.504
1573891051.734,123.535,41.992,-883.301,179.199,658.691
1573891051.738,114.258,44.922,655.762,131.836,655.762
1573891051.742,0.977,29.785,-891.602,-76.172,-468.262
1573891051.746,-16.602,28.320,-826.660,-71.777,-711.914
1573891051.750,65.430,23.926,689.453,119.629,325.684
1573891051.754,74.219,19.043,-944.336,133.301,836.914
1573891051.758,-15.625,27.344,-346.191,-67.871,-224.609
1573891051.761,-61.523,27.344,-1000.000,-138.672,-842.773
1573891051.765,16.113,24.414,88.867,46.875,-29.785
1573891051.769,44.922,21.973,-771.973,129.395,950.195
1573891051.773,-46.875,25.391,112.305,-52.246,128.418
1573891051.777,-120.605,28.809,-1000.000,-186.035,-794.922
1573891051.781,-59.570,30.273,-208.984,-45.898,-336.426
1573891051.785,15.625,35.645,-782.715,104.980,833.984
1573891051.789,-52.246,34.668,387.695,-19.531,455.078
1573891051.793,-139.648,31.738,-1000.000,-200.684,-638.672
1573891051.797,-99.609,29.785,-490.234,-115.234,-557.129
1573891051.801,-6.836,29.785,-942.383,83.008,600.586
1573891051.804,-29.297,34.668,731.934,32.715,681.152
1573891051.808,-128.418,31.250,-802.246,-175.293,-455.078
1573891051.812,-120.605,26.855,-895.020,-158.203,-733.398
1573891051.816,-11.230,27.344,560.547,57.617,275.879
1573891051.820,18.066,18.066,-841.309,100.586,887.695
1573891051.824,-63.477,19.531,-105.469,-85.449,-107.422
1573891051.828,-104.492,20.508,-1000.000,-162.109,-831.055
1573891051.832,-18.555,13.184,-22.949,20.996,-143.555
1573891051.836,61.035,3.906,-756.348,155.762,947.266
1573891051.840,-11.719,-9.277,227.539,-2.441,252.930
1573891051.843,-81.543,-13.184,-1000.000,-144.043,-745.117
1573891051.847,0.000,-5.371,-282.227,11.719,-417.480
1573891051.851,95.215,-2.441,-807.617,188.965,771.973
1573891051.855,61.035,-8.789,502.930,97.168,566.406
1573891051.859,-19.531,-14.160,-1000.000,-79.590,-584.961
1573891051.863,12.207,-16.113,-647.461,-11.230,-653.809
1573891051.867,113.770,-10.254,894.531,201.660,506.836
1573891051.871,115.723,-11.719,935.547,193.359,749.023
1573891051.875,21.973,-17.090,-569.336,-9.766,-362.793
1573891051.879,13.184,-15.625,-1000.000,-24.902,-770.996
1573891051.883,119.141,-10.742,419.434,186.523,165.039
1573891051.886,157.227,-7.812,-805.664,252.930,925.781
1573891051.890,64.453,-14.648,-40.527,60.059,-51.270
1573891051.894,13.184,-27.344,-1000.000,-44.434,-804.199
1573891051.898,98.633,-20.508,-82.520,129.883,-159.668
1573891051.902,169.922,-1.953,-760.254,267.578,921.875
1573891051.906,105.469,2.441,259.766,120.117,325.195
1573891051.910,27.832,-6.836,-1000.000,-41.504,-721.680
1573891051.914,82.520,1.465,-309.082,78.613,-483.887
1573891051.918,176.270,10.254,-821.289,259.277,709.473
1573891051.922,137.695,3.906,532.715,176.270,629.883
1573891051.926,37.598,2.441,-1000.000,-27.344,-513.672
1573891051.929,53.711,5.859,-653.320,10.254,-690.918
1573891051.933,150.391,7.324,892.578,220.215,448.730
1573891051.937,157.715,7.812,944.824,218.750,775.391
1573891051.941,61.035,11.719,-517.090,7.324,-368.652
1573891051.945,36.621,16.602,-1000.000,-29.297,-835.449
1573891051.949,133.789,16.602,253.418,175.293,71.289
1573891051.953,173.828,13.672,-781.738,244.141,923.340
1573891051.957,78.613,12.207,54.199,48.340,6.836
1573891051.961,12.695,13.184,-1000.000,-68.359,-850.098
1573891051.965,92.773,20.508,-156.250,99.121,-303.711
1573891051.968,166.016,22.461,-768.555,247.559,877.930
1573891051.972,98.633,22.949,315.430,106.934,437.988
1573891051.976,11.230,21.484,-1000.000,-68.359,-690.918
1573891051.980,55.664,19.531,-386.230,32.227,-577.637
1573891051.984,147.461,23.438,-866.211,222.168,630.859
1573891051.988,120.605,22.461,619.629,162.109,654.297
1573891051.992,18.066,19.043,-894.043,-41.992,-509.277
1573891051.996,19.043,23.926,-887.207,-18.555,-760.254
1573891052.000,119.629,29.297,576.172,188.477,320.312
1573891052.004,129.883,25.879,-909.180,205.078,848.145
1573891052.008,29.785,21.973,-264.160,-0.977,-202.148
1573891052.011,2.930,22.461,-1000.000,-57.129,-844.238
1573891052.015,95.703,29.297,-18.066,138.184,-36.621
1573891052.019,144.043,39.062,-770.508,234.375,956.055
1573891052.023,54.688,29.297,165.527,51.270,138.184
1573891052.027,-19.531,20.020,-1000.000,-91.797,-763.672
1573891052.031,53.223,20.020,-213.379,58.594,-290.039
1573891052.035,136.230,19.043,-778.320,222.168,854.492
1573891052.039,83.984,11.230,377.930,103.516,449.219
1573891052.043,-6.348,14.648,-1000.000,-86.426,-661.133
1573891052.047,31.738,31.738,-448.242,-4.883,-590.820
1573891052.051,125.000,35.156,-915.039,192.383,569.336
1573891052.054,104.980,27.832,750.977,148.926,707.031
1573891052.058,9.766,25.391,-790.527,-57.129,-436.523
1573891052.062,9.277,26.855,-895.020,-49.316,-799.805
1573891052.066,111.816,32.715,599.121,166.016,253.418
1573891052.070,128.906,27.832,-891.113,195.801,902.344
1573891052.074,25.879,16.113,-215.332,-14.648,-163.086
1573891052.078,-11.230,22.461,-1000.000,-91.309,-869.141
1573891052.082,79.590,30.273,-32.227,102.539,-119.629
1573891052.086,135.742,30.273,-772.461,213.867,937.012
1573891052.090,52.246,26.367,158.691,37.598,239.746
1573891052.093,-23.438,23.438,-1000.000,-112.793,-783.691
1573891052.097,44.434,27.832,-241.211,26.367,-419.434
1573891052.101,128.906,34.668,-796.387,195.312,803.223
1573891052.105,83.008,29.785,468.262,86.914,592.773
1573891052.109,-8.301,24.902,-1000.000,-104.004,-573.730
1573891052.113,13.672,28.809,-557.129,-39.551,-689.941
1573891052.117,107.910,21.973,994.141,159.668,501.465
1573891052.121,99.121,13.184,857.910,132.812,768.555
1573891052.125,-8.789,21.973,-638.184,-82.031,-386.719
1573891052.129,-24.414,28.320,-1000.000,-97.656,-819.824
1573891052.133,83.984,35.156,351.562,111.816,162.109
1573891052.136,118.652,44.922,-808.594,174.316,915.039
1573891052.140,21.973,34.180,-19.043,-12.695,-29.297
1573891052.144,-15.625,21.973,-1000.000,-101.074,-822.754
1573891052.148,67.383,23.926,-139.648,66.406,-228.027
1573891052.152,122.559,30.762,-769.043,187.988,924.316
1573891052.156,54.688,33.203,257.812,45.410,329.590
1573891052.160,-15.137,33.691,-1000.000,-102.539,-754.395
1573891052.164,41.016,32.227,-309.082,24.414,-454.102
1573891052.168,118.652,34.180,-815.918,199.219,754.395
1573891052.172,83.008,33.203,493.652,119.629,578.125
1573891052.176,-10.742,25.391,-1000.000,-74.707,-547.852
1573891052.179,7.812,26.855,-698.730,-32.715,-660.156
1573891052.183,111.816,39.551,830.566,173.340,427.734
1573891052.187,111.328,37.598,976.074,165.527,811.035
1573891052.191,8.301,29.297,-489.746,-50.293,-319.336
1573891052.195,-8.789,33.691,-1000.000,-79.590,-871.582
1573891052.199,93.262,40.527,271.973,132.812,90.332
1573891052.203,129.395,31.738,-777.344,203.613,959.961
1573891052.207,39.551,30.273,60.059,16.602,31.738
1573891052.211,-8.789,34.668,-1000.000,-90.332,-861.816
1573891052.215,67.871,32.227,-151.367,70.312,-292.480
1573891052.218,134.277,28.320,-768.066,211.914,903.320
1573891052.222,63.477,20.020,272.461,72.754,380.371
1573891052.226,-29.297,18.555,-1000.000,-101.562,-713.867
1573891052.230,21.484,28.809,-381.836,1.953,-559.082
1573891052.234,118.652,34.180,-847.656,194.336,648.438
1573891052.238,90.332,35.645,510.742,125.488,656.738
1573891052.242,-10.254,35.645,-1000.000,-83.984,-523.926
1573891052.246,2.930,31.250,-760.742,-53.711,-742.676
1573891052.250,117.676,37.598,722.168,162.598,369.141
1573891052.254,133.789,38.574,-935.059,178.711,846.191
1573891052.258,25.391,27.344,-303.223,-33.203,-168.457
1573891052.261,-7.324,24.902,-1000.000,-82.520,-789.062
1573891052.265,91.309,30.273,50.781,120.117,-34.180
1573891052.269,135.742,34.180,-768.555,205.566,946.289
1573891052.273,41.992,31.738,143.555,21.973,133.789
1573891052.277,-26.855,27.344,-1000.000,-109.375,-749.512
1573891052.281,49.316,30.273,-198.242,41.016,-294.434
1573891052.285,125.000,34.180,-776.855,196.777,849.609
1573891052.289,62.500,31.738,356.445,75.195,460.449
1573891052.293,-24.414,31.250,-1000.000,-108.398,-613.770
1573891052.297,16.113,30.762,-502.930,-28.320,-558.594
1573891052.301,107.910,34.668,-950.195,168.945,584.473
1573891052.304,87.402,42.480,729.004,121.582,700.684
1573891052.308,-16.113,36.621,-800.781,-89.844,-425.781
1573891052.312,-16.602,32.227,-952.148,-83.496,-718.262
1573891052.316,92.285,38.574,496.094,131.348,287.598
1573891052.320,109.375,36.133,-871.582,167.969,881.348
1573891052.324,2.441,27.832,-203.613,-44.434,-191.406
1573891052.328,-33.691,21.484,-1000.000,-122.559,-864.258
1573891052.332,61.035,24.414,-20.020,70.801,-75.195
1573891052.336,118.164,36.621,-766.113,186.035,965.332
1573891052.340,40.039,36.621,183.594,19.043,207.520
1573891052.343,-34.180,28.320,-1000.000,-129.395,-724.121
1573891052.347,33.691,33.203,-254.395,13.184,-328.613
1573891052.351,121.094,38.574,-792.969,188.477,793.945
1573891052.355,72.754,39.551,410.156,83.496,556.641
1573891052.359,-16.602,39.062,-1000.000,-106.445,-576.172
1573891052.363,16.602,32.715,-580.566,-38.086,-666.504
1573891052.367,113.770,34.668,989.258,166.504,510.254
1573891052.371,104.492,35.645,765.137,139.648,761.230
1573891052.375,5.371,29.785,-780.762,-74.707,-426.758
1573891052.379,-0.977,34.668,-973.145,-82.031,-861.816
1573891052.383,95.215,42.480,433.594,131.836,174.805
1573891052.386,112.305,43.457,-816.895,178.711,911.133
1573891052.390,12.695,38.574,-50.293,-21.973,-72.266
1573891052.394,-32.227,27.344,-1000.000,-106.445,-828.125
1573891052.398,50.781,28.320,-83.496,73.242,-166.992
1573891052.402,108.398,39.062,-765.625,194.336,932.617
1573891052.406,39.551,38.086,220.703,47.852,288.086
1573891052.410,-36.133,33.203,-1000.000,-103.516,-731.445
1573891052.414,20.020,35.645,-324.219,15.625,-444.336
1573891052.418,112.793,40.039,-831.543,195.801,737.793
1573891052.422,72.754,29.785,541.016,106.445,582.520
1573891052.426,-22.949,23.926,-1000.000,-98.633,-586.426
1573891052.429,7.324,25.879,-628.418,-44.434,-694.336
1573891052.433,99.121,26.855,891.602,154.297,439.941
1573891052.437,92.773,29.785,984.863,135.254,804.199
1573891052.441,-1.953,24.414,-436.035,-70.801,-274.414
1573891052.445,-24.414,20.996,-1000.000,-110.352,-820.801
1573891052.449,74.707,23.438,245.117,94.727,82.520
1573891052.453,112.793,25.879,-779.297,170.410,926.758
1573891052.457,23.438,24.902,51.758,-25.391,-25.879
1573891052.461,-33.691,20.996,-1000.000,-135.254,-817.383
1573891052.465,45.898,20.020,-166.992,29.297,-240.234
1573891052.468,115.723,24.414,-769.531,168.945,895.996
1573891052.472,47.852,23.438,328.613,34.668,369.141
1573891052.476,-34.668,20.996,-1000.000,-132.812,-739.258
1573891052.480,11.719,20.508,-337.402,-26.367,-544.434
1573891052.484,104.980,22.949,-848.145,163.086,659.180
1573891052.488,75.684,24.902,666.992,100.098,648.926
1573891052.492,-30.762,17.090,-885.742,-106.934,-492.188
1573891052.496,-26.367,11.719,-753.418,-82.031,-726.074
1573891052.500,79.102,17.090,771.973,129.395,366.699
1573891052.504,89.844,23.926,-921.875,144.043,841.309
1573891052.508,-11.230,17.578,-304.199,-67.383,-229.004
1573891052.511,-41.016,13.184,-1000.000,-123.535,-827.148
1573891052.515,55.176,20.020,202.637,84.473,18.066
1573891052.519,105.469,27.832,-763.184,177.734,976.074
1573891052.523,16.602,25.391,100.098,-6.836,116.211
1573891052.527,-51.758,21.484,-1000.000,-136.719,-809.570
1573891052.531,20.508,25.391,-181.152,17.090,-312.988
1573891052.535,95.215,27.832,-773.926,175.781,871.094
1573891052.539,38.086,24.414,370.117,52.734,435.059
1573891052.543,-51.758,20.996,-1000.000,-130.371,-664.551
1573891052.547,-9.277,23.926,-474.609,-37.109,-572.754
1573891052.551,96.680,33.691,-924.805,168.945,574.219
1573891052.554,77.637,35.645,695.312,119.629,677.246
1573891052.558,-31.250,25.879,-852.051,-95.703,-499.023
1573891052.562,-33.203,20.020,-846.191,-88.867,-815.918
1573891052.566,69.824,26.367,630.859,125.000,276.367
1573891052.570,89.355,31.250,-864.746,159.668,896.973
1573891052.574,-10.742,22.949,-154.785,-48.340,-133.789
1573891052.578,-50.293,15.137,-1000.000,-121.582,-832.031
1573891052.582,40.039,20.020,-20.508,70.312,-89.844
1573891052.586,96.680,28.320,-764.160,177.246,946.777
1573891052.590,19.043,25.391,197.754,13.672,177.734
1573891052.593,-51.758,22.949,-1000.000,-122.070,-794.434
1573891052.597,14.648,27.344,-300.781,16.113,-410.156
1573891052.601,102.051,34.668,-811.035,184.082,789.551
1573891052.605,47.852,30.762,440.430,83.496,530.762
1573891052.609,-48.340,26.855,-1000.000,-104.980,-630.859
1573891052.613,-11.719,30.762,-533.203,-34.668,-649.414
1573891052.617,84.473,31.250,998.535,163.574,504.395
1573891052.621,69.336,29.785,865.234,131.348,760.742
1573891052.625,-29.297,29.297,-639.160,-79.102,-367.676
1573891052.629,-37.109,31.738,-985.840,-90.332,-810.547
1573891052.633,59.082,37.109,461.426,116.699,207.520
1573891052.636,86.914,39.062,-835.449,166.016,923.828
1573891052.640,-1.465,28.809,-118.164,-33.691,-80.078
1573891052.644,-42.969,25.391,-1000.000,-125.000,-832.031
1573891052.648,39.062,32.715,-67.383,55.664,-158.691
1573891052.652,101.562,36.133,-765.137,177.246,935.547
1573891052.656,33.691,32.227,236.328,23.438,306.152
1573891052.660,-41.016,31.738,-1000.000,-129.883,-735.840
1573891052.664,25.879,44.922,-290.039,0.488,-463.867
1573891052.668,114.258,48.340,-801.270,177.246,755.371
1573891052.672,61.035,39.551,426.270,76.172,583.984
1573891052.676,-40.039,35.156,-1000.000,-123.047,-601.562
1573891052.679,-14.160,38.086,-635.742,-70.801,-713.379
1573891052.683,88.379,39.551,919.434,138.184,445.801
1573891052.687,87.891,37.598,840.332,129.883,774.902
1573891052.691,-13.672,30.762,-676.270,-86.426,-328.125
1573891052.695,-34.668,27.344,-1000.000,-119.141,-818.848
1573891052.699,64.941,32.715,320.312,93.262,105.469
1573891052.703,103.516,31.738,-818.848,165.039,911.621
1573891052.707,8.301,26.855,-40.527,-35.156,25.879
1573891052.711,-44.922,29.297,-1000.000,-140.625,-754.395
1573891052.715,37.109,39.062,-128.906,35.156,-240.234
1573891052.718,98.633,36.133,-768.555,170.898,907.227
1573891052.722,35.156,33.203,295.898,33.203,368.164
1573891052.726,-46.875,32.227,-1000.000,-130.371,-691.895
1573891052.730,-3.418,23.926,-370.117,-26.367,-507.812
1573891052.734,86.914,20.996,-848.633,157.715,667.969
1573891052.738,55.176,24.414,567.383,83.984,629.395
1573891052.742,-41.992,23.438,-956.543,-116.699,-550.293
1573891052.746,-28.320,19.531,-821.777,-84.473,-713.379
1573891052.750,75.684,22.949,659.180,124.023,388.184
1573891052.754,85.938,27.832,-943.359,138.184,821.777
1573891052.758,-14.160,26.367,-354.980,-69.824,-216.797
1573891052.761,-40.039,26.855,-1000.000,-117.188,-783.691
1573891052.765,58.105,27.832,160.645,89.355,54.688
1573891052.769,105.957,27.832,-768.555,178.711,976.074
1573891052.773,20.996,26.855,107.422,-1.465,56.152
1573891052.777,-43.945,20.508,-1000.000,-123.047,-845.215
1573891052.781,29.785,21.973,-199.219,36.133,-284.180
1573891052.785,112.305,27.344,-776.367,190.430,901.855
1573891052.789,55.176,24.414,353.027,62.988,466.797
1573891052.793,-35.645,22.949,-1000.000,-123.047,-657.715
1573891052.797,8.301,28.809,-423.340,-29.785,-553.223
1573891052.801,111.816,36.133,-885.742,178.711,621.582
1573891052.804,90.820,36.621,663.574,124.023,680.176
1573891052.808,-15.625,31.738,-872.070,-89.355,-476.562
1573891052.812,-14.160,33.203,-878.906,-76.660,-772.949
1573891052.816,86.914,43.945,619.629,136.230,299.316
1573891052.820,104.004,41.016,-931.152,165.527,866.699
1573891052.824,-2.930,36.133,-318.359,-48.340,-207.031
1573891052.828,-42.969,36.133,-1000.000,-119.629,-826.660
1573891052.832,50.293,38.086,18.555,79.590,-51.758
1573891052.836,95.703,37.598,-771.484,177.734,936.523
1573891052.840,9.766,29.785,173.828,-1.465,200.195
1573891052.843,-62.012,32.227,-1000.000,-143.066,-769.043
1573891052.847,1.953,37.598,-235.840,-0.977,-412.109
1573891052.851,79.590,33.691,-786.621,158.203,804.199
1573891052.855,30.273,29.785,414.551,42.480,541.504
1573891052.859,-58.594,26.367,-1000.000,-141.113,-606.445
1573891052.863,-26.855,26.855,-537.109,-66.895,-619.629
1573891052.867,73.242,33.691,-987.793,136.230,549.805
1573891052.871,61.035,32.715,808.594,103.027,711.426
1573891052.875,-40.527,30.273,-708.496,-106.445,-426.758
1573891052.879,-50.293,31.250,-997.070,-116.211,-789.551
1573891052.883,48.828,38.574,421.875,94.238,198.242
1573891052.886,78.125,37.598,-833.496,145.996,904.785
1573891052.890,-21.973,27.344,-99.609,-60.547,-131.348
1573891052.894,-63.477,26.855,-1000.000,-147.461,-886.719
1573891052.898,30.762,31.250,-100.098,41.016,-161.133
1573891052.902,89.844,29.785,-769.531,162.109,955.078
1573891052.906,16.113,20.020,229.492,9.277,266.113
1573891052.910,-55.664,22.461,-1000.000,-137.695,-825.684
1573891052.914,4.395,29.297,-289.551,-9.766,-498.535
1573891052.918,85.938,34.668,-806.641,161.621,772.949
1573891052.922,37.109,30.273,445.312,64.941,566.895
1573891052.926,-53.223,17.090,-1000.000,-124.023,-582.031
1573891052.929,-19.043,24.902,-693.359,-59.082,-650.879
1573891052.933,82.520,29.785,844.727,146.484,464.355
1573891052.937,75.684,23.438,947.266,135.254,796.875
1573891052.941,-30.273,20.020,-549.316,-75.684,-313.965
1573891052.945,-50.293,20.996,-1000.000,-104.980,-821.289
1573891052.949,49.316,28.320,315.430,102.539,114.746
1573891052.953,85.449,32.227,-792.480,167.969,943.848
1573891052.957,-4.883,29.297,12.695,-24.414,31.738
1573891052.961,-49.805,30.762,-1000.000,-129.395,-809.082
1573891052.965,38.086,33.203,-122.070,42.969,-245.117
1573891052.968,107.910,31.738,-764.648,179.688,924.805
1573891052.972,41.992,34.180,253.418,30.762,383.301
1573891052.976,-39.062,32.715,-1000.000,-136.719,-715.332
1573891052.980,11.230,28.320,-336.914,-26.367,-498.535
1573891052.984,104.004,26.855,-842.285,164.062,711.914
1573891052.988,74.707,30.762,590.820,96.680,639.648
1573891052.992,-24.414,33.691,-965.820,-112.305,-517.090
1573891052.996,-17.578,26.367,-731.445,-84.961,-724.121
1573891053.000,82.031,28.809,807.617,128.418,402.832
1573891053.004,89.355,31.250,-992.676,131.348,828.125
1573891053.008,-18.066,23.926,-406.738,-83.496,-284.180
1573891053.011,-48.340,22.949,-1000.000,-130.859,-907.227
1573891053.015,50.781,23.438,109.863,75.195,-29.297
1573891053.019,99.121,29.297,-771.973,164.551,941.895
1573891053.023,3.906,30.273,120.605,-36.133,99.121
1573891053.027,-61.523,22.461,-1000.000,-163.086,-801.270
1573891053.031,17.090,23.438,-182.129,0.488,-342.773
1573891053.035,90.820,30.762,-773.438,153.320,864.746
1573891053.039,31.738,33.203,336.426,30.762,451.172
1573891053.043,-62.012,24.414,-1000.000,-148.926,-637.695
1573891053.047,-21.973,21.973,-495.605,-55.664,-545.898
1573891053.051,73.730,23.926,-946.289,138.672,606.934
1573891053.054,53.711,25.391,699.707,85.938,683.594
1573891053.058,-42.969,27.344,-859.863,-117.676,-484.863
1573891053.062,-38.574,21.484,-878.906,-104.492,-743.164
1573891053.066,67.871,18.555,604.980,104.980,325.195
1573891053.070,83.008,25.879,-900.391,131.348,847.656
1573891053.074,-20.508,21.973,-244.141,-73.242,-212.402
1573891053.078,-47.852,14.648,-1000.000,-132.812,-869.141
1573891053.082,54.199,22.949,-14.160,63.965,-88.379
1573891053.086,101.074,34.668,-765.625,169.922,963.867
1573891053.090,11.230,36.133,171.387,-4.395,175.781
1573891053.093,-52.734,32.715,-1000.000,-142.090,-763.672
1573891053.097,16.602,33.203,-224.121,2.441,-342.285
1573891053.101,96.191,35.645,-782.715,171.387,830.566
1573891053.105,48.828,34.180,400.879,64.941,523.438
1573891053.109,-43.457,31.250,-1000.000,-125.000,-622.559
1573891053.113,-7.812,30.762,-518.555,-47.852,-619.629
1573891053.117,93.750,31.738,-959.961,158.203,540.039
1573891053.121,81.543,30.273,771.484,119.141,741.699
1573891053.125,-19.043,22.949,-772.461,-92.773,-374.512
1573891053.129,-28.320,20.508,-941.895,-93.262,-809.082
1573891053.133,67.383,23.438,521.973,115.723,197.754
1573891053.136,90.332,27.344,-858.887,159.668,901.367
1573891053.140,-11.719,29.297,-146.973,-47.852,-103.516
1573891053.144,-63.477,26.367,-1000.000,-134.277,-816.895
1573891053.148,20.996,23.926,-44.922,54.199,-109.375
1573891053.152,80.078,22.949,-760.742,167.969,951.660
1573891053.156,3.418,20.996,219.727,3.418,241.211
1573891053.160,-77.148,14.160,-1000.000,-150.391,-741.211
1573891053.164,-31.250,6.836,-252.930,-33.203,-423.340
1573891053.168,52.246,8.301,-802.246,137.207,767.578
1573891053.172,15.137,5.859,537.598,41.504,574.219
1573891053.176,-79.590,4.395,-1000.000,-148.438,-553.223
1573891053.179,-48.828,16.113,-559.570,-88.379,-647.949
1573891053.183,58.105,24.414,970.215,119.629,475.586
1573891053.187,56.641,21.484,948.730,104.492,773.926
1573891053.191,-45.898,18.066,-483.398,-108.398,-357.422
1573891053.195,-56.152,18.066,-1000.000,-123.535,-864.746
1573891053.199,47.363,19.043,305.176,86.426,113.770
1573891053.203,83.984,23.438,-792.480,149.414,943.848
1573891053.207,-3.418,24.902,5.371,-46.387,-24.414
1573891053.211,-62.500,15.137,-1000.000,-153.809,-839.355
1573891053.215,16.113,7.324,-160.156,21.484,-229.492
1573891053.218,88.867,13.184,-771.484,157.227,908.691
1573891053.222,24.414,20.020,300.293,6.836,360.352
1573891053.226,-60.547,18.555,-1000.000,-156.738,-653.809
1573891053.230,-9.766,19.043,-337.891,-36.133,-444.824
1573891053.234,82.031,25.391,-837.891,151.367,707.520
1573891053.238,50.293,24.414,595.703,72.754,635.254
1573891053.242,-44.922,23.438,-955.566,-126.953,-515.625
1573891053.246,-25.391,24.902,-723.633,-83.984,-739.258
1573891053.250,89.844,38.086,812.500,135.254,369.141
1573891053.254,98.145,44.922,990.234,145.996,826.172
1573891053.258,-14.160,34.180,-449.707,-75.684,-260.742
1573891053.261,-41.504,27.832,-1000.000,-125.000,-863.281
1573891053.265,53.223,20.508,222.168,86.914,18.066
1573891053.269,95.703,22.949,-780.273,171.875,976.562
1573891053.273,5.859,26.855,47.363,-17.578,78.613
1573891053.277,-62.012,20.996,-1000.000,-139.160,-789.551
1573891053.281,16.602,27.832,-166.992,26.855,-238.281
1573891053.285,94.727,39.062,-773.438,179.688,893.066
1573891053.289,29.785,41.016,332.520,45.410,402.832
1573891053.293,-55.664,37.598,-1000.000,-131.836,-718.262
1573891053.297,-3.418,39.062,-432.129,-29.297,-580.566
1573891053.301,93.750,38.574,-897.461,165.039,630.859
1573891053.304,70.312,30.762,670.410,103.516,671.875
1573891053.308,-29.785,23.926,-864.746,-106.934,-524.902
1573891053.312,-23.926,20.996,-884.277,-86.914,-794.434
1573891053.316,84.473,21.973,590.332,131.348,324.707
1573891053.320,102.051,28.809,-887.207,149.414,874.512
1573891053.324,-3.906,28.320,-236.816,-63.477,-191.895
1573891053.328,-37.598,28.320,-1000.000,-122.070,-859.863
1573891053.332,51.270,30.762,53.711,71.777,-40.527
1573891053.336,98.145,29.297,-762.695,170.898,986.328
1573891053.340,17.090,26.855,169.434,-1.953,146.973
1573891053.343,-52.734,27.832,-1000.000,-135.742,-784.668
1573891053.347,15.137,34.668,-267.090,8.789,-321.777
1573891053.351,95.703,33.691,-797.363,167.969,819.336
1573891053.355,41.992,33.691,403.320,55.664,496.094
1573891053.359,-50.293,34.668,-1000.000,-126.465,-619.141
1573891053.363,-14.160,20.996,-473.633,-47.852,-588.867
1573891053.367,82.520,21.484,-945.801,148.926,568.359
1573891053.371,61.523,34.180,807.617,111.328,735.840
1573891053.375,-43.457,30.762,-717.285,-100.586,-402.832
1573891053.379,-44.922,29.785,-936.035,-102.051,-815.430
1573891053.383,59.570,37.598,533.203,113.281,217.285
1573891053.386,78.125,37.109,-842.773,153.320,922.363
1573891053.390,-20.020,27.832,-125.000,-56.641,-108.398
1573891053.394,-58.594,27.832,-1000.000,-142.090,-877.930
1573891053.398,31.250,41.016,-69.336,46.875,-157.715
1573891053.402,89.844,38.086,-763.672,168.945,955.566
1573891053.406,15.625,26.367,210.449,8.789,228.027
1573891053.410,-60.547,19.531,-1000.000,-145.508,-818.848
1573891053.414,-3.906,25.391,-259.766,-11.230,-451.172
1573891053.418,87.891,35.645,-792.480,167.969,786.133
1573891053.422,42.480,36.133,406.738,66.406,552.734
1573891053.426,-53.223,30.273,-1000.000,-127.441,-582.031
1573891053.429,-19.531,30.762,-611.816,-60.059,-657.715
1573891053.433,81.543,41.504,920.410,144.043,472.656
1573891053.437,76.172,41.504,902.344,115.234,772.949
1573891053.441,-24.414,33.691,-591.309,-98.633,-345.215
1573891053.445,-40.039,31.738,-1000.000,-114.746,-818.848
1573891053.449,62.500,36.133,364.746,102.051,140.137
1573891053.453,98.145,33.691,-831.055,161.621,921.387
1573891053.457,-2.930,23.438,-89.844,-44.434,-62.500
1573891053.461,-53.223,26.855,-1000.000,-142.090,-841.797
1573891053.465,35.645,36.133,-109.863,41.992,-220.215
1573891053.468,102.539,33.203,-767.578,182.129,921.387
1573891053.472,29.785,25.879,271.973,39.062,354.492
1573891053.476,-56.152,20.996,-1000.000,-122.559,-737.793
1573891053.480,-1.953,21.484,-331.543,-6.348,-510.254
1573891053.484,91.797,29.297,-824.707,174.805,715.820
1573891053.488,57.617,29.785,508.301,90.820,605.469
1573891053.492,-37.598,20.508,-1000.000,-104.492,-592.285
1573891053.496,-13.184,15.137,-780.762,-59.082,-738.770
1573891053.500,90.332,25.879,719.727,146.484,403.320
1573891053.504,83.984,39.551,995.117,144.043,809.082
1573891053.508,-19.531,33.691,-434.570,-68.848,-298.340
1573891053.511,-37.109,23.926,-1000.000,-110.352,-825.195
1573891053.515,61.523,27.832,81.055,85.449,67.871
1573891053.519,98.145,33.203,-783.203,163.086,952.148
1573891053.523,8.301,29.785,96.680,-20.508,92.773
1573891053.527,-43.457,29.297,-1000.000,-137.207,-777.344
1573891053.531,37.109,38.086,-191.895,26.367,-287.109
1573891053.535,115.234,42.480,-775.879,174.805,898.438
1573891053.539,56.152,44.434,299.316,44.434,411.133
1573891053.543,-36.133,40.039,-1000.000,-130.859,-747.559
1573891053.547,2.930,44.922,-419.922,-40.039,-600.098
1573891053.551,100.586,52.246,-891.113,153.809,637.207
1573891053.554,73.730,53.711,657.227,101.562,664.062
1573891053.558,-38.574,47.852,-894.531,-112.305,-512.207
1573891053.562,-47.363,31.738,-838.379,-106.934,-785.156
1573891053.566,54.199,38.574,682.129,104.004,314.453
1573891053.570,66.406,52.246,-973.145,120.117,872.070
1573891053.574,-41.016,49.805,-383.301,-99.609,-180.664
1573891053.578,-66.406,54.199,-1000.000,-150.879,-828.125
1573891053.582,22.461,58.594,38.086,43.457,-20.508
1573891053.586,49.805,55.664,-795.898,120.605,969.238
1573891053.590,-49.805,46.875,67.383,-71.777,128.418
1573891053.593,-115.723,50.781,-1000.000,-209.961,-803.223
1573891053.597,-45.410,67.383,-247.070,-58.594,-355.957
1573891053.601,19.531,68.359,-798.828,87.402,831.055
1573891053.605,-45.898,67.383,304.688,-50.781,480.957
1573891053.609,-134.277,70.801,-1000.000,-233.398,-641.113
1573891053.613,-103.027,74.707,-486.816,-151.367,-568.848
1573891053.617,-16.602,82.520,-952.148,41.992,597.168
1573891053.621,-32.715,85.938,723.145,-1.953,712.891
1573891053.625,-141.602,74.219,-808.594,-217.773,-406.250
1573891053.629,-154.297,65.430,-964.844,-212.402,-744.629
1573891053.633,-50.781,62.988,460.938,0.977,251.465
1573891053.636,-14.160,69.336,-854.492,46.387,898.438
1573891053.640,-101.562,71.289,-145.508,-149.414,-89.355
1573891053.644,-134.766,62.012,-1000.000,-219.727,-814.941
1573891053.648,-35.645,62.500,-72.754,-20.996,-111.328
1573891053.652,32.227,60.059,-770.508,105.469,957.031
1573891053.656,-34.668,51.758,196.777,-45.898,265.625
1573891053.660,-98.145,50.293,-1000.000,-187.012,-702.637
1573891053.664,-33.203,51.270,-260.742,-48.340,-380.371
1573891053.668,50.293,49.316,-796.875,123.047,793.945
1573891053.672,16.113,42.969,431.641,31.738,544.434
1573891053.676,-70.312,34.180,-1000.000,-150.879,-583.984
1573891053.679,-35.156,28.320,-600.586,-82.520,-625.977
1573891053.683,76.660,27.832,935.547,134.277,491.211
1573891053.687,76.660,31.738,906.738,120.605,755.371
1573891053.691,-20.996,31.738,-600.586,-84.473,-367.188
1573891053.695,-30.273,28.809,-999.512,-94.238,-822.266
1573891053.699,84.473,26.855,416.992,117.676,145.508
1573891053.703,119.629,25.391,-795.898,178.223,935.059
1573891053.707,21.973,21.484,3.418,-22.461,-32.227
1573891053.711,-19.043,16.113,-1000.000,-120.117,-827.148
1573891053.715,70.801,22.949,-93.262,67.383,-197.266
1573891053.718,136.230,22.461,-759.277,203.613,926.758
1573891053.722,58.105,10.254,232.910,49.805,299.316
1573891053.726,-19.531,11.719,-1000.000,-114.746,-703.613
1573891053.730,42.969,17.090,-302.734,8.301,-429.199
1573891053.734,133.789,16.602,-828.613,199.219,704.590
1573891053.738,99.609,16.113,583.008,122.559,631.836
1573891053.742,0.488,10.254,-979.980,-81.543,-512.207
1573891053.746,19.043,6.348,-664.551,-38.086,-686.035
1573891053.750,130.859,12.695,872.070,174.805,429.199
1573891053.754,133.301,16.602,999.512,171.387,806.641
1573891053.758,26.855,16.113,-413.574,-37.109,-262.207
1573891053.761,14.648,15.625,-1000.000,-67.871,-844.727
1573891053.765,115.723,16.113,197.266,138.184,31.250
1573891053.769,152.344,18.555,-770.508,217.285,969.727
1573891053.773,62.012,19.043,89.844,31.250,11.719
1573891053.777,3.418,17.090,-1000.000,-81.543,-858.398
1573891053.781,85.449,23.926,-154.785,88.867,-252.930
1573891053.785,154.785,25.879,-766.602,229.492,900.391
1573891053.789,89.355,20.996,330.078,91.797,409.180
1573891053.793,11.230,20.508,-1000.000,-74.219,-721.191
1573891053.797,61.035,17.578,-407.715,27.832,-576.660
1573891053.801,153.320,21.973,-895.996,214.355,634.277
1573891053.804,125.977,35.156,714.355,150.879,674.316
1573891053.808,21.484,27.344,-845.215,-57.129,-452.148
1573891053.812,26.855,13.672,-788.574,-35.645,-763.184
1573891053.816,128.906,25.391,735.352,178.711,318.848
1573891053.820,137.695,31.250,-910.156,194.824,846.191
1573891053.824,44.434,29.785,-259.766,-9.277,-249.512
1573891053.828,13.672,30.273,-1000.000,-65.430,-881.348
1573891053.832,99.121,26.367,56.152,121.094,-42.480
1573891053.836,147.461,23.438,-758.789,213.379,947.266
1573891053.840,61.523,21.484,169.922,35.156,130.371
1573891053.843,-13.184,16.602,-1000.000,-100.586,-792.969
1573891053.847,59.082,13.184,-196.289,52.246,-352.051
1573891053.851,143.066,19.531,-772.461,211.426,847.656
1573891053.855,81.055,24.414,401.367,85.449,522.949
1573891053.859,-12.695,22.461,-1000.000,-101.562,-611.816
1573891053.863,26.367,24.902,-450.684,-16.602,-576.172
1573891053.867,120.117,24.902,-898.926,184.570,596.191
1573891053.871,95.703,23.438,708.008,140.137,688.965
1573891053.875,-11.719,24.414,-830.566,-71.289,-461.914
1573891053.879,-16.113,21.484,-921.387,-72.754,-781.738
1573891053.883,84.961,18.555,574.219,134.277,256.348
1573891053.886,101.074,22.461,-914.551,168.945,855.957
1573891053.890,2.930,31.738,-301.270,-31.250,-182.129
1573891053.894,-33.691,31.250,-1000.000,-100.098,-820.312
1573891053.898,56.641,32.227,32.227,87.402,-89.844
1573891053.902,113.770,35.156,-765.625,190.918,955.078
1573891053.906,36.133,25.879,184.570,26.367,193.848
1573891053.910,-33.691,21.973,-1000.000,-114.746,-815.918
1573891053.914,30.762,34.668,-249.023,19.531,-401.855
1573891053.918,114.746,37.109,-792.480,188.965,807.129
1573891053.922,67.871,29.297,449.707,85.938,521.484
1573891053.926,-20.996,32.715,-1000.000,-105.957,-643.066
1573891053.929,7.812,34.180,-524.414,-38.574,-646.973
1573891053.933,106.445,33.691,-985.352,170.898,531.738
1573891053.937,98.633,37.598,853.027,139.648,734.375
1573891053.941,-13.672,41.504,-624.023,-83.984,-382.812
1573891053.945,-20.020,44.434,-1000.000,-93.262,-800.781
1573891053.949,91.797,49.316,342.773,123.535,169.922
1573891053.953,117.188,45.410,-820.312,174.805,916.016
1573891053.957,14.648,37.598,-67.383,-27.832,-92.285
1573891053.961,-28.809,29.785,-1000.000,-120.605,-833.496
1573891053.965,63.477,31.250,-142.090,64.941,-148.438
1573891053.968,126.465,44.434,-775.391,197.266,949.707
1573891053.972,53.223,49.316,248.047,43.945,326.172
1573891053.976,-27.344,44.922,-1000.000,-116.211,-704.102
1573891053.980,31.738,43.945,-334.961,3.418,-442.871
1573891053.984,118.164,39.062,-831.543,182.129,739.258
1573891053.988,79.102,29.785,528.809,92.773,611.328
1573891053.992,-18.555,27.344,-1000.000,-109.375,-532.715
1573891053.996,-4.883,37.598,-666.992,-60.547,-703.125
1573891054.000,100.586,42.480,870.605,153.320,422.852
1573891054.004,100.098,37.598,945.312,151.855,790.039
1573891054.008,1.465,36.621,-519.043,-64.453,-334.961
1573891054.011,-12.207,38.086,-1000.000,-100.586,-839.844
1573891054.015,89.355,43.945,265.137,113.281,83.984
1573891054.019,119.629,45.898,-793.457,189.453,946.777
1573891054.023,26.855,41.992,11.719,-4.395,31.738
1573891054.027,-25.391,38.086,-1000.000,-116.699,-803.711
1573891054.031,49.316,35.645,-154.785,48.340,-254.883
1573891054.035,117.188,35.645,-772.949,186.035,886.230
1573891054.039,54.688,35.645,295.898,57.129,405.762
1573891054.043,-28.809,25.879,-1000.000,-112.793,-697.754
1573891054.047,13.184,21.973,-404.785,-15.625,-532.227
1573891054.051,106.934,34.180,-875.977,173.340,677.734
1573891054.054,66.895,40.527,622.070,97.168,621.582
1573891054.058,-30.273,38.574,-939.453,-105.957,-546.875
1573891054.062,-9.277,39.551,-779.297,-68.359,-741.699
1573891054.066,86.426,42.969,741.211,136.230,359.375
1573891054.070,92.773,46.875,-960.449,140.137,828.613
1573891054.074,-13.672,45.410,-362.305,-71.289,-244.141
1573891054.078,-41.504,43.945,-1000.000,-122.559,-820.801
1573891054.082,45.898,44.434,141.602,70.312,16.113
1573891054.086,83.984,51.758,-765.625,156.738,972.656
1573891054.090,1.465,55.664,135.742,-18.555,108.887
1573891054.093,-74.219,41.504,-1000.000,-154.297,-833.984
1573891054.097,-13.184,37.598,-227.051,-17.090,-366.211
1573891054.101,63.477,48.340,-784.668,133.301,841.309
1573891054.105,2.930,50.781,333.984,9.277,475.098
1573891054.109,-87.402,50.781,-1000.000,-171.875,-680.176
1573891054.113,-49.805,55.176,-467.285,-79.590,-592.773
1573891054.117,33.203,57.129,-925.293,107.910,604.492
1573891054.121,-1.953,56.641,697.266,41.992,698.242
1573891054.125,-104.492,61.035,-834.961,-167.480,-426.270
1573891054.129,-100.098,67.383,-933.105,-158.203,-768.066
1573891054.133,-8.301,70.801,543.457,38.086,273.926
1573891054.136,-2.930,66.406,-913.574,53.711,870.117
1573891054.140,-102.539,64.453,-300.293,-152.344,-175.781
1573891054.144,-135.254,68.848,-1000.000,-222.656,-858.887
1573891054.148,-45.410,69.336,-3.906,-34.180,-119.141
1573891054.152,11.719,78.125,-770.508,76.172,979.004
1573891054.156,-60.547,79.590,184.570,-83.496,187.988
1573891054.160,-127.930,58.594,-1000.000,-220.215,-805.176
1573891054.164,-56.152,62.500,-271.973,-80.078,-381.836
1573891054.168,39.551,75.195,-797.363,99.121,785.645
1573891054.172,-8.789,64.453,392.090,3.906,564.453
1573891054.176,-94.727,58.594,-1000.000,-175.293,-583.984
1573891054.179,-51.758,56.641,-535.156,-92.773,-663.574
1573891054.183,50.293,57.129,-969.238,117.676,526.367
1573891054.187,46.387,56.152,714.844,97.168,736.328
1573891054.191,-50.293,46.875,-820.312,-109.863,-400.879
1573891054.195,-48.340,46.875,-955.078,-111.328,-811.035
1573891054.199,62.012,48.828,452.148,109.375,191.406
1573891054.203,91.309,38.574,-818.359,163.086,906.738
1573891054.207,1.465,26.367,-57.129,-33.691,-86.914
1573891054.211,-32.227,23.438,-1000.000,-112.793,-839.355
1573891054.215,62.500,31.250,-71.777,80.078,-204.590
1573891054.218,124.023,31.250,-761.719,207.520,942.383
1573891054.222,53.223,24.414,234.375,52.246,290.039
1573891054.226,-14.160,25.391,-1000.000,-100.586,-752.930
1573891054.230,51.270,23.438,-289.551,29.785,-419.922
1573891054.234,143.555,20.020,-814.453,211.426,744.629
1573891054.238,108.887,29.297,528.809,123.535,576.172
1573891054.242,11.230,26.367,-1000.000,-71.777,-562.012
1573891054.246,31.738,19.043,-671.387,-15.137,-667.480
1573891054.250,132.812,20.508,861.328,193.848,467.773
1573891054.254,135.254,15.137,950.195,183.105,791.504
1573891054.258,36.621,11.719,-480.957,-27.832,-318.359
1573891054.261,20.996,13.672,-1000.000,-57.617,-833.984
1573891054.265,124.023,13.672,150.391,147.461,78.613
1573891054.269,168.457,22.949,-784.180,224.609,950.684
1573891054.273,81.055,30.273,69.824,30.273,34.180
1573891054.277,22.461,23.438,-1000.000,-83.496,-814.941
1573891054.281,101.074,19.531,-157.715,91.797,-243.652
1573891054.285,171.387,25.391,-766.602,236.816,910.645
1573891054.289,107.422,28.320,300.781,103.027,381.348
1573891054.293,21.973,22.949,-1000.000,-62.012,-722.168
1573891054.297,65.430,18.066,-334.961,42.969,-518.066
1573891054.301,153.809,16.602,-839.844,232.910,686.035
1573891054.304,120.605,19.531,615.723,162.109,646.484
1573891054.308,18.066,20.020,-936.523,-50.293,-487.793
1573891054.312,31.250,20.996,-744.141,-19.043,-716.309
1573891054.316,129.395,22.461,797.363,190.430,370.605
1573891054.320,139.160,24.414,-992.188,199.707,836.914
1573891054.324,33.691,21.973,-411.621,-14.648,-246.582
1573891054.328,0.977,20.996,-1000.000,-71.289,-873.047
1573891054.332,104.004,27.832,119.141,133.789,-17.578
1573891054.336,149.414,31.250,-790.039,222.656,936.523
1573891054.340,56.641,25.879,60.059,34.180,74.707
1573891054.343,-5.859,15.137,-1000.000,-89.844,-868.164
1573891054.347,72.754,13.672,-171.387,71.289,-374.023
1573891054.351,153.809,16.602,-773.438,227.051,866.699
1573891054.355,99.121,20.508,307.129,102.539,422.363
1573891054.359,1.953,22.461,-1000.000,-81.543,-709.473
1573891054.363,39.062,23.438,-408.691,7.812,-585.449
1573891054.367,136.719,28.320,-892.578,200.684,615.234
1573891054.371,115.723,31.738,705.566,148.926,675.781
1573891054.375,13.672,28.320,-838.379,-55.664,-459.473
1573891054.379,6.836,20.020,-875.488,-48.828,-730.469
1573891054.383,107.422,23.438,630.859,162.109,293.457
1573891054.386,120.117,24.902,-917.969,183.594,862.793
1573891054.390,15.137,23.438,-280.762,-26.855,-183.594
1573891054.394,-14.160,26.855,-1000.000,-88.379,-846.680
1573891054.398,86.426,23.438,-6.348,111.328,-67.383
1573891054.402,142.578,26.855,-766.602,216.797,979.492
1573891054.406,64.453,32.715,192.871,46.387,222.656
1573891054.410,-9.277,26.855,-1000.000,-94.727,-823.242
1573891054.414,47.363,24.414,-235.840,41.016,-424.316
1573891054.418,126.953,24.414,-783.691,209.473,835.938
1573891054.422,73.242,24.414,374.023,95.703,509.766
1573891054.426,-22.949,24.902,-1000.000,-98.633,-615.234
1573891054.429,17.578,30.762,-635.742,-20.020,-619.141
1573891054.433,120.605,38.574,896.973,181.152,516.602
1573891054.437,108.887,37.109,859.375,154.297,737.305
1573891054.441,2.930,24.902,-680.664,-58.105,-387.207
1573891054.445,-7.324,22.949,-987.305,-74.219,-784.668
1573891054.449,96.680,25.879,444.336,142.090,208.984
1573891054.453,125.488,23.926,-827.148,195.801,919.434
1573891054.457,30.762,26.367,-79.590,-10.254,-64.941
1573891054.461,-13.672,28.809,-1000.000,-103.516,-792.969
1573891054.465,76.660,30.762,-73.242,80.566,-140.625
1573891054.468,142.090,39.062,-761.230,209.961,938.477
1573891054.472,67.871,35.645,222.656,49.805,298.340
1573891054.476,-13.184,22.461,-1000.000,-110.352,-719.238
1573891054.480,50.293,18.066,-263.672,21.484,-426.270
1573891054.484,138.184,26.367,-803.223,199.707,757.812
1573891054.488,88.867,29.297,506.348,104.004,558.105
1573891054.492,-4.883,29.297,-1000.000,-95.215,-590.332
1573891054.496,25.391,29.785,-578.613,-35.156,-662.109
1573891054.500,121.094,27.832,944.336,170.410,474.121
1573891054.504,111.328,27.344,965.820,147.461,760.254
1573891054.508,4.395,25.391,-479.004,-70.312,-329.102
1573891054.511,-16.602,25.391,-1000.000,-95.703,-789.551
1573891054.515,80.078,28.320,340.820,112.793,112.305
1573891054.519,108.398,21.484,-782.715,176.270,933.594
1573891054.523,7.812,12.207,40.527,-20.996,-52.734
1573891054.527,-44.922,18.066,-1000.000,-127.930,-902.344
1573891054.531,39.551,26.367,-118.652,44.434,-278.809
1573891054.535,107.422,27.344,-762.207,180.176,884.766
1573891054.539,39.551,26.855,297.852,43.457,340.332
1573891054.543,-44.434,25.879,-1000.000,-123.535,-719.238
1573891054.547,5.859,23.926,-377.930,-15.625,-531.250
1573891054.551,100.586,28.809,-860.840,175.293,665.039
1573891054.554,71.289,28.809,621.094,105.469,651.367
1573891054.558,-25.879,23.438,-935.059,-95.703,-519.531
1573891054.562,-20.508,20.996,-769.043,-66.406,-724.609
1573891054.566,79.102,19.531,755.859,137.695,386.230
1573891054.570,95.703,23.438,-962.891,152.832,826.660
1573891054.574,-0.977,23.438,-349.609,-55.176,-238.281
1573891054.578,-21.484,22.461,-1000.000,-104.492,-813.965
1573891054.582,79.590,36.133,70.312,101.562,18.555
1573891054.586,122.070,45.898,-770.020,190.430,945.312
1573891054.590,35.156,35.645,120.605,6.348,83.496
1573891054.593,-28.320,29.785,-1000.000,-115.234,-780.762
1573891054.597,44.434,32.227,-171.875,47.363,-264.648
1573891054.601,122.559,33.691,-769.043,204.590,896.484
1573891054.605,65.430,36.621,315.430,82.031,416.992
1573891054.609,-20.996,30.762,-1000.000,-95.703,-703.613
1573891054.613,23.438,27.832,-439.453,-0.488,-545.410
1573891054.617,118.652,27.832,-895.508,198.730,624.512
1573891054.621,89.355,24.902,646.484,138.184,675.293
1573891054.625,-10.254,21.484,-908.203,-77.637,-453.613
1573891054.629,-4.883,25.879,-848.633,-60.547,-765.625
1573891054.633,88.379,33.203,670.410,151.855,294.434
1573891054.636,104.980,33.203,-975.586,175.293,850.098
1573891054.640,3.418,29.297,-401.367,-37.598,-188.965
1573891054.644,-36.133,21.484,-1000.000,-103.027,-815.918
1573891054.648,61.523,22.949,43.457,93.262,-51.270
1573891054.652,110.352,31.738,-772.461,188.477,945.312
1573891054.656,21.484,35.645,155.273,7.812,195.312
1573891054.660,-44.434,38.574,-1000.000,-126.465,-737.305
1573891054.664,29.785,44.434,-233.887,28.320,-378.906
1573891054.668,112.305,43.457,-785.156,194.824,819.336
1573891054.672,60.547,38.574,370.117,83.008,498.047
1573891054.676,-30.762,36.133,-1000.000,-103.027,-593.750
1573891054.679,2.930,36.133,-491.699,-24.414,-546.387
1573891054.683,101.562,41.016,-970.703,180.664,552.734
1573891054.687,91.797,44.922,822.266,145.996,744.141
1573891054.691,-9.277,35.645,-676.758,-68.848,-381.836
1573891054.695,-12.695,27.344,-1000.000,-75.195,-788.086
1573891054.699,92.773,39.062,418.945,134.766,225.586
1573891054.703,115.723,46.387,-848.145,174.805,895.508
1573891054.707,20.020,36.621,-128.906,-29.297,-55.176
1573891054.711,-22.949,37.109,-1000.000,-108.887,-804.199
1573891054.715,65.918,42.480,-107.422,70.312,-198.242
1573891054.718,128.418,40.527,-770.996,187.988,928.711
1573891054.722,49.805,41.504,233.887,35.156,238.770
1573891054.726,-26.367,40.039,-1000.000,-119.141,-811.035
1573891054.730,33.203,36.621,-287.598,10.742,-479.492
1573891054.734,112.305,33.691,-807.129,187.012,745.117
1573891054.738,64.453,25.879,483.398,89.844,556.152
1573891054.742,-28.320,24.414,-1000.000,-104.492,-553.223
1573891054.746,-0.977,34.180,-605.469,-37.109,-635.742
1573891054.750,102.539,39.551,933.105,175.781,462.402
1573891054.754,96.191,36.621,908.691,151.855,756.836
1573891054.758,-12.207,35.156,-585.938,-69.336,-392.578
1573891054.761,-27.832,32.715,-1000.000,-94.727,-834.961
1573891054.765,71.777,29.297,380.859,114.258,143.555
1573891054.769,107.422,30.273,-791.504,178.711,922.852
1573891054.773,15.625,25.391,-0.488,-20.508,24.902
1573891054.777,-37.109,21.973,-1000.000,-125.000,-782.227
1573891054.781,53.223,33.203,-117.676,57.617,-226.562
1573891054.785,121.094,44.434,-767.578,196.777,906.738
1573891054.789,42.969,44.434,257.812,44.922,339.355
1573891054.793,-36.621,34.668,-1000.000,-121.094,-719.238
1573891054.797,19.531,33.203,-357.422,-4.883,-523.926
1573891054.801,108.887,32.715,-849.121,179.199,697.754
1573891054.804,70.312,31.250,578.125,100.586,608.887
1573891054.808,-32.227,30.273,-981.445,-101.074,-542.480
1573891054.812,-15.625,30.273,-721.680,-64.941,-712.891
1573891054.816,88.867,26.855,808.105,147.461,390.625
1573891054.820,95.215,26.855,-985.840,149.902,817.871
1573891054.824,-12.207,36.621,-416.016,-66.406,-271.973
1573891054.828,-35.645,36.621,-1000.000,-105.469,-847.168
1573891054.832,62.988,34.180,218.262,103.516,38.086
1573891054.836,104.980,36.133,-766.602,183.105,958.496
1573891054.840,12.695,37.109,106.934,-9.277,68.848
1573891054.843,-46.387,36.621,-1000.000,-123.047,-812.500
1573891054.847,32.715,29.785,-197.266,41.992,-323.242
1573891054.851,108.887,25.391,-775.391,195.312,864.746
1573891054.855,59.570,31.250,333.496,80.566,448.730
1573891054.859,-33.691,37.598,-1000.000,-103.027,-665.039
1573891054.863,3.906,39.062,-408.691,-16.113,-536.133
1573891054.867,99.121,36.621,-887.207,175.781,632.812
1573891054.871,75.195,36.621,691.406,119.141,671.387
1573891054.875,-21.973,37.109,-858.398,-79.590,-447.754
1573891054.879,-15.625,36.621,-837.891,-60.059,-727.051
1573891054.883,89.844,38.574,682.617,152.344,327.637
1573891054.886,104.980,38.086,-927.246,175.781,862.305
1573891054.890,3.418,34.180,-310.059,-34.180,-206.543
1573891054.894,-24.414,36.133,-1000.000,-94.238,-835.938
1573891054.898,75.195,38.086,45.898,104.980,-41.504
1573891054.902,127.441,41.504,-769.043,202.148,952.148
1573891054.906,47.363,41.016,161.133,23.926,138.672
1573891054.910,-22.949,39.551,-1000.000,-114.258,-816.406
1573891054.914,43.457,40.527,-214.844,35.645,-359.375
1573891054.918,125.488,41.504,-778.320,199.707,832.031
1573891054.922,76.660,45.410,355.957,80.566,492.676
1573891054.926,-14.648,42.969,-1000.000,-105.957,-665.527
1573891054.929,20.508,39.551,-499.023,-26.855,-660.156
1573891054.933,121.582,46.387,-935.547,172.852,538.574
1573891054.937,99.121,44.434,669.922,122.070,715.820
1573891054.941,-10.254,30.762,-875.000,-96.680,-426.758
1573891054.945,-6.836,29.297,-914.062,-92.285,-768.066
1573891054.949,100.098,41.016,531.250,122.070,259.277
1573891054.953,117.676,46.875,-872.070,164.551,885.254
1573891054.957,14.160,39.551,-198.242,-37.598,-131.836
1573891054.961,-31.738,29.297,-1000.000,-115.723,-791.016
1573891054.965,56.641,36.133,-22.949,71.777,-84.473
1573891054.968,115.723,41.992,-764.160,194.824,955.078
1573891054.972,34.180,41.504,208.496,33.691,249.512
1573891054.976,-36.133,45.898,-1000.000,-118.164,-739.258
1573891054.980,30.273,41.504,-270.020,15.137,-397.461
1573891054.984,110.352,40.039,-796.387,192.383,780.762
1573891054.988,64.453,45.898,417.969,93.262,539.551
1573891054.992,-28.320,43.945,-1000.000,-110.840,-600.586
1573891054.996,3.418,38.574,-653.809,-46.875,-686.035
1573891055.000,103.516,41.992,866.699,160.156,461.426
1573891055.004,89.844,43.945,899.414,135.742,759.277
1573891055.008,-12.695,38.086,-597.168,-70.312,-331.055
1573891055.011,-23.438,38.086,-1000.000,-87.402,-771.973
1573891055.015,75.195,37.109,320.801,116.211,146.484
1573891055.019,106.934,29.785,-798.340,174.805,935.059
1573891055.023,13.184,23.926,-13.672,-20.020,-20.020
1573891055.027,-34.180,27.832,-1000.000,-112.793,-802.246
1573891055.031,55.664,37.109,-126.465,71.777,-193.848
1573891055.035,123.047,33.203,-766.602,202.637,921.875
1573891055.039,41.992,25.391,267.090,49.316,347.656
1573891055.043,-37.109,30.273,-1000.000,-115.723,-720.703
1573891055.047,24.414,40.039,-323.242,2.441,-497.559
1573891055.051,117.188,45.898,-829.590,194.336,708.496
1573891055.054,78.613,40.039,557.617,111.816,616.699
1573891055.058,-18.555,34.180,-995.605,-92.285,-524.414
1573891055.062,4.883,35.645,-693.848,-42.480,-685.059
1573891055.066,109.863,38.574,860.352,175.293,423.340
1573891055.070,109.863,40.527,951.172,171.875,809.082
1573891055.074,0.977,35.645,-510.742,-50.293,-305.176
1573891055.078,-23.926,32.715,-1000.000,-92.773,-861.328
1573891055.082,74.707,37.598,193.848,113.770,56.641
1573891055.086,120.605,38.086,-802.734,195.312,949.707
1573891055.090,30.762,34.668,4.395,-0.488,74.219
1573891055.093,-31.250,32.227,-1000.000,-116.211,-785.156
1573891055.097,47.363,36.133,-160.156,57.129,-285.156
1573891055.101,121.094,38.086,-773.926,203.125,898.438
1573891055.105,56.641,34.180,312.988,62.988,394.531
1573891055.109,-27.344,28.809,-1000.000,-112.793,-688.965
1573891055.113,20.508,32.227,-380.371,-7.324,-505.371
1573891055.117,113.281,39.062,-866.699,184.082,662.598
1573891055.121,84.961,31.738,650.879,117.188,648.926
1573891055.125,-15.625,26.367,-892.090,-92.285,-515.625
1573891055.129,-4.883,25.391,-818.848,-64.941,-743.164
1573891055.133,100.098,30.762,675.781,147.949,341.309
1573891055.136,112.305,38.086,-902.344,161.133,852.539
1573891055.140,10.254,33.691,-261.719,-47.363,-191.406
1573891055.144,-24.414,30.273,-1000.000,-107.422,-789.551
1573891055.148,70.312,29.785,82.520,91.309,-11.230
1573891055.152,119.629,32.715,-761.230,187.012,937.500
1573891055.156,35.156,31.250,174.316,6.348,142.578
1573891055.160,-29.785,30.762,-1000.000,-122.559,-773.438
1573891055.164,44.922,32.715,-232.422,26.855,-343.262
1573891055.168,125.000,31.738,-783.203,187.988,837.402
1573891055.172,71.289,35.156,376.953,75.684,510.254
1573891055.176,-20.996,32.715,-1000.000,-107.422,-594.238
1573891055.179,8.789,24.902,-520.508,-26.367,-593.262
1573891055.183,104.980,25.879,-983.887,169.922,570.801
1573891055.187,89.844,27.344,816.895,125.977,698.242
1573891055.191,-9.766,19.531,-750.488,-85.938,-461.914
1573891055.195,-14.648,15.625,-853.516,-83.008,-740.723
1573891055.199,87.891,26.855,640.137,133.789,291.992
1573891055.203,111.816,34.668,-856.934,173.828,858.887
1573891055.207,13.184,24.414,-131.348,-31.738,-147.949
1573891055.211,-23.926,22.949,-1000.000,-106.934,-812.988
1573891055.215,63.965,21.484,13.184,79.102,-100.586
1573891055.218,121.094,17.578,-756.836,194.824,949.219
1573891055.222,45.898,23.438,193.359,31.738,219.727
1573891055.226,-22.461,28.809,-1000.000,-111.816,-766.602
1573891055.230,42.969,34.668,-254.883,24.414,-429.688
1573891055.234,126.953,32.715,-789.062,192.383,771.973
1573891055.238,80.078,24.414,377.441,95.703,550.293
1573891055.242,-16.113,26.367,-1000.000,-94.238,-606.934
1573891055.246,10.254,32.715,-515.625,-31.250,-641.602
1573891055.250,110.352,38.574,-995.605,176.270,529.785
1573891055.254,95.215,41.504,867.676,144.043,727.051
1573891055.258,-17.090,30.762,-631.348,-79.102,-401.855
1573891055.261,-20.020,27.832,-1000.000,-81.543,-774.902
1573891055.265,78.613,29.785,404.297,131.836,174.316
1573891055.269,86.914,21.484,-801.758,166.016,927.246
1573891055.273,-14.648,20.020,-17.090,-41.016,-38.086
1573891055.277,-65.918,19.043,-1000.000,-131.836,-811.523
1573891055.281,20.508,18.066,-84.473,50.293,-174.316
1573891055.285,87.402,22.949,-762.207,174.316,886.719
1573891055.289,13.672,20.020,246.582,19.531,276.855
1573891055.293,-61.035,18.066,-1000.000,-135.742,-717.285
1573891055.297,0.977,26.367,-343.750,-10.254,-487.793
1573891055.301,91.797,32.227,-839.355,174.316,705.078
1573891055.304,58.105,29.785,542.969,91.797,598.633
1573891055.308,-40.039,23.926,-1000.000,-108.398,-575.684
1573891055.312,-19.531,27.832,-735.840,-59.082,-730.469
1573891055.316,87.402,35.645,799.316,156.738,411.133
1573891055.320,82.520,33.691,985.840,145.508,794.922
1573891055.324,-24.902,26.367,-451.172,-68.848,-269.043
1573891055.328,-34.180,27.832,-1000.000,-100.098,-824.707
1573891055.332,72.754,37.109,153.809,109.863,38.086
1573891055.336,112.793,42.480,-773.926,191.406,937.500
1573891055.340,20.996,38.574,70.312,-1.465,2.930
1573891055.343,-40.527,32.227,-1000.000,-116.211,-819.336
1573891055.347,44.434,37.109,-149.902,54.688,-240.723
1573891055.351,121.094,45.410,-767.578,198.730,898.926
1573891055.355,56.641,41.016,301.758,58.105,400.391
1573891055.359,-24.902,35.156,-1000.000,-112.793,-657.715
1573891055.363,25.391,35.156,-412.598,-1.953,-504.883
1573891055.367,111.816,35.156,-869.141,185.547,654.297
1573891055.371,80.078,30.762,586.914,111.328,610.840
1573891055.375,-17.578,26.855,-980.957,-95.215,-523.438
1573891055.379,-12.207,28.320,-762.207,-66.406,-708.984
1573891055.383,92.773,33.203,756.836,146.973,348.633
1573891055.386,100.586,32.227,-979.492,163.574,843.750
1573891055.390,1.953,29.785,-391.113,-40.039,-246.582
1573891055.394,-25.879,33.691,-1000.000,-95.215,-854.004
1573891055.398,72.266,40.039,143.555,107.910,20.508
1573891055.402,124.512,36.133,-770.020,203.125,954.590
1573891055.406,36.133,29.297,122.070,19.043,111.328
1573891055.410,-22.461,30.273,-1000.000,-108.398,-826.660
1573891055.414,49.316,34.668,-210.449,50.781,-373.535
1573891055.418,122.070,38.574,-778.320,208.008,855.957
1573891055.422,64.453,34.180,362.305,81.543,437.500
1573891055.426,-28.320,28.809,-1000.000,-100.586,-714.355
1573891055.429,17.578,29.297,-418.457,-12.207,-601.562
1573891055.433,117.188,23.438,-901.855,179.688,588.379
1573891055.437,92.285,22.461,747.070,125.977,692.871
1573891055.441,-12.207,28.809,-766.113,-83.496,-458.496
1573891055.445,-12.695,27.344,-922.852,-74.219,-795.410
1573891055.449,85.449,32.227,543.945,131.348,256.836
1573891055.453,104.004,38.574,-892.090,163.574,858.887
1573891055.457,5.859,36.621,-221.191,-38.574,-178.711
1573891055.461,-35.645,32.227,-1000.000,-116.211,-811.035
1573891055.465,54.199,33.203,-71.289,68.848,-82.520
1573891055.468,113.281,34.180,-772.949,179.199,929.199
1573891055.472,30.762,28.809,209.961,11.230,229.980
1573891055.476,-41.504,25.391,-1000.000,-131.836,-728.516
1573891055.480,26.855,26.855,-276.855,13.184,-397.949
1573891055.484,103.516,22.949,-800.293,183.594,797.363
1573891055.488,53.223,19.531,449.219,78.125,537.109
1573891055.492,-36.133,27.344,-1000.000,-111.328,-600.586
1573891055.496,-4.395,30.273,-532.715,-41.504,-609.375
1573891055.500,95.703,30.273,-986.328,162.598,528.809
1573891055.504,84.473,36.133,822.754,131.348,727.051
1573891055.508,-17.090,35.645,-686.035,-81.055,-418.457
1573891055.511,-20.020,34.668,-979.980,-85.938,-805.176
1573891055.515,82.031,39.551,451.660,131.836,192.871
1573891055.519,108.887,39.551,-828.125,183.105,900.879
1573891055.523,19.531,39.062,-94.238,-14.648,-75.684
1573891055.527,-28.320,33.203,-1000.000,-103.027,-819.336
1573891055.531,57.617,26.855,-63.965,80.078,-178.223
1573891055.535,122.559,38.574,-766.602,205.078,925.781
1573891055.539,45.898,40.039,202.148,41.504,314.941
1573891055.543,-29.785,35.156,-1000.000,-117.676,-685.059
1573891055.547,28.809,41.504,-318.848,8.301,-459.473
1573891055.551,122.070,44.922,-817.383,193.848,711.914
1573891055.554,85.449,43.457,421.875,106.445,586.426
1573891055.558,-13.184,39.551,-1000.000,-93.262,-544.922
1573891055.562,7.812,35.156,-620.117,-35.156,-678.223
1573891055.566,111.328,36.621,892.578,176.270,424.316
1573891055.570,111.328,35.645,941.895,162.598,790.039
1573891055.574,1.953,29.297,-522.461,-54.199,-313.965
1573891055.578,-25.879,22.949,-1000.000,-84.473,-780.762
1573891055.582,74.219,21.973,295.410,124.023,124.512
1573891055.586,121.582,27.832,-780.273,202.637,930.176
1573891055.590,28.320,29.785,62.988,11.230,45.410
1573891055.593,-41.504,28.809,-1000.000,-111.328,-758.301
1573891055.597,40.039,30.273,-164.551,58.594,-221.680
1573891055.601,109.863,38.086,-769.043,200.684,881.836
1573891055.605,41.504,36.621,306.641,58.594,408.691
1573891055.609,-34.668,29.785,-1000.000,-110.352,-662.598
1573891055.613,21.484,28.320,-370.605,1.953,-501.953
1573891055.617,108.398,33.203,-855.957,189.453,684.570
1573891055.621,67.383,35.156,624.512,111.328,639.160
1573891055.625,-30.273,31.250,-926.270,-97.656,-515.625
1573891055.629,-11.719,31.250,-786.621,-62.988,-770.020
1573891055.633,91.797,28.809,740.234,153.320,340.820
1573891055.636,96.191,25.391,-959.961,158.691,829.590
1573891055.640,-9.766,25.391,-378.418,-57.129,-225.098
1573891055.644,-41.504,26.855,-1000.000,-114.746,-792.480
1573891055.648,53.711,34.668,121.094,84.961,12.207
1573891055.652,104.980,41.504,-766.113,180.664,944.824
1573891055.656,21.973,33.691,122.070,0.488,78.613
1573891055.660,-38.086,25.391,-1000.000,-126.953,-837.402
1573891055.664,38.574,31.250,-183.594,31.738,-333.984
1573891055.668,119.629,38.086,-770.508,190.918,869.629
1573891055.672,64.453,33.691,323.730,67.871,435.059
1573891055.676,-21.484,30.762,-1000.000,-114.258,-674.316
1573891055.679,21.484,32.227,-414.062,-21.484,-560.059
1573891055.683,123.535,34.668,-869.629,181.152,608.887
1573891055.687,96.191,38.086,583.008,119.629,683.594
1573891055.691,-12.207,34.180,-946.777,-96.191,-468.262
1573891055.695,-6.836,29.785,-863.281,-73.242,-772.461
1573891055.699,95.215,33.203,615.234,142.578,306.641
1573891055.703,114.746,36.621,-931.641,167.969,854.004
1573891055.707,14.648,32.227,-310.547,-43.945,-255.371
1573891055.711,-27.344,30.273,-1000.000,-110.352,-867.188
1573891055.715,64.453,38.574,40.527,86.914,-50.781
1573891055.718,114.258,42.969,-765.137,191.895,940.918
1573891055.722,27.344,28.320,175.781,20.020,177.246
1573891055.726,-40.527,20.996,-1000.000,-121.094,-751.953
1573891055.730,24.902,33.203,-243.164,18.066,-387.695
1573891055.734,104.980,35.645,-788.086,183.594,801.270
1573891055.738,53.223,33.691,387.695,71.289,523.438
1573891055.742,-38.086,28.809,-1000.000,-124.023,-590.332
1573891055.746,4.883,29.785,-593.750,-43.457,-579.102
1573891055.750,107.422,40.527,943.359,163.086,536.133
1573891055.754,89.844,37.109,835.938,126.465,721.191
1573891055.758,-12.207,31.250,-682.617,-83.008,-388.184
1573891055.761,-15.137,36.621,-1000.000,-86.914,-744.141
1573891055.765,87.402,41.992,391.113,124.023,233.887
1573891055.769,108.887,37.598,-815.918,166.992,901.855
1573891055.773,9.277,28.809,-62.500,-35.156,-67.383
1573891055.777,-36.133,24.414,-1000.000,-121.582,-781.250
1573891055.781,48.828,28.809,-101.562,63.477,-139.160
1573891055.785,112.793,37.109,-764.160,189.453,927.246
1573891055.789,47.852,38.086,244.141,35.156,294.434
1573891055.793,-26.855,27.832,-1000.000,-122.559,-709.961
1573891055.797,26.367,21.973,-283.691,1.953,-412.598
1573891055.801,116.699,27.832,-811.035,185.059,759.766
1573891055.804,77.148,30.762,534.180,93.262,582.031
1573891055.808,-25.391,29.297,-1000.000,-106.934,-550.293
1573891055.812,-2.441,29.785,-585.449,-51.758,-643.555
1573891055.816,99.121,32.227,965.820,155.273,483.398
1573891055.820,94.727,21.484,925.781,138.672,765.137
1573891055.824,-10.742,12.207,-548.340,-76.660,-332.520
1573891055.828,-30.273,21.973,-1000.000,-105.957,-826.660
1573891055.832,72.754,36.133,323.730,107.910,47.363
1573891055.836,106.934,41.016,-802.734,177.734,921.387
1573891055.840,13.672,36.621,-20.508,-27.832,40.527
1573891055.843,-36.133,33.203,-1000.000,-130.859,-821.289
1573891055.847,46.387,27.344,-103.516,45.898,-261.230
1573891055.851,115.234,33.691,-761.719,180.176,911.621
1573891055.855,48.340,35.645,312.012,36.621,364.746
1573891055.859,-37.598,19.531,-1000.000,-131.348,-689.453
1573891055.863,14.648,18.066,-328.613,-20.996,-485.840
1573891055.867,109.375,31.250,-829.102,166.992,691.895
1573891055.871,70.801,32.715,583.984,92.773,610.352
1573891055.875,-27.344,24.902,-966.797,-107.422,-527.344
1573891055.879,-7.324,23.926,-714.844,-68.359,-675.293
1573891055.883,98.145,28.320,802.246,145.996,392.578
1573891055.886,103.516,29.785,-954.102,147.949,816.895
1573891055.890,-4.395,27.832,-347.656,-68.848,-214.844
1573891055.894,-35.645,21.973,-1000.000,-112.793,-768.066
1573891055.898,58.594,27.344,189.453,93.750,41.504
1573891055.902,104.004,31.250,-768.066,180.176,946.289
1573891055.906,18.066,27.344,117.188,-1.465,72.754
1573891055.910,-42.480,26.855,-1000.000,-125.000,-798.340
1573891055.914,31.250,28.320,-198.730,26.855,-291.992
1573891055.918,99.121,27.344,-775.879,175.781,853.516
1573891055.922,37.109,23.438,312.988,48.340,395.996
1573891055.926,-47.363,23.438,-1000.000,-128.906,-685.059
1573891055.929,-2.441,24.414,-496.582,-37.598,-580.566
1573891055.933,91.309,27.832,-961.914,156.738,583.984
1573891055.937,62.988,27.832,732.422,105.957,696.777
1573891055.941,-37.598,26.367,-836.426,-100.098,-431.641
1573891055.945,-37.598,20.996,-847.168,-94.238,-734.863
1573891055.949,64.941,21.973,655.273,119.629,309.082
1573891055.953,83.984,26.855,-891.113,147.949,870.605
1573891055.957,-17.578,24.902,-235.352,-63.477,-168.945
1573891055.961,-51.270,27.344,-1000.000,-126.953,-768.555
1573891055.965,44.434,30.762,51.758,69.824,6.348
1573891055.968,98.145,34.180,-766.113,178.223,951.660
1573891055.972,28.809,33.203,149.414,12.695,178.223
1573891055.976,-40.039,25.391,-1000.000,-122.559,-785.156
1573891055.980,17.090,20.996,-228.027,20.996,-395.508
1573891055.984,111.328,27.832,-784.180,194.824,814.453
1573891055.988,69.336,26.367,373.535,90.820,520.996
1573891055.992,-20.508,19.531,-1000.000,-95.215,-604.492
1573891055.996,12.695,22.461,-511.719,-13.672,-625.000
1573891056.000,113.281,22.461,-969.238,196.777,541.504
1573891056.004,112.305,20.508,757.324,166.016,705.078
1573891056.008,13.184,21.973,-757.324,-48.340,-457.031
1573891056.011,15.137,28.809,-993.164,-44.434,-794.434
1573891056.015,125.488,35.645,417.480,175.293,215.332
1573891056.019,148.926,35.156,-874.023,214.844,892.090
1573891056.023,58.105,30.273,-164.062,12.207,-88.379
1573891056.027,16.602,25.879,-1000.000,-69.824,-870.605
1573891056.031,99.609,32.715,-91.309,114.258,-197.266
1573891056.035,157.715,40.039,-770.996,231.934,936.523
1573891056.039,79.590,36.133,219.727,73.730,298.340
1573891056.043,4.395,32.715,-1000.000,-76.660,-735.352
1573891056.047,65.430,35.156,-304.688,57.129,-443.359
1573891056.051,152.344,35.156,-813.477,234.863,774.414
1573891056.054,114.746,36.133,444.336,140.137,522.461
1573891056.058,20.996,39.062,-1000.000,-56.641,-638.184
1573891056.062,40.039,37.598,-739.258,-2.930,-679.688
1573891056.066,133.789,39.062,786.621,199.707,461.914
1573891056.070,124.512,41.504,919.434,180.176,756.348
1573891056.074,16.113,32.715,-597.168,-39.062,-372.559
1573891056.078,2.441,25.879,-1000.000,-67.871,-802.734
1573891056.082,105.957,33.203,333.008,141.113,156.738
1573891056.086,139.160,39.551,-802.246,208.008,929.199
1573891056.090,44.922,37.598,-24.902,9.766,-11.719
1573891056.093,-15.137,26.367,-1000.000,-105.957,-805.664
1573891056.097,68.359,22.949,-120.605,67.383,-208.496
1573891056.101,135.742,28.320,-768.066,203.125,927.246
1573891056.105,57.129,30.762,267.090,54.199,335.938
1573891056.109,-26.855,28.320,-1000.000,-111.816,-750.488
1573891056.113,28.320,31.250,-362.793,2.930,-557.617
1573891056.117,121.582,38.086,-840.332,188.965,672.852
1573891056.121,86.426,37.109,527.344,107.910,620.117
1573891056.125,-9.766,31.738,-1000.000,-98.633,-578.613
1573891056.129,1.953,31.250,-726.562,-60.059,-770.508
1573891056.133,103.516,32.715,818.359,158.691,385.254
1573891056.136,112.793,31.738,937.500,165.527,814.941
1573891056.140,8.301,27.344,-523.926,-52.246,-291.504
1573891056.144,-17.578,21.973,-1000.000,-98.145,-881.348
1573891056.148,80.078,23.926,192.871,105.957,5.371
1573891056.152,118.164,28.320,-780.273,183.105,949.707
1573891056.156,27.344,25.391,66.406,-3.418,81.543
1573891056.160,-36.621,21.484,-1000.000,-123.535,-805.664
1573891056.164,36.133,30.273,-180.176,39.551,-312.500
1573891056.168,113.281,36.133,-774.414,189.453,877.930
1573891056.172,45.898,31.738,291.992,51.758,417.480
1573891056.176,-44.922,26.367,-1000.000,-124.512,-672.363
1573891056.179,4.395,25.879,-393.555,-22.949,-564.453
1573891056.183,97.656,30.762,-877.441,173.340,622.070
1573891056.187,68.359,28.809,665.527,111.328,660.645
1573891056.191,-32.715,23.438,-876.953,-102.051,-451.172
1573891056.195,-22.949,24.902,-840.820,-83.008,-688.477
1573891056.199,83.496,26.855,653.809,136.230,322.266
1573891056.203,96.680,23.438,-926.758,158.691,866.699
1573891056.207,-4.395,21.484,-282.715,-55.664,-151.855
1573891056.211,-35.645,21.973,-1000.000,-122.559,-809.570
1573891056.215,56.641,23.438,-29.785,70.312,-59.570
1573891056.218,104.980,26.367,-772.949,170.898,935.059
1573891056.222,24.902,25.879,168.457,-8.301,166.504
1573891056.226,-38.574,19.043,-1000.000,-141.113,-772.949
1573891056.230,30.273,20.996,-218.750,12.695,-369.141
1573891056.234,105.957,25.879,-780.762,173.828,830.078
1573891056.238,50.293,22.949,382.324,58.594,458.984
1573891056.242,-39.551,25.391,-1000.000,-128.418,-680.176
1573891056.246,-0.488,30.273,-484.375,-41.016,-609.375
1573891056.250,94.238,25.879,-940.918,164.062,561.523
1573891056.254,67.383,18.555,744.141,113.770,710.449
1573891056.258,-37.598,14.648,-784.668,-105.957,-424.805
1573891056.261,-40.527,14.648,-927.246,-106.445,-740.723
1573891056.265,58.594,22.461,531.738,109.375,279.785
1573891056.269,78.125,23.438,-854.980,154.297,882.812
1573891056.273,-21.973,15.137,-166.992,-46.875,-120.605
1573891056.277,-59.082,10.742,-1000.000,-118.652,-838.379
1573891056.281,38.574,18.066,-22.461,78.125,-125.977
1573891056.285,98.633,24.902,-770.020,192.871,955.078
1573891056.289,12.207,23.926,172.852,16.602,214.844
1573891056.293,-62.988,18.555,-1000.000,-136.230,-792.969
1573891056.297,9.277,21.484,-293.457,6.348,-456.543
1573891056.301,102.051,25.879,-808.105,187.988,762.207
1573891056.304,63.965,24.902,382.812,87.402,509.766
1573891056.308,-28.809,21.973,-1000.000,-112.305,-604.980
1573891056.312,3.418,25.391,-557.617,-43.945,-594.727
1573891056.316,107.910,33.691,956.543,166.016,506.348
1573891056.320,95.215,32.715,904.297,140.137,763.184
1573891056.324,-11.719,21.484,-584.961,-76.660,-359.863
1573891056.328,-23.438,19.043,-1000.000,-94.727,-831.543
1573891056.332,80.078,22.461,371.582,113.770,122.559
1573891056.336,115.723,21.973,-800.293,171.387,919.434
1573891056.340,20.020,26.855,-8.301,-31.250,-6.348
1573891056.343,-28.809,28.809,-1000.000,-134.766,-781.738
1573891056.347,50.781,29.297,-122.559,42.480,-202.637
1573891056.351,112.305,35.645,-767.090,172.852,918.945
1573891056.355,40.039,30.273,257.324,22.461,309.570
1573891056.359,-41.992,21.973,-1000.000,-139.160,-745.605
1573891056.363,14.160,28.809,-350.098,-17.578,-483.887
1573891056.367,104.980,32.227,-842.285,164.062,695.312
1573891056.371,71.289,35.645,562.988,86.426,616.211
1573891056.375,-28.320,32.715,-1000.000,-113.770,-520.020
1573891056.379,-21.484,23.438,-688.477,-76.660,-683.105
1573891056.383,80.078,20.996,852.539,138.672,421.875
1573891056.386,83.984,20.996,980.957,134.766,810.059
1573891056.390,-23.438,11.719,-453.613,-83.984,-278.809
1573891056.394,-45.898,7.324,-1000.000,-122.559,-814.941
1573891056.398,55.176,20.508,163.574,83.496,64.941
1573891056.402,93.262,28.320,-774.414,163.086,969.727
1573891056.406,-1.465,25.391,76.172,-27.344,9.766
1573891056.410,-60.547,20.508,-1000.000,-145.508,-881.348
1573891056.414,14.160,24.414,-159.668,20.020,-270.996
1573891056.418,88.379,27.832,-767.578,170.898,877.441
1573891056.422,30.273,22.949,300.293,36.133,406.738
1573891056.426,-55.176,17.090,-1000.000,-139.648,-632.812
1573891056.429,-8.789,14.648,-379.395,-41.016,-502.930
1573891056.433,89.844,20.996,-845.703,153.320,643.555
1573891056.437,65.918,22.461,536.621,90.820,642.578
1573891056.441,-38.086,17.578,-1000.000,-125.000,-527.832
1573891056.445,-24.902,19.531,-769.531,-95.215,-795.410
1573891056.449,85.938,22.949,719.727,125.488,324.219
1573891056.453,94.238,22.461,-935.547,137.207,844.727
1573891056.457,-11.230,15.137,-311.523,-75.684,-231.445
1573891056.461,-39.551,14.160,-1000.000,-130.371,-837.402
1573891056.465,53.223,18.066,100.098,71.777,-12.207
1573891056.468,98.145,18.066,-758.789,167.480,981.445
1573891056.472,9.766,18.555,157.715,-14.648,150.879
1573891056.476,-55.664,16.113,-1000.000,-143.555,-779.785
1573891056.480,15.137,11.230,-198.242,8.789,-336.426
1573891056.484,97.656,14.160,-774.414,168.945,839.844
1573891056.488,43.945,15.625,395.020,49.805,525.879
1573891056.492,-52.246,12.207,-1000.000,-136.230,-600.098
1573891056.496,-12.207,13.672,-436.523,-47.363,-550.781
1573891056.500,87.402,17.090,-921.875,152.832,599.121
1573891056.504,61.035,18.066,792.480,102.051,690.430
1573891056.508,-48.828,13.184,-719.238,-111.328,-430.176
1573891056.511,-48.828,11.719,-920.898,-101.562,-807.617
1573891056.515,51.270,16.113,546.875,106.445,222.656
1573891056.519,70.312,17.578,-825.195,137.207,874.023
1573891056.523,-26.367,14.648,-75.195,-66.895,-139.160
1573891056.527,-67.871,9.766,-1000.000,-140.625,-838.867
1573891056.531,21.484,8.789,-29.785,52.734,-146.973
1573891056.535,83.008,11.230,-756.836,165.039,937.500
1573891056.539,6.836,10.742,205.078,-6.348,226.562
1573891056.543,-65.918,8.301,-1000.000,-155.273,-774.414
1573891056.547,-0.977,9.766,-252.441,-16.602,-423.340
1573891056.551,81.055,9.766,-795.898,158.691,783.691
1573891056.554,36.621,6.836,481.934,55.176,543.457
1573891056.558,-43.945,8.789,-1000.000,-126.465,-623.047
1573891056.562,-18.066,9.277,-544.922,-57.129,-668.457
1573891056.566,66.406,9.277,998.047,134.766,486.328
1573891056.570,52.246,6.836,883.789,105.469,754.395
1573891056.574,-56.641,1.953,-617.188,-112.793,-348.633
1573891056.578,-67.383,-1.465,-1000.000,-127.930,-785.156
1573891056.582,33.691,1.953,438.965,83.008,185.059
1573891056.586,62.012,4.883,-839.355,143.066,915.039
1573891056.590,-36.621,0.488,-115.234,-58.594,-68.848
1573891056.593,-89.355,-2.441,-1000.000,-160.156,-860.352
1573891056.597,-8.789,-1.953,-111.328,21.484,-242.188
1573891056.601,58.594,-1.465,-770.508,156.738,910.645
1573891056.605,-4.395,2.441,261.230,6.836,303.711
1573891056.609,-83.984,1.465,-1000.000,-160.156,-720.703
1573891056.613,-28.320,4.395,-322.266,-38.574,-484.863
1573891056.617,64.453,10.742,-828.613,151.367,706.543
1573891056.621,28.320,9.277,555.664,69.336,613.770
1573891056.625,-69.824,4.395,-999.023,-131.836,-544.434
1573891056.629,-44.922,-2.441,-699.219,-81.055,-668.457
1573891056.633,67.871,1.465,844.238,132.324,439.453
1573891056.636,68.359,10.254,967.773,122.559,780.273
1573891056.640,-37.598,11.719,-479.980,-93.262,-304.688
1573891056.644,-55.664,13.672,-1000.000,-125.977,-836.914
1573891056.648,45.410,13.672,216.797,85.449,43.457
1573891056.652,89.355,13.672,-784.180,166.992,944.336
1573891056.656,1.465,14.160,69.336,-23.926,58.594
1573891056.660,-61.035,11.719,-1000.000,-143.555,-777.344
1573891056.664,11.719,13.672,-181.641,22.461,-239.746
1573891056.668,87.891,20.508,-775.879,173.340,894.043
1573891056.672,22.949,17.090,287.598,35.645,407.715
1573891056.676,-65.918,12.695,-1000.000,-138.184,-695.312
1573891056.679,-13.184,14.648,-473.633,-32.715,-605.469
1573891056.683,80.566,18.066,-927.734,160.156,618.164
1573891056.687,48.340,19.043,657.227,97.168,677.246
1573891056.691,-51.758,12.695,-921.875,-110.840,-536.621
1573891056.695,-41.016,14.648,-801.758,-85.449,-811.523
1573891056.699,56.641,20.020,706.543,126.953,329.590
1573891056.703,60.059,16.113,-932.129,136.719,843.750
1573891056.707,-40.527,12.207,-320.312,-73.730,-203.125
1573891056.711,-62.988,14.160,-1000.000,-123.047,-786.133
1573891056.715,34.180,16.113,120.605,77.637,16.602
1573891056.718,81.543,18.066,-768.066,166.992,960.449
1573891056.722,-2.441,14.160,119.629,-15.137,128.906
1573891056.726,-64.453,9.766,-1000.000,-141.602,-792.480
1573891056.730,6.348,11.230,-197.266,14.648,-343.262
1573891056.734,87.891,12.207,-775.391,176.270,855.957
1573891056.738,33.203,12.695,333.496,52.246,486.328
1573891056.742,-61.523,12.207,-1000.000,-139.648,-658.691
1573891056.746,-17.578,13.184,-438.965,-51.270,-618.652
1573891056.750,85.449,20.996,-916.992,152.832,576.172
1573891056.754,62.500,24.414,744.141,104.980,686.523
1573891056.758,-42.480,12.207,-785.156,-101.074,-458.008
1573891056.761,-39.551,8.301,-911.621,-90.332,-745.605
1573891056.765,70.801,19.531,556.152,121.094,273.438
1573891056.769,90.820,20.508,-879.395,152.832,877.441
1573891056.773,-16.602,5.859,-190.430,-59.082,-126.465
1573891056.777,-60.059,2.441,-1000.000,-133.301,-822.754
1573891056.781,31.738,12.207,-8.301,60.059,-104.492
1573891056.785,89.844,16.602,-760.742,170.410,943.359
1573891056.789,6.348,18.066,200.684,1.953,222.656
1573891056.793,-68.359,17.090,-1000.000,-141.113,-764.648
1573891056.797,2.441,20.020,-270.020,0.977,-433.594
1573891056.801,90.820,21.484,-798.340,168.945,775.391
1573891056.804,39.551,18.555,419.922,57.617,525.879
1573891056.808,-55.664,19.043,-1000.000,-133.789,-622.559
1573891056.812,-20.996,17.578,-660.645,-63.477,-634.766
1573891056.816,80.566,20.508,888.184,140.625,511.230
1573891056.820,67.871,30.273,847.168,112.305,745.605
1573891056.824,-37.598,17.578,-697.754,-100.098,-342.773
1573891056.828,-41.504,10.742,-991.699,-109.375,-759.766
1573891056.832,65.918,24.414,429.688,102.539,197.754
1573891056.836,90.332,25.879,-814.941,149.902,917.480
1573891056.840,-3.418,23.438,-50.781,-52.246,-54.688
1573891056.843,-48.828,24.902,-1000.000,-140.625,-827.148
1573891056.847,35.645,23.926,-100.098,37.598,-188.965
1573891056.851,104.492,25.879,-766.113,164.551,921.875
1573891056.855,29.785,20.508,243.164,13.672,291.992
1573891056.859,-57.129,8.789,-1000.000,-144.043,-756.348
1573891056.863,2.930,8.301,-337.891,-20.996,-508.789
1573891056.867,96.191,16.113,-828.613,158.203,707.031
1573891056.871,58.594,26.367,501.465,74.219,622.559
1573891056.875,-40.527,28.320,-1000.000,-125.488,-509.277
1573891056.879,-26.367,25.391,-665.039,-80.566,-687.012
1573891056.883,72.266,21.973,891.113,135.254,435.059
