timestamps,TP9,AF7,AF8,TP10,Right AUX
1573889573,24.902,10.742,-336.914,6.836,-59.57
1573889573,29.785,15.625,-109.863,21.484,-91.309
1573889573,37.598,18.555,354.004,38.574,97.168
1573889573,30.273,18.066,221.68,33.203,145.996
1573889573,14.648,19.531,-251.953,17.09,-33.691
1573889573,5.371,15.137,-258.789,16.113,-97.656
1573889573,14.16,17.578,69.336,34.668,48.34
1573889573,16.113,22.461,135.254,34.668,163.574
1573889573,2.93,14.16,-394.531,8.789,49.805
1573889573,-1.953,7.324,-605.957,2.441,-115.723
1573889573,12.695,10.254,191.895,27.344,9.277
1573889573,29.297,13.184,407.715,45.41,157.715
1573889573,21.484,16.602,-178.223,24.414,49.805
1573889573,7.812,14.16,-461.914,0.977,-125.488
1573889573,20.508,19.043,48.828,21.973,-62.012
1573889573,37.598,23.438,354.004,42.969,125.488
1573889573,26.855,18.066,-20.996,23.438,101.074
1573889573,11.719,21.973,-381.836,-0.488,-70.801
1573889573,11.719,24.902,-159.18,7.812,-71.777
1573889573,35.156,19.531,262.695,42.48,113.281
1573889573,46.387,12.695,-186.523,41.504,122.559
1573889573,18.066,14.648,-498.535,3.906,-40.527
1573889573,8.789,17.09,-34.18,2.441,-82.52
1573889573,22.949,21.484,291.504,25.391,40.527
1573889573,28.809,24.414,227.539,27.344,145.996
1573889573,16.602,18.066,-5.371,3.418,57.617
1573889573,5.859,17.09,-28.32,-6.836,-71.289
1573889573,15.137,18.066,214.355,12.695,5.371
1573889573,25.879,17.09,306.152,24.414,148.438
1573889573,17.578,29.297,-83.984,3.906,106.445
1573889573,0,30.762,-271.973,-14.16,-23.926
1573889573,8.789,15.137,-204.102,-0.488,-61.523
1573889573,23.926,10.742,-147.949,13.184,85.449
1573889573,18.066,9.277,4.883,7.324,126.953
1573889573,5.859,7.812,-174.316,-8.789,-33.203
1573889573,8.789,20.508,-92.773,0,-78.125
1573889573,30.762,33.691,309.57,29.297,74.707
1573889573,27.832,28.809,322.266,25.879,161.621
1573889573,6.348,31.25,-125.977,1.465,5.859
1573889573,4.395,35.156,-175.781,0.977,-100.586
1573889573,20.02,24.414,287.598,24.414,27.832
1573889573,28.32,18.066,235.84,32.715,144.043
1573889573,15.625,15.625,-352.051,11.23,36.133
1573889573,5.371,19.043,-639.16,-0.488,-106.445
1573889573,19.531,32.227,-64.941,22.949,-37.598
1573889573,38.086,36.133,431.152,42.48,124.023
1573889573,27.344,26.855,9.766,23.926,63.477
1573889573,10.254,15.625,-232.422,6.348,-85.938
1573889573,16.602,12.207,281.25,22.949,-34.18
1573889573,35.156,19.531,669.922,44.434,145.996
1573889573,30.273,22.461,291.016,33.203,131.348
1573889573,13.672,23.926,-105.469,8.789,-35.645
1573889573,12.695,27.344,197.754,11.719,-71.777
1573889573,29.297,26.855,401.855,33.203,52.734
1573889573,46.875,27.344,156.738,44.434,145.02
1573889573,29.785,26.367,-69.824,19.043,13.184
1573889573,-9.277,25.391,10.742,-17.578,-105.469
1573889573,-16.602,29.785,385.254,-15.625,20.996
1573889573,-12.695,34.668,284.668,-12.207,143.555
1573889573,-35.645,34.18,-60.059,-41.504,66.895
1573889573,-59.57,32.715,106.934,-62.012,-66.406
1573889573,-65.918,30.762,427.246,-56.641,-35.645
1573889573,-71.289,31.25,400.879,-53.711,123.047
1573889573,-84.473,40.039,120.605,-78.613,90.82
1573889573,-105.469,47.363,23.438,-105.469,-93.262
1573889573,-115.234,46.875,142.09,-104.98,-68.848
1573889573,-109.863,50.293,265.625,-97.168,95.703
1573889573,-115.234,53.223,251.465,-107.422,124.512
1573889573,-134.277,55.176,87.402,-128.418,-22.461
1573889573,-141.602,57.129,83.008,-129.395,-100.098
1573889573,-135.254,58.105,120.117,-121.094,22.949
1573889573,-137.207,63.477,99.609,-127.93,124.023
1573889573,-147.949,60.059,85.938,-148.438,53.711
1573889573,-155.762,53.711,-68.848,-155.273,-86.426
1573889573,-144.531,59.57,121.582,-136.719,-7.812
1573889573,-132.324,64.941,501.465,-125.977,170.41
1573889573,-146.484,62.012,192.383,-145.508,87.402
1573889573,-150.879,61.035,-192.871,-157.715,-88.379
1573889573,-132.324,62.988,27.344,-133.789,-30.762
1573889573,-117.676,62.5,398.926,-114.258,139.16
1573889573,-119.141,60.059,137.695,-123.047,89.355
1573889573,-129.883,62.012,-375.977,-140.625,-90.332
1573889573,-127.93,64.453,-111.328,-127.93,-72.754
1573889573,-112.305,63.477,501.465,-104.98,128.418
1573889573,-102.539,63.965,296.875,-108.887,161.133
1573889573,-114.746,61.035,-379.883,-127.441,-18.066
1573889573,-114.746,54.688,-222.656,-119.629,-72.266
1573889573,-99.609,50.781,394.043,-92.773,72.754
1573889573,-93.262,51.758,268.066,-89.844,165.039
1573889573,-97.168,49.805,-307.617,-111.328,65.43
1573889573,-107.91,50.781,-373.047,-119.629,-60.059
1573889573,-99.121,50.781,168.457,-95.215,12.207
1573889573,-80.566,45.898,194.824,-71.777,141.602
1573889573,-80.078,44.922,-325.195,-81.055,80.566
1573889573,-89.844,42.48,-391.113,-97.168,-84.473
1573889573,-86.426,41.016,58.594,-81.055,-54.199
1573889573,-78.613,37.109,176.758,-67.383,121.094
1573889573,-79.59,33.691,-439.453,-82.031,84.473
1573889573,-80.566,41.992,-585.938,-88.379,-101.562
1573889573,-77.637,45.41,-206.543,-76.172,-121.094
1573889573,-61.523,35.645,75.195,-59.57,61.035
1573889573,-52.246,34.668,-48.34,-53.711,150.879
1573889573,-56.641,34.18,-400.879,-66.406,-1.465
1573889573,-62.5,31.25,-249.512,-71.289,-113.281
1573889573,-53.711,36.133,173.34,-49.805,26.855
1573889573,-36.621,41.992,190.918,-37.598,137.695
1573889573,-42.969,36.133,-34.18,-50.781,49.805
1573889573,-49.805,21.484,-77.637,-54.199,-79.102
1573889573,-35.645,21.484,0,-36.621,-6.836
1573889573,-28.32,33.691,77.148,-29.785,135.742
1573889573,-44.434,33.691,-6.348,-51.758,69.824
1573889573,-54.199,32.715,-208.008,-65.918,-73.242
1573889573,-44.922,36.133,-13.672,-45.898,-47.852
1573889573,-41.992,31.738,237.793,-36.133,115.723
1573889573,-41.504,37.109,5.371,-42.48,126.953
1573889573,-37.109,37.598,-470.215,-42.969,-66.406
1573889573,-31.738,37.109,-483.887,-32.227,-113.281
1573889573,-28.32,45.898,179.199,-19.043,75.195
1573889573,-17.578,43.457,439.453,-18.555,178.223
1573889573,-24.902,39.062,-80.078,-34.18,10.742
1573889573,-41.992,37.109,-98.633,-42.48,-90.332
1573889573,-36.133,35.156,439.453,-28.809,33.203
1573889573,-25.879,37.109,490.234,-19.531,154.785
1573889573,-34.668,40.039,11.719,-39.551,59.082
1573889573,-47.852,41.992,-169.922,-55.664,-113.281
1573889573,-47.852,42.969,64.941,-40.527,-71.777
1573889573,-32.715,45.41,282.715,-26.855,117.188
1573889573,-28.32,45.41,-131.348,-38.086,95.703
1573889573,-41.016,34.18,-604.98,-56.152,-84.961
1573889573,-36.621,28.32,-80.566,-41.504,-82.52
1573889573,-13.184,34.18,403.32,-9.277,88.379
1573889573,-10.254,43.945,157.715,-14.16,115.723
1573889573,-26.367,38.086,-167.969,-41.016,-58.594
1573889573,-24.414,27.832,73.73,-28.809,-112.793
1573889573,-4.395,24.414,443.359,1.465,59.082
1573889573,8.789,29.785,246.094,7.324,137.695
1573889573,-0.977,37.109,-124.512,-11.719,-9.766
1573889573,0.488,39.551,-179.199,-7.812,-119.629
1573889573,20.996,33.691,58.105,23.438,-9.277
1573889573,24.414,25.879,17.09,24.902,145.02
1573889573,14.648,28.32,-199.219,6.836,58.105
1573889573,4.883,28.32,-83.008,0,-92.773
1573889573,12.207,21.973,233.887,15.625,-24.902
1573889573,31.25,27.344,269.043,32.715,108.887
1573889573,34.18,39.551,6.348,25.391,73.242
1573889573,10.254,30.762,-134.766,0,-66.406
1573889573,4.883,22.461,76.172,2.93,-65.918
1573889573,22.461,22.949,382.324,22.949,98.633
1573889573,27.344,22.949,307.129,18.066,168.457
1573889573,14.648,24.902,-174.805,-4.395,-2.441
1573889573,5.859,23.926,-472.168,-8.789,-125.488
1573889573,18.066,30.273,-191.895,14.16,-1.465
1573889573,24.902,35.156,202.637,20.996,149.902
1573889573,17.578,33.691,-80.078,10.254,19.043
1573889573,3.906,22.461,-268.555,2.441,-129.883
1573889573,8.789,9.766,185.059,18.066,-8.789
1573889573,30.273,11.719,432.129,41.504,155.273
1573889573,32.227,20.508,-18.555,30.273,69.824
1573889573,19.043,23.438,-391.602,8.789,-119.629
1573889573,31.25,26.367,12.695,28.809,-67.383
1573889573,53.711,31.738,489.746,56.152,151.855
1573889573,46.875,19.531,31.25,40.527,136.23
1573889573,35.156,15.137,-701.172,19.043,-62.012
1573889573,41.016,20.02,-367.676,26.855,-104.492
1573889573,51.758,17.578,336.426,47.363,81.543
1573889573,54.688,23.926,192.871,48.34,164.062
1573889573,41.992,32.715,-356.934,21.973,-11.23
1573889573,33.691,22.461,-208.008,20.508,-100.586
1573889573,43.457,10.254,319.824,50.293,37.598
1573889573,46.387,13.672,230.957,53.223,143.555
1573889573,26.855,13.184,-227.539,26.367,23.438
1573889573,10.254,10.254,-205.078,14.16,-100.098
1573889573,22.949,19.531,146.973,37.109,-3.906
1573889573,29.297,25.391,183.105,45.898,154.297
1573889573,12.207,18.066,-278.809,19.043,72.266
1573889573,4.395,13.672,-394.531,10.254,-81.055
1573889573,16.602,18.555,157.227,27.832,-24.902
1573889573,30.762,18.555,101.562,38.086,104.492
1573889573,20.508,12.695,-268.066,20.02,138.672
1573889573,-4.395,7.812,-230.469,-5.859,-7.812
1573889573,-10.254,8.301,-47.363,-2.441,-79.102
1573889573,9.277,16.113,229.004,24.414,76.172
1573889573,25.879,25.391,187.5,34.18,154.785
1573889573,8.789,20.02,-123.047,7.324,6.836
1573889573,-5.371,18.066,-147.949,-4.883,-100.586
1573889573,8.301,22.461,108.887,14.16,29.785
1573889573,19.531,23.926,94.238,17.578,162.598
1573889573,19.043,33.691,-227.539,-0.977,68.359
1573889573,15.625,37.109,-354.492,-7.812,-94.238
1573889573,26.367,32.715,-298.34,12.695,-53.711
1573889573,42.48,26.855,58.105,35.156,131.836
1573889573,35.156,26.855,85.449,19.043,108.398
1573889573,17.578,32.715,-296.875,-8.301,-76.66
1573889573,17.09,33.691,0.977,0.488,-45.41
1573889573,31.738,31.25,483.398,26.367,142.578
1573889573,34.18,26.367,309.082,20.02,177.734
1573889573,21.484,16.602,-188.965,5.371,-8.789
1573889573,31.25,12.207,-198.242,22.461,-75.195
1573889573,39.062,26.855,145.996,31.25,83.496
1573889573,25.391,32.715,141.602,12.695,159.18
1573889573,19.043,26.367,-427.246,-6.348,17.578
1573889573,20.02,33.691,-652.344,-1.953,-110.352
1573889573,31.738,37.109,131.348,27.832,20.508
1573889573,41.504,27.344,415.039,39.062,167.48
1573889573,30.273,16.602,-75.195,17.09,79.102
1573889573,15.625,20.02,-144.043,2.441,-47.363
1573889573,11.23,22.461,302.734,10.254,-13.672
1573889574,26.367,21.973,462.402,28.32,131.836
1573889574,32.715,23.438,55.176,25.879,82.031
1573889574,13.672,16.113,-396.973,5.859,-125.488
1573889574,1.465,15.137,-84.961,6.836,-101.074
1573889574,16.602,15.625,365.234,31.738,77.148
1573889574,27.832,12.207,-93.262,32.227,107.422
1573889574,8.301,16.113,-353.027,7.324,-43.945
1573889574,9.277,25.391,114.746,17.09,-108.398
1573889574,32.715,25.879,544.922,46.387,64.941
1573889574,36.133,17.578,439.453,44.434,166.504
1573889574,17.578,17.578,170.898,8.301,39.551
1573889574,14.16,24.902,204.59,3.418,-96.191
1573889574,18.555,21.484,571.777,28.809,18.066
1573889574,22.949,16.113,620.117,34.18,159.18
1573889574,22.461,16.113,173.828,17.578,74.707
1573889574,17.09,12.207,-12.207,14.16,-73.242
1573889574,20.996,9.277,70.312,23.438,-73.73
1573889574,35.156,12.695,159.668,33.691,92.773
1573889574,39.062,20.508,298.34,34.668,122.559
1573889574,20.508,24.414,212.891,12.207,-51.758
1573889574,14.16,20.02,387.207,11.719,-66.406
1573889574,26.855,20.508,842.285,31.738,118.164
1573889574,24.902,24.902,761.23,22.949,167.969
1573889574,11.719,18.555,147.461,2.93,-14.16
1573889574,6.836,12.207,107.422,5.371,-108.398
1573889574,14.648,16.602,679.688,23.926,50.293
1573889574,21.973,26.367,665.527,27.344,178.711
1573889574,6.836,22.949,64.453,2.93,67.871
1573889574,-4.395,16.602,-158.203,-11.719,-93.262
1573889574,11.23,19.531,401.367,11.23,-6.836
1573889574,20.508,14.648,780.762,28.809,182.129
1573889574,10.742,14.16,253.906,8.789,113.281
1573889574,-0.977,15.625,-333.984,-8.789,-66.895
1573889574,8.301,22.461,109.375,18.555,-62.5
1573889574,25.391,36.621,604.98,50.293,102.051
1573889574,16.113,39.062,307.129,33.691,143.066
1573889574,-5.859,21.973,-108.887,4.883,-52.734
1573889574,-0.488,13.672,45.41,14.16,-115.723
1573889574,21.484,16.113,310.547,37.109,70.801
1573889574,25.391,18.066,62.012,35.156,148.438
1573889574,20.508,22.949,-239.746,17.09,7.812
1573889574,21.484,21.484,-62.5,17.578,-104.98
1573889574,32.715,25.391,379.395,43.457,12.207
1573889574,40.527,30.762,78.125,40.527,120.605
1573889574,31.738,27.832,-442.871,7.812,33.691
1573889574,20.996,35.156,-160.645,5.371,-80.566
1573889574,20.508,31.25,288.574,28.809,0
1573889574,30.273,16.113,324.707,39.551,137.207
1573889574,21.973,17.09,-7.812,19.043,85.449
1573889574,8.301,23.926,-129.395,0.488,-44.434
1573889574,17.09,26.855,-40.039,19.531,-57.129
1573889574,27.344,25.879,-151.367,31.738,73.242
1573889574,24.902,25.879,-350.098,20.02,92.773
1573889574,5.371,21.973,-364.258,-0.488,-45.898
1573889574,5.371,20.996,-176.758,6.836,-87.891
1573889574,21.484,23.926,153.32,38.574,49.805
1573889574,21.973,23.438,204.102,36.621,148.926
1573889574,18.066,23.438,-132.324,15.137,21.973
1573889574,9.277,25.879,-240.234,11.719,-93.75
1573889574,10.742,24.902,127.441,27.344,27.832
1573889574,21.484,27.344,385.254,33.691,194.336
1573889574,17.578,34.18,8.301,17.09,85.938
1573889574,9.277,31.25,-441.406,8.301,-132.324
1573889574,11.719,31.738,-252.93,24.902,-73.242
1573889574,27.832,35.645,157.227,45.898,121.094
1573889574,32.715,28.32,22.949,41.016,111.816
1573889574,19.043,19.043,-402.832,17.578,-62.012
1573889574,23.438,22.949,-321.289,25.391,-110.84
1573889574,41.016,27.832,177.246,48.34,66.406
1573889574,40.527,32.715,154.785,40.527,133.301
1573889574,27.832,31.738,-507.324,14.16,-52.246
1573889574,24.902,23.926,-431.152,14.648,-131.348
1573889574,36.133,21.973,270.508,37.598,31.738
1573889574,41.016,24.414,233.398,39.062,134.766
1573889574,30.273,27.832,-317.383,18.066,0.977
1573889574,23.926,34.668,-376.953,10.254,-112.305
1573889574,28.32,30.762,240.234,23.438,12.695
1573889574,37.598,25.391,333.496,33.691,139.16
1573889574,29.785,28.809,-416.992,16.113,25.879
1573889574,4.395,22.949,-370.605,-8.301,-75.195
1573889574,7.324,20.508,346.191,7.324,14.16
1573889574,22.461,23.438,411.133,31.738,138.672
1573889574,8.789,15.625,42.48,11.719,112.305
1573889574,-5.371,8.301,-130.371,-10.742,-59.57
1573889574,3.906,12.207,121.094,9.766,-95.215
1573889574,17.09,19.043,423.828,32.715,75.684
1573889574,18.066,20.996,107.91,21.484,134.277
1573889574,11.719,24.902,-284.668,4.883,-11.719
1573889574,11.23,30.273,31.738,11.719,-85.449
1573889574,15.625,32.715,238.281,27.344,50.293
1573889574,22.949,25.391,72.754,25.391,157.715
1573889574,20.996,20.02,-5.859,10.254,58.594
1573889574,9.277,26.855,-5.371,0,-75.684
1573889574,24.414,37.598,130.371,23.926,-27.344
1573889574,38.574,33.203,278.809,43.945,131.348
1573889574,27.344,28.809,56.641,18.066,97.656
1573889574,23.438,28.809,-357.91,6.348,-88.379
1573889574,26.855,24.902,-121.094,22.461,-67.871
1573889574,32.227,22.949,300.781,34.668,142.09
1573889574,32.715,26.367,80.566,30.762,153.32
1573889574,23.926,33.691,-349.121,19.531,-28.809
1573889574,17.09,31.25,-390.625,23.926,-89.844
1573889574,23.438,27.832,124.023,40.039,64.453
1573889574,24.902,31.25,318.359,34.668,155.762
1573889574,11.23,30.762,-143.066,6.836,9.766
1573889574,3.418,23.438,-194.824,4.883,-111.328
1573889574,10.742,23.438,330.078,26.855,24.414
1573889574,20.02,24.902,421.387,36.133,164.551
1573889574,9.277,20.508,-144.043,13.672,38.086
1573889574,0,22.461,-234.375,-0.488,-75.195
1573889574,16.602,27.832,140.625,27.344,-2.441
1573889574,27.832,24.902,227.051,41.016,150.391
1573889574,17.578,20.508,-339.355,14.648,91.797
1573889574,5.859,23.438,-739.746,0,-109.863
1573889574,9.766,24.902,-60.059,20.02,-75.684
1573889574,17.578,21.484,413.086,35.645,111.328
1573889574,15.625,20.508,125,28.32,146.484
1573889574,11.23,25.391,-270.508,12.695,-49.805
1573889574,11.719,33.691,47.363,17.09,-69.336
1573889574,23.926,28.32,437.012,38.086,106.445
1573889574,29.785,20.02,253.906,37.109,174.805
1573889574,16.113,17.578,-170.41,12.695,31.25
1573889574,10.254,16.113,-261.719,6.836,-84.473
1573889574,27.832,21.973,43.945,30.762,30.762
1573889574,50.781,29.297,-146.484,44.922,140.625
1573889574,38.574,29.785,-401.855,24.902,47.363
1573889574,11.719,32.227,-138.672,7.812,-62.988
1573889574,19.531,28.809,206.055,30.273,7.324
1573889574,34.18,21.973,349.121,48.34,158.691
1573889574,29.297,22.461,109.863,31.738,118.652
1573889574,6.836,18.555,-141.602,9.277,-51.27
1573889574,1.465,18.066,15.137,8.789,-69.336
1573889574,18.555,15.137,273.438,28.809,88.379
1573889574,21.484,18.066,196.777,25.391,149.902
1573889574,5.859,30.273,-205.566,2.93,-0.977
1573889574,-2.93,26.367,-440.918,0.977,-94.727
1573889574,9.277,14.16,-125.977,24.902,48.828
1573889574,18.555,11.719,208.496,39.551,160.645
1573889574,7.324,15.625,-31.738,18.066,53.711
1573889574,1.953,20.02,-176.27,13.672,-63.477
1573889574,12.207,25.879,189.941,37.109,3.418
1573889574,21.973,31.738,375.977,46.387,128.906
1573889574,20.02,28.32,-58.105,33.691,54.688
1573889574,16.113,18.066,-291.992,28.32,-80.078
1573889574,29.785,18.066,97.168,48.828,-51.758
1573889574,34.18,26.855,407.227,57.129,109.863
1573889574,26.855,30.273,-48.828,35.645,97.656
1573889574,21.973,32.227,-491.211,16.113,-90.332
1573889574,30.273,37.109,-80.078,31.738,-102.539
1573889574,44.922,35.156,496.094,53.711,105.957
1573889574,42.969,18.555,241.211,41.016,165.039
1573889574,31.25,12.207,-551.27,20.508,-26.367
1573889574,29.297,28.32,-374.512,21.484,-122.559
1573889574,37.109,35.645,217.773,33.691,28.32
1573889574,45.898,35.156,151.855,29.785,159.18
1573889574,39.062,42.969,-199.707,10.742,38.574
1573889574,29.297,40.527,-123.535,5.371,-87.891
1573889574,38.086,25.879,264.16,25.391,-14.16
1573889574,43.945,21.973,214.844,34.668,126.953
1573889574,32.227,27.344,-278.32,12.695,66.406
1573889574,17.09,34.668,-392.578,-2.441,-105.469
1573889574,27.832,31.25,149.414,17.578,-48.34
1573889574,46.875,28.32,207.031,40.527,125
1573889574,39.551,27.832,-171.387,27.344,117.188
1573889574,23.438,27.832,-173.828,7.324,-35.645
1573889574,28.809,25.879,47.852,20.996,-83.008
1573889574,43.945,35.156,338.379,43.457,62.988
1573889574,51.27,42.48,324.219,38.574,153.32
1573889574,42.48,31.738,-26.855,22.461,20.02
1573889574,33.691,28.809,-52.734,19.531,-97.168
1573889574,44.434,32.715,274.902,40.039,21.484
1573889574,47.852,31.25,287.598,41.992,154.785
1573889574,36.133,28.809,29.297,18.066,44.434
1573889574,34.668,29.785,-13.672,16.602,-84.961
1573889574,47.363,32.227,40.039,31.738,-33.203
1573889574,57.617,35.156,333.496,42.969,140.137
1573889574,42.48,37.598,368.164,31.25,119.629
1573889574,13.672,30.273,20.02,1.953,-83.008
1573889574,20.02,27.832,291.016,13.672,-63.477
1573889574,39.551,24.414,763.184,39.551,118.164
1573889574,37.109,20.02,557.617,31.25,135.742
1573889574,20.02,24.414,97.656,6.836,-37.598
1573889574,20.508,27.832,37.598,10.742,-128.418
1573889574,35.645,25.879,344.238,34.18,16.113
1573889574,33.203,29.785,421.387,31.738,148.926
1573889574,23.438,38.574,-78.125,8.789,38.086
1573889574,15.137,36.621,-168.457,0.488,-74.707
1573889574,23.438,29.297,601.562,21.484,37.109
1573889574,31.25,22.949,772.949,33.203,159.668
1573889574,21.484,23.438,210.938,12.695,51.27
1573889574,15.625,26.855,106.934,3.906,-93.75
1573889574,24.414,27.832,568.359,31.25,-33.203
1573889574,35.645,33.691,716.797,49.805,137.695
1573889574,30.762,44.922,326.172,35.156,108.887
1573889574,14.648,37.109,-78.125,13.672,-69.824
1573889574,7.812,32.227,155.762,16.113,-65.918
1573889574,18.555,37.598,527.344,33.203,106.934
1573889574,24.902,32.227,28.32,32.227,105.957
1573889574,10.742,32.227,-291.504,12.695,-59.082
1573889574,4.395,37.109,178.223,17.578,-81.055
1573889574,13.184,30.273,392.578,32.715,38.574
1573889574,14.16,25.391,68.359,25.391,125
1573889574,7.324,33.691,-72.266,13.672,29.785
1573889574,5.859,31.25,34.18,14.16,-97.168
1573889574,8.789,26.367,286.133,20.508,-13.672
1573889574,14.648,30.762,371.094,24.902,141.602
1573889574,12.207,29.785,26.855,8.789,101.074
1573889574,1.465,30.273,-297.363,-5.859,-59.57
1573889574,9.277,37.109,-68.359,11.719,-45.898
1573889574,27.832,41.504,218.75,32.715,88.379
1573889574,23.926,40.039,114.258,18.066,104.492
1573889574,14.16,37.109,-175.293,1.953,-44.434
1573889574,18.555,30.762,-406.738,12.207,-129.395
1573889574,31.25,28.32,-154.785,32.715,29.785
1573889574,33.203,35.645,182.129,36.133,154.785
1573889574,26.855,40.527,-108.887,21.973,21.973
1573889574,32.227,40.527,-195.312,27.344,-88.379
1573889574,39.062,38.574,248.047,44.434,36.133
1573889574,37.109,38.574,165.039,41.504,142.578
1573889574,29.785,37.109,-421.875,25.391,21.973
1573889574,25.391,28.809,-697.266,21.484,-106.445
1573889574,31.738,29.785,-207.52,39.062,-30.273
1573889574,40.527,31.25,279.297,57.617,137.695
1573889574,33.691,20.508,-120.605,39.062,78.613
1573889574,17.09,17.578,-376.465,16.602,-76.172
1573889574,17.578,27.832,86.426,28.32,-34.668
1573889574,27.832,29.785,269.043,41.992,109.863
1573889574,21.484,25.879,-30.273,30.762,134.766
1573889574,8.789,19.531,-259.277,14.648,-30.273
1573889574,10.254,17.578,-94.727,21.973,-100.586
1573889574,19.043,23.438,173.34,36.133,53.711
1573889574,20.508,20.508,-156.25,27.344,129.883
1573889574,1.953,15.137,-637.695,4.395,-27.832
1573889574,-2.93,21.973,-262.695,7.324,-131.836
1573889574,18.555,26.367,284.668,34.668,-6.836
1573889574,28.809,16.602,279.785,42.969,138.672
1573889574,19.531,14.16,-48.34,23.926,52.734
1573889574,8.301,17.09,-82.031,11.719,-104.98
1573889574,27.832,22.949,205.566,32.715,-54.688
1573889574,49.316,28.809,332.031,43.945,125.977
1573889574,37.598,29.785,69.336,21.484,119.629
1573889574,22.461,30.273,-169.922,5.859,-78.613
1573889574,25.391,26.855,-16.113,19.043,-89.355
1573889574,36.133,24.414,-47.852,36.133,70.801
1573889574,32.227,26.367,-110.352,27.344,114.258
1573889574,15.625,29.297,-41.992,6.836,-8.301
1573889574,12.207,29.297,29.297,15.137,-95.215
1573889574,24.414,29.297,317.383,39.062,43.457
1573889574,28.809,35.645,375,41.016,146.484
1573889574,9.766,31.25,53.223,12.695,37.109
1573889574,-0.488,22.461,-46.387,0.488,-61.523
1573889574,10.742,17.09,267.578,22.949,22.949
1573889574,18.555,20.508,457.52,30.273,159.668
1573889574,8.789,29.785,136.23,8.789,87.402
1573889574,2.441,34.668,-182.129,0,-51.27
1573889574,12.207,36.621,12.207,17.578,-5.371
1573889575,24.902,39.062,375,32.227,146.973
1573889575,21.973,34.668,262.695,18.555,134.277
1573889575,5.371,26.367,-340.332,-4.883,-54.688
1573889575,5.859,30.762,-258.789,1.953,-79.59
1573889575,26.855,31.738,395.02,33.691,96.68
1573889575,30.762,27.832,229.004,29.785,132.324
1573889575,15.625,27.344,-240.234,7.324,-29.297
1573889575,13.672,21.484,-95.703,12.207,-95.215
1573889575,33.203,25.879,394.043,36.133,64.453
1573889575,44.922,34.18,265.137,42.48,141.602
1573889575,31.25,25.879,-343.262,21.484,0.977
1573889575,22.461,20.508,-433.594,15.625,-104.492
1573889575,35.645,21.973,170.41,39.062,17.578
1573889575,42.48,20.02,246.094,45.898,142.09
1573889575,26.367,18.066,-500.488,18.555,46.387
1573889575,8.789,18.555,-502.441,2.441,-82.52
1573889575,11.719,29.785,126.953,19.531,-41.504
1573889575,26.367,39.551,285.156,37.109,115.234
1573889575,23.438,22.461,-58.594,22.949,103.027
1573889575,5.859,11.719,-212.402,0.977,-41.504
1573889575,1.465,17.578,86.426,7.812,-56.641
1573889575,14.648,14.16,309.57,30.762,86.426
1573889575,20.02,10.254,-42.48,31.25,133.789
1573889575,5.371,17.578,-475.586,12.695,-7.812
1573889575,7.812,31.25,-149.902,18.066,-66.406
1573889575,32.227,31.738,84.961,43.945,39.551
1573889575,43.945,25.879,-134.277,47.363,123.535
1573889575,30.762,25.391,-189.941,24.902,61.523
1573889575,18.555,24.414,-333.496,18.066,-87.891
1573889575,30.273,23.438,-69.824,39.551,-42.48
1573889575,45.898,31.25,270.996,54.199,139.648
1573889575,39.062,40.039,66.406,38.086,89.355
1573889575,20.02,37.598,-215.82,17.09,-83.984
1573889575,25.879,38.574,0,33.691,-58.594
1573889575,45.41,36.133,231.934,59.57,122.07
1573889575,45.898,30.762,-24.414,50.781,120.605
1573889575,24.414,30.273,-356.934,23.926,-59.57
1573889575,15.625,33.203,-420.898,27.832,-92.285
1573889575,27.344,34.668,112.793,48.828,84.961
1573889575,27.344,26.855,337.402,43.945,173.828
1573889575,5.859,22.949,-120.605,17.09,34.18
1573889575,-2.93,28.809,-190.43,12.695,-102.539
1573889575,18.555,36.133,221.191,42.969,15.625
1573889575,33.203,32.227,305.176,51.27,150.879
1573889575,11.23,22.461,-110.84,14.648,46.387
1573889575,-3.906,25.879,-256.836,-2.441,-94.238
1573889575,14.648,31.738,13.672,20.02,-36.621
1573889575,26.367,27.344,218.262,32.715,141.113
1573889575,22.461,22.949,-294.434,16.602,66.406
1573889575,21.484,28.32,-718.262,5.371,-110.352
1573889575,20.996,28.809,-68.848,14.16,-81.055
1573889575,26.367,23.438,386.719,23.438,98.145
1573889575,32.227,25.879,120.605,20.996,136.719
1573889575,25.879,26.855,-218.262,12.207,-43.457
1573889575,20.996,22.949,67.871,17.09,-78.125
1573889575,27.832,20.508,493.164,35.645,101.562
1573889575,40.039,18.555,253.906,41.992,175.293
1573889575,36.621,17.09,-245.605,24.414,18.555
1573889575,26.367,17.578,-274.902,19.531,-108.887
1573889575,33.203,23.926,47.363,40.527,2.441
1573889575,42.48,29.297,-106.934,46.387,134.766
1573889575,34.668,23.926,-447.754,26.855,21.973
1573889575,18.555,17.09,-246.582,5.859,-114.746
1573889575,21.973,19.531,143.555,20.02,-22.461
1573889575,34.18,16.602,351.562,41.504,151.855
1573889575,19.043,9.766,113.281,22.949,104.98
1573889575,-2.441,11.23,-196.777,-5.371,-88.867
1573889575,-0.977,13.672,0.977,1.953,-78.125
1573889575,13.672,21.484,358.887,27.344,113.281
1573889575,20.996,20.996,246.582,22.949,139.648
1573889575,10.254,11.719,-320.312,-5.371,-40.527
1573889575,1.465,13.672,-385.254,-7.812,-106.934
1573889575,14.648,19.531,144.531,18.066,40.527
1573889575,20.508,20.02,233.398,17.578,136.23
1573889575,12.695,21.484,-123.047,-0.488,-1.953
1573889575,12.695,21.973,-494.629,-0.977,-146.973
1573889575,18.066,19.043,-249.512,10.742,-33.691
1573889575,28.32,15.137,299.805,24.414,149.902
1573889575,28.809,13.184,29.297,16.602,72.266
1573889575,25.391,19.043,-246.094,7.324,-99.121
1573889575,40.527,26.855,170.898,29.297,-64.453
1573889575,54.688,24.414,487.793,49.805,108.887
1573889575,48.34,22.949,105.957,33.691,123.535
1573889575,36.133,25.391,-453.125,11.23,-64.941
1573889575,33.691,27.344,-10.742,20.508,-72.266
1573889575,48.34,32.715,639.648,44.922,106.934
1573889575,54.199,34.18,250,44.434,122.559
1573889575,40.527,32.227,-176.27,23.926,-7.812
1573889575,36.621,34.18,226.562,24.414,-61.523
1573889575,42.969,29.785,725.098,48.34,47.363
1573889575,47.363,24.902,631.348,49.316,156.738
1573889575,38.574,26.855,162.109,27.832,19.531
1573889575,19.531,28.809,179.199,14.16,-106.934
1573889575,21.973,30.273,651.367,21.973,7.324
1573889575,32.715,38.086,582.031,30.273,136.23
1573889575,29.297,36.621,27.344,17.09,54.199
1573889575,15.137,23.926,-28.32,3.906,-93.75
1573889575,11.23,24.414,560.547,16.113,-22.461
1573889575,22.461,32.227,586.426,32.227,140.625
1573889575,16.602,31.738,53.223,13.184,104.004
1573889575,-8.789,24.414,-53.711,-15.137,-54.199
1573889575,-6.348,25.879,188.965,0.977,-102.051
1573889575,9.766,29.297,515.625,27.832,60.059
1573889575,8.789,27.344,513.184,21.973,162.598
1573889575,7.812,29.297,216.797,3.906,21.973
1573889575,10.742,29.297,183.105,9.766,-86.426
1573889575,24.414,30.273,301.27,38.086,-9.277
1573889575,34.18,26.855,282.227,42.48,149.414
1573889575,20.02,16.602,120.117,17.09,79.59
1573889575,15.625,16.113,-81.543,13.184,-98.145
1573889575,33.691,23.926,66.895,38.574,-22.461
1573889575,40.039,30.273,449.219,51.758,168.457
1573889575,35.645,29.297,291.504,40.039,112.793
1573889575,28.809,24.414,-141.113,20.996,-57.129
1573889575,29.297,20.508,-169.922,28.809,-60.547
1573889575,38.086,17.09,233.887,49.316,111.328
1573889575,39.551,24.902,256.348,41.992,165.039
1573889575,23.438,30.762,-217.773,17.09,-55.664
1573889575,16.113,24.414,-277.832,15.137,-133.301
1573889575,26.855,20.508,93.262,33.691,54.688
1573889575,30.762,23.438,168.945,31.738,150.879
1573889575,17.09,28.809,-305.176,5.859,-3.418
1573889575,5.859,30.273,-330.566,-0.977,-111.328
1573889575,8.789,28.809,265.137,15.137,20.508
1573889575,14.648,32.715,393.555,16.602,161.133
1573889575,11.23,27.344,-317.383,-3.418,59.57
1573889575,4.883,19.531,-628.906,-6.836,-102.539
1573889575,13.672,23.926,123.047,19.531,-8.301
1573889575,29.297,29.297,414.062,34.668,172.852
1573889575,23.438,27.832,-149.902,20.02,103.027
1573889575,6.348,33.203,-578.613,5.371,-82.52
1573889575,13.184,34.18,-235.84,19.531,-77.637
1573889575,27.344,18.066,106.934,38.574,78.125
1573889575,21.484,15.625,-141.602,24.902,120.117
1573889575,13.184,21.973,-322.754,3.418,-18.555
1573889575,17.09,27.344,-167.969,11.719,-104.98
1573889575,31.25,33.691,97.656,39.062,48.828
1573889575,30.762,31.738,-124.023,33.691,154.785
1573889575,15.137,29.785,-416.992,10.742,-2.441
1573889575,16.113,29.785,-183.594,16.113,-110.84
1573889575,35.645,23.926,193.359,43.457,14.16
1573889575,47.852,20.996,321.289,53.711,171.387
1573889575,35.156,21.484,-103.516,33.691,81.055
1573889575,22.461,24.414,-380.859,19.531,-79.59
1573889575,29.297,29.785,-218.75,30.273,-48.34
1573889575,40.039,26.367,-49.316,39.062,113.77
1573889575,34.18,24.414,31.25,25.391,118.164
1573889575,18.066,29.785,-104.004,5.859,-37.109
1573889575,8.789,30.762,100.098,6.348,-32.227
1573889575,15.625,25.879,473.145,22.461,121.094
1573889575,20.996,26.855,434.082,20.02,183.594
1573889575,6.836,30.273,34.18,-2.93,34.18
1573889575,6.348,26.367,-95.215,1.953,-107.91
1573889575,22.949,27.832,299.805,25.879,15.625
1573889575,25.391,37.109,291.016,28.32,156.738
1573889575,17.578,30.762,-273.438,5.859,20.02
1573889575,3.906,16.113,-610.352,-4.883,-146.973
1573889575,11.23,19.531,-70.312,19.043,-28.809
1573889575,28.809,23.926,356.445,38.086,145.996
1573889575,27.344,27.344,-39.062,28.32,92.773
1573889575,12.695,30.273,-205.566,13.184,-61.523
1573889575,9.277,26.855,197.266,19.043,-54.688
1573889575,26.367,24.414,486.328,35.645,109.863
1573889575,32.715,20.02,131.836,30.762,117.676
1573889575,22.949,23.438,-261.719,12.207,-65.918
1573889575,28.809,34.668,58.105,23.926,-86.426
1573889575,47.363,34.668,412.109,53.223,89.355
1573889575,47.363,29.297,-55.664,47.363,127.441
1573889575,31.25,29.785,-650.879,19.043,-41.504
1573889575,23.926,28.809,-228.516,15.625,-102.051
1573889575,36.621,29.297,393.555,36.621,41.992
1573889575,39.551,27.344,218.75,35.156,137.695
1573889575,21.973,23.438,-290.527,7.812,29.297
1573889575,16.602,31.738,-283.203,0.488,-104.004
1573889575,32.227,37.109,208.496,28.32,-13.672
1573889575,42.48,30.762,320.801,45.898,159.668
1573889575,27.344,31.25,4.395,22.949,108.398
1573889575,16.113,32.227,-130.859,9.277,-76.172
1573889575,25.879,27.832,-23.926,26.367,-83.008
1573889575,40.527,26.367,-114.746,45.41,69.336
1573889575,41.016,20.996,-197.754,38.086,113.77
1573889575,21.484,26.367,-147.949,18.066,-18.555
1573889575,20.508,36.133,-34.668,27.832,-76.172
1573889575,39.062,34.18,324.219,51.27,92.773
1573889575,37.598,27.832,373.535,47.363,186.523
1573889575,21.484,24.902,-35.645,21.973,21.973
1573889575,15.625,26.855,-91.797,14.16,-70.801
1573889575,24.902,30.273,165.527,38.086,38.086
1573889575,33.203,31.738,323.73,48.34,178.223
1573889575,27.344,29.785,4.883,24.902,80.566
1573889575,11.23,24.902,-532.227,1.465,-103.027
1573889575,13.672,26.855,-270.508,14.16,-21.973
1573889575,24.414,26.367,315.43,29.297,149.414
1573889575,20.508,22.461,159.18,18.555,132.812
1573889575,8.789,30.762,-276.367,7.324,-66.895
1573889575,8.789,30.273,-92.773,12.695,-98.145
1573889575,19.531,29.297,404.785,27.832,112.305
1573889575,23.438,34.18,213.867,27.344,147.461
1573889575,9.277,29.297,-280.273,6.348,-29.297
1573889575,1.465,22.949,-66.895,-0.488,-61.035
1573889575,13.672,22.461,425.781,18.066,93.262
1573889575,20.02,24.414,210.449,23.438,153.809
1573889575,12.207,27.832,-449.219,1.953,-8.789
1573889575,3.418,28.32,-505.859,-3.906,-115.234
1573889575,17.09,26.367,35.645,23.926,6.348
1573889575,34.668,25.391,161.621,47.852,138.184
1573889575,29.785,27.832,-475.586,37.109,52.246
1573889575,16.602,25.879,-562.5,23.926,-115.723
1573889575,23.438,26.855,78.613,46.875,-63.965
1573889575,31.738,28.809,353.516,65.918,147.949
1573889575,27.832,21.973,66.895,46.875,152.344
1573889575,14.648,16.602,-168.457,20.996,-42.48
1573889575,13.184,25.391,54.688,23.438,-83.984
1573889575,35.645,33.203,278.32,44.434,75.684
1573889575,40.039,30.273,-23.926,40.527,133.301
1573889575,20.508,27.832,-392.09,13.672,-0.488
1573889575,14.648,35.156,-215.82,12.695,-58.105
1573889575,21.973,37.598,-11.23,34.18,51.27
1573889575,24.902,25.391,-176.27,32.227,119.629
1573889575,8.789,24.902,-223.633,7.812,19.043
1573889575,-4.883,28.809,-182.129,-1.953,-119.141
1573889575,1.465,34.668,89.355,14.648,-35.156
1573889575,12.207,35.156,324.707,26.855,146.484
1573889575,14.648,26.855,84.961,19.531,79.59
1573889575,7.324,31.738,-201.66,8.301,-95.215
1573889575,11.719,35.156,51.758,20.02,-57.129
1573889575,24.414,31.738,267.578,37.598,118.164
1573889575,22.461,29.785,-7.324,22.949,118.164
1573889575,12.695,34.668,-265.137,4.395,-43.457
1573889575,16.113,35.156,-379.883,12.695,-93.75
1573889575,27.832,28.32,-39.551,29.785,68.359
1573889575,33.203,29.785,220.215,31.738,170.898
1573889575,24.902,29.297,-224.609,15.137,-15.625
1573889575,17.578,26.367,-266.602,16.602,-123.535
1573889575,30.762,31.738,324.707,39.062,44.922
1573889575,46.387,41.016,407.227,50.293,167.48
1573889575,36.621,31.25,-90.82,29.785,49.316
1573889575,22.461,20.996,-219.238,14.16,-88.379
1573889575,33.203,24.414,31.25,30.273,-26.367
1573889575,44.922,28.32,199.707,39.551,144.043
1573889575,32.227,30.273,-196.777,16.602,103.516
1573889575,7.812,29.785,-678.223,-10.742,-92.773
1573889575,10.254,39.062,-12.207,2.93,-45.898
1573889575,22.949,47.852,438.965,25.391,129.395
1573889575,13.184,32.227,56.152,12.207,126.953
1573889575,-6.836,14.16,-268.555,-10.742,-29.785
1573889575,-9.277,13.184,32.715,-1.953,-72.754
1573889575,3.906,19.043,438.965,20.02,71.777
1573889575,4.395,25.391,266.113,19.531,143.066
1573889575,-4.883,23.438,-81.543,-0.488,-10.742
1573889575,-1.465,23.926,-80.078,4.395,-104.98
1573889575,14.648,27.832,181.152,32.227,13.672
1573889575,24.414,26.367,196.777,35.156,125.488
1573889575,20.02,24.414,69.336,18.066,67.383
1573889575,19.043,28.809,166.992,12.207,-57.129
1573889575,30.273,32.715,375.977,31.25,-29.297
1573889576,40.039,34.18,306.641,42.48,116.699
1573889576,36.133,31.25,188.477,27.344,101.074
1573889576,26.855,25.391,163.086,12.207,-44.922
1573889576,33.203,31.25,381.836,23.438,-28.32
1573889576,47.363,35.156,604.004,46.875,115.723
1573889576,45.41,32.715,526.367,41.016,152.344
1573889576,30.273,32.227,65.43,19.531,-31.738
1573889576,30.762,34.18,-122.07,23.926,-134.766
1573889576,46.387,36.133,373.535,49.316,38.086
1573889576,47.363,33.691,639.648,51.758,167.969
1573889576,31.738,33.691,320.312,20.02,41.016
1573889576,17.578,38.574,145.996,2.441,-94.727
1573889576,30.762,45.41,443.359,25.391,-11.23
1573889576,38.574,44.434,680.664,31.738,154.297
1573889576,22.949,33.691,445.312,1.953,118.652
1573889576,19.531,25.391,-167.48,-8.301,-83.984
1573889576,26.367,27.344,-2.441,16.113,-59.082
1573889576,33.691,32.227,622.07,31.25,137.207
1573889576,33.691,35.645,194.824,15.137,91.797
1573889576,21.973,28.32,-357.422,-3.906,-97.656
1573889576,29.297,24.414,-30.762,14.648,-97.656
1573889576,44.434,33.691,576.172,41.992,101.074
1573889576,50.293,40.039,374.512,43.945,147.949
1573889576,41.992,35.645,-425.293,25.879,-55.176
1573889576,27.344,34.18,-289.551,17.578,-143.555
1573889576,35.645,32.227,518.066,35.156,62.5
1573889576,47.363,30.273,396.973,45.41,173.34
1573889576,41.504,39.551,-159.668,29.785,36.133
1573889576,34.18,41.992,-62.012,24.414,-89.844
1573889576,40.039,40.039,332.031,43.945,-15.137
1573889576,45.898,39.062,295.898,50.781,144.531
1573889576,35.645,34.18,-186.035,25.391,88.867
1573889576,19.531,32.227,-386.23,2.93,-83.008
1573889576,21.484,34.18,86.426,19.531,-47.852
1573889576,34.668,31.738,214.355,37.598,124.512
1573889576,32.227,31.738,-315.918,20.02,107.422
1573889576,12.695,41.504,-315.918,-3.418,-41.016
1573889576,12.695,48.34,27.832,13.184,-63.477
1573889576,23.438,32.715,240.723,32.227,81.055
1573889576,16.602,18.066,180.664,20.508,177.246
1573889576,3.418,20.02,-33.203,1.953,63.965
1573889576,5.859,29.297,-150.879,4.395,-70.801
1573889576,22.949,35.645,28.809,27.344,40.039
1573889576,27.344,33.203,13.672,29.297,157.227
1573889576,16.602,27.832,-267.578,9.277,72.266
1573889576,16.113,26.855,-334.473,1.953,-62.012
1573889576,27.344,27.344,-191.895,19.043,-53.711
1573889576,38.574,28.809,25.391,36.621,104.98
1573889576,34.18,29.785,-149.902,23.438,62.012
1573889576,26.367,28.32,-443.359,8.789,-93.75
1573889576,36.133,35.645,-379.883,33.203,-72.266
1573889576,43.457,39.062,81.543,50.293,79.59
1573889576,38.086,31.25,104.004,39.551,104.98
1573889576,23.926,30.762,-250,20.508,-32.715
1573889576,20.02,30.762,-197.754,22.949,-79.102
1573889576,31.25,30.762,149.414,47.852,62.988
1573889576,35.156,31.25,154.785,43.945,155.762
1573889576,23.926,34.668,-235.84,17.09,7.324
1573889576,16.602,36.621,-176.27,14.648,-94.238
1573889576,28.809,42.48,405.273,34.668,44.922
1573889576,42.48,48.828,470.215,41.992,141.602
1573889576,28.32,38.574,-297.852,20.02,31.738
1573889576,8.301,27.344,-571.777,0,-102.051
1573889576,11.23,29.297,119.629,15.625,-54.199
1573889576,27.832,37.109,357.422,35.156,104.98
1573889576,23.438,35.645,11.719,19.531,90.332
1573889576,2.93,29.785,-326.66,-1.953,-102.051
1573889576,7.324,31.738,-77.637,10.742,-91.309
1573889576,32.227,33.203,358.887,38.574,103.516
1573889576,36.621,25.391,-172.363,28.809,71.289
1573889576,23.926,23.926,-483.887,3.418,-79.59
1573889576,29.297,28.809,31.25,15.625,-105.469
1573889576,42.48,31.738,388.184,45.41,45.41
1573889576,45.41,34.668,312.988,46.387,150.879
1573889576,36.621,34.18,44.434,19.043,23.438
1573889576,32.227,28.32,40.039,17.578,-97.168
1573889576,45.898,31.738,281.25,43.945,14.16
1573889576,58.105,41.016,390.137,55.664,158.691
1573889576,53.223,32.715,-31.738,40.527,62.988
1573889576,36.133,21.973,-225.098,19.043,-84.473
1573889576,37.109,22.461,-56.641,27.344,-63.965
1573889576,45.41,26.855,-0.488,39.551,93.75
1573889576,40.527,27.832,89.355,29.297,114.258
1573889576,29.785,25.391,-43.945,13.184,-46.387
1573889576,23.926,27.344,57.129,15.625,-75.684
1573889576,32.715,27.832,398.438,32.227,92.285
1573889576,33.203,27.344,349.121,31.738,156.738
1573889576,20.02,27.344,-71.777,14.648,1.953
1573889576,11.23,28.809,-111.328,8.789,-80.566
1573889576,15.137,31.25,315.43,20.02,58.594
1573889576,24.414,34.668,237.305,26.855,150.879
1573889576,18.066,35.645,-350.586,14.16,13.184
1573889576,9.766,29.297,-669.922,2.93,-119.629
1573889576,12.695,27.344,-161.621,10.742,-26.367
1573889576,24.902,31.738,383.301,29.785,162.598
1573889576,27.832,34.668,17.578,22.461,113.281
1573889576,8.789,30.273,-305.176,-2.93,-78.125
1573889576,18.066,28.32,126.953,11.719,-42.969
1573889576,40.527,26.367,447.754,40.527,124.023
1573889576,39.062,26.855,88.379,31.738,142.09
1573889576,24.414,26.367,-309.082,10.742,-33.691
1573889576,29.785,25.391,-26.367,26.367,-87.891
1573889576,41.992,27.832,342.773,47.852,115.723
1573889576,42.969,30.762,-44.434,39.062,176.27
1573889576,38.086,40.039,-636.23,22.949,-18.555
1573889576,32.715,40.527,-387.207,29.297,-101.074
1573889576,43.945,25.391,117.676,51.27,8.301
1573889576,47.363,17.09,145.508,48.828,134.766
1573889576,31.25,22.461,-145.02,21.973,55.664
1573889576,21.973,28.809,-149.414,14.16,-99.609
1573889576,32.227,29.785,215.332,32.715,-16.602
1573889576,44.922,34.18,324.707,41.016,150.391
1573889576,38.086,37.109,32.715,23.438,106.934
1573889576,20.996,25.391,-146.973,8.301,-59.082
1573889576,16.602,18.555,-61.523,13.672,-56.152
1573889576,30.762,24.414,166.016,31.738,131.836
1573889576,27.832,22.461,74.219,29.785,139.648
1573889576,0.488,20.508,-233.398,0.977,-58.594
1573889576,-0.977,27.344,-140.137,5.859,-98.145
1573889576,19.043,30.273,-58.594,38.574,60.547
1573889576,18.066,24.902,-108.887,33.691,112.305
1573889576,2.441,23.438,-183.105,7.812,-0.977
1573889576,1.953,29.785,-164.062,6.836,-70.312
1573889576,19.531,32.715,205.566,27.344,50.781
1573889576,31.738,32.227,420.898,38.086,187.988
1573889576,27.832,28.32,20.02,25.391,60.547
1573889576,20.02,23.926,-373.047,13.672,-117.676
1573889576,24.414,29.297,-138.672,32.715,-36.621
1573889576,45.41,35.156,282.715,53.711,164.062
1573889576,50.781,29.785,131.348,37.109,106.934
1573889576,38.574,28.809,-523.926,14.16,-118.652
1573889576,39.551,31.738,-439.941,26.367,-91.309
1573889576,55.176,36.133,378.906,47.852,136.23
1573889576,54.688,37.109,224.121,41.504,147.461
1573889576,35.156,32.227,-380.371,15.625,-57.129
1573889576,26.367,32.227,-200.195,16.113,-126.953
1573889576,39.062,33.203,346.191,41.504,48.34
1573889576,40.527,29.785,301.758,35.645,161.133
1573889576,19.531,22.461,-283.691,2.441,14.16
1573889576,9.277,22.949,-477.539,-4.395,-133.301
1573889576,20.02,26.367,38.574,18.555,-10.742
1573889576,25.391,29.297,265.625,23.438,158.203
1573889576,18.555,34.18,-405.273,3.418,53.711
1573889576,4.883,33.691,-508.301,-10.254,-100.098
1573889576,8.301,25.391,166.992,9.766,-23.926
1573889576,24.902,21.973,370.117,30.273,150.879
1573889576,25.391,23.926,22.949,19.043,123.047
1573889576,17.578,30.273,-123.535,0.977,-31.738
1573889576,18.555,41.016,95.215,12.695,-44.922
1573889576,29.785,39.551,258.789,37.598,85.938
1573889576,35.645,38.574,30.273,32.227,124.512
1573889576,29.785,39.551,-363.281,19.531,-24.902
1573889576,25.391,36.621,-170.898,22.461,-100.098
1573889576,39.062,35.645,112.305,42.969,36.133
1573889576,48.828,33.691,-19.531,46.387,148.926
1573889576,35.645,32.227,-118.164,22.461,19.531
1573889576,31.25,34.668,-65.43,21.484,-116.211
1573889576,40.527,40.527,180.664,42.48,-20.508
1573889576,48.34,37.109,325.195,49.805,129.395
1573889576,41.992,35.645,196.777,31.25,95.215
1573889576,30.273,39.062,-62.5,17.578,-88.867
1573889576,32.715,42.48,166.016,27.832,-58.594
1573889576,43.457,40.527,428.711,41.504,136.23
1573889576,42.969,36.621,61.523,36.133,106.445
1573889576,27.832,38.086,-292.48,12.207,-63.965
1573889576,23.926,43.945,-298.828,14.16,-90.82
1573889576,30.273,40.039,242.676,37.598,98.145
1573889576,35.645,34.668,562.988,39.551,193.848
1573889576,24.902,32.715,93.75,11.719,13.672
1573889576,14.16,30.273,24.902,4.883,-109.375
1573889576,26.367,40.527,609.863,32.715,51.27
1573889576,31.25,40.527,754.395,41.992,194.824
1573889576,17.578,34.18,251.953,18.066,68.359
1573889576,5.371,36.133,81.543,4.883,-95.215
1573889576,15.137,26.855,348.145,28.809,-26.367
1573889576,29.785,23.438,520.02,44.434,145.02
1573889576,25.391,29.785,114.258,21.484,103.027
1573889576,12.207,37.598,-389.648,0.977,-87.402
1573889576,18.555,44.922,209.473,20.508,-54.688
1573889576,39.551,38.574,787.598,48.34,133.789
1573889576,38.086,30.762,345.215,36.133,136.23
1573889576,23.926,25.879,-103.516,14.648,-50.293
1573889576,23.926,25.391,229.004,22.461,-109.375
1573889576,37.598,31.25,644.531,49.316,71.777
1573889576,39.551,34.18,480.469,46.387,152.832
1573889576,24.414,32.227,79.102,16.113,-4.395
1573889576,18.066,30.762,4.883,18.066,-103.516
1573889576,23.926,30.273,272.949,39.062,24.902
1573889576,25.879,20.508,166.992,34.18,150.879
1573889576,14.648,17.578,-145.508,11.23,41.016
1573889576,6.836,23.438,-39.062,4.883,-116.699
1573889576,18.555,24.414,214.844,24.902,-41.504
1573889576,26.367,23.926,202.148,35.156,136.719
1573889576,17.578,25.391,20.508,18.555,93.75
1573889576,8.789,32.715,-38.086,5.371,-50.781
1573889576,9.277,36.133,196.777,17.578,-23.926
1573889576,21.484,31.738,480.469,34.668,137.207
1573889576,28.809,29.297,361.328,34.668,161.133
1573889576,16.602,29.785,-225.098,20.508,-46.875
1573889576,10.742,27.344,-325.195,15.625,-114.746
1573889576,27.832,28.32,250.488,35.645,77.637
1573889576,39.551,37.109,355.469,43.945,165.039
1573889576,26.855,46.387,-19.043,23.926,0.488
1573889576,25.879,40.527,-395.508,17.578,-138.672
1573889576,42.48,31.25,-178.711,36.621,-4.395
1573889576,51.758,37.598,288.086,46.387,154.785
1573889576,42.48,40.039,-184.082,29.297,41.504
1573889576,30.762,37.109,-491.211,14.648,-105.469
1573889576,35.645,36.133,-12.207,27.344,-47.363
1573889576,43.457,41.504,319.824,45.41,120.117
1573889576,39.062,43.457,-4.883,29.297,136.719
1573889576,24.902,39.551,-724.609,0.977,-34.18
1573889576,20.02,32.715,-596.68,7.812,-78.613
1573889576,35.645,28.32,190.43,36.621,84.961
1573889576,33.203,22.949,60.547,29.785,129.395
1573889576,11.719,25.879,-417.969,-0.977,-41.504
1573889576,6.836,28.809,-178.711,2.441,-102.539
1573889576,28.809,36.133,366.699,33.691,68.848
1573889576,40.527,43.457,281.738,36.133,182.617
1573889576,22.949,33.691,-178.223,9.277,50.293
1573889576,18.066,26.367,-281.25,2.93,-109.375
1573889576,27.832,27.832,58.594,26.367,-15.137
1573889576,38.086,28.809,59.082,40.039,139.648
1573889576,34.18,34.18,-452.637,25.879,39.062
1573889576,20.508,39.062,-391.602,13.672,-125.488
1573889576,27.344,36.621,96.191,32.715,-73.73
1573889576,44.434,34.18,310.059,49.316,107.91
1573889576,39.551,30.273,44.922,37.109,108.398
1573889576,29.297,27.832,-136.23,22.949,-49.805
1573889576,32.715,28.32,41.992,30.762,-99.121
1573889576,50.293,33.691,238.281,56.152,54.199
1573889576,56.641,36.621,116.211,54.199,113.281
1573889576,35.156,35.156,-141.602,24.414,-39.062
1573889576,29.297,35.645,-67.383,23.438,-108.887
1573889576,44.434,32.715,262.695,45.41,48.828
1573889576,51.758,35.156,202.637,50.781,152.832
1573889576,32.227,30.273,-145.508,20.02,27.832
1573889576,17.09,26.855,-167.48,4.395,-77.637
1573889576,30.762,30.762,149.902,25.391,-10.742
1573889576,34.668,27.344,446.777,30.762,152.832
1573889576,21.484,27.832,188.965,10.254,84.473
1573889576,10.742,33.691,-244.629,-4.395,-111.328
1573889576,13.672,33.203,-239.258,8.301,-80.566
1573889576,23.438,31.25,298.828,26.855,127.93
1573889576,26.367,39.551,315.918,22.461,142.578
1573889576,12.207,32.227,-138.672,-4.883,-25.879
1573889576,7.324,21.973,-108.887,-2.441,-67.383
1573889576,14.16,24.902,243.164,21.484,84.961
1573889576,18.066,34.668,330.566,22.461,182.129
1573889576,11.23,37.598,-251.465,3.418,14.16
1573889576,-0.977,30.762,-451.172,-6.836,-97.168
1573889576,11.23,32.715,306.641,21.484,37.598
1573889576,22.461,35.645,502.93,37.598,160.156
1573889576,12.207,34.18,26.367,15.137,73.242
1573889576,8.301,27.832,-129.883,6.836,-79.59
1573889576,19.043,27.344,276.367,27.832,-30.762
1573889577,33.691,34.18,473.633,44.922,140.137
1573889577,40.039,37.598,-5.859,36.621,99.121
1573889577,28.32,30.273,-419.922,11.23,-83.008
1573889577,28.32,29.297,-117.676,20.508,-67.871
1573889577,47.363,33.203,218.75,47.852,102.539
1573889577,46.387,28.809,-264.16,34.18,93.75
1573889577,29.297,26.855,-482.91,10.742,-45.41
1573889577,23.438,32.227,23.926,14.648,-81.543
1573889577,30.762,30.273,234.863,36.621,34.18
1573889577,34.668,30.273,93.75,40.527,115.234
1573889577,21.484,28.32,-131.836,18.066,-9.277
1573889577,8.301,24.414,-56.641,11.719,-92.773
1573889577,17.578,24.414,292.969,32.715,39.551
1573889577,25.391,27.832,347.168,41.992,164.062
1573889577,16.602,31.25,-121.094,20.996,62.012
1573889577,0.977,35.156,-361.816,5.859,-103.516
1573889577,5.859,34.668,-53.711,18.555,-17.578
1573889577,20.996,24.414,4.883,32.227,132.812
1573889577,11.719,20.508,-44.434,16.602,99.121
1573889577,-1.465,23.438,-193.848,1.465,-60.059
1573889577,8.301,29.297,-78.125,15.137,-83.008
1573889577,25.879,31.25,375.977,36.621,113.77
1573889577,29.297,36.621,298.34,38.086,170.41
1573889577,24.414,36.621,-328.613,21.484,-42.969
1573889577,23.926,39.551,-254.883,22.949,-104.004
1573889577,33.691,43.945,319.824,50.781,68.848
1573889577,34.668,29.297,291.016,50.293,189.453
1573889577,19.531,25.879,-267.09,25.391,55.664
1573889577,12.695,37.109,-626.953,21.484,-132.324
1573889577,19.531,37.109,-142.09,37.598,-36.133
1573889577,27.832,35.156,417.48,48.828,165.039
1573889577,24.414,36.133,-29.785,34.18,89.844
1573889577,14.16,40.527,-458.496,19.531,-103.027
1573889577,22.949,42.969,48.828,31.25,-53.223
1573889577,37.109,36.133,441.895,52.734,127.93
1573889577,37.598,37.109,86.426,46.387,117.676
1573889577,26.367,40.039,-268.066,19.043,-40.527
1573889577,21.484,35.156,-70.801,26.367,-64.941
1573889577,35.156,36.133,225.098,48.828,78.125
1573889577,39.551,35.645,-126.953,43.945,114.258
1573889577,26.367,32.715,-706.543,20.996,-42.48
1573889577,19.043,41.992,-295.898,16.113,-94.238
1573889577,29.785,46.875,383.301,37.109,59.082
1573889577,37.109,39.551,350.098,44.922,171.875
1573889577,29.785,35.645,-94.727,31.738,42.48
1573889577,26.367,36.621,-83.984,29.785,-81.055
1573889577,38.574,43.945,308.105,51.758,8.301
1573889577,50.781,49.316,357.91,64.941,148.438
1573889577,47.363,49.805,60.059,45.898,103.516
1573889577,35.645,41.992,-192.871,27.344,-99.121
1573889577,32.227,34.668,-105.469,37.598,-87.891
1573889577,49.316,34.668,55.176,60.059,106.445
1573889577,57.129,37.598,-152.344,55.664,101.074
1573889577,38.574,40.039,-286.621,29.785,-51.27
1573889577,33.203,43.945,-129.883,30.273,-102.051
1573889577,41.992,42.48,-125,48.828,29.785
1573889577,43.457,40.039,-31.25,46.387,147.461
1573889577,34.668,37.598,-127.441,26.855,-7.812
1573889577,21.973,24.414,-225.098,18.555,-119.141
1573889577,30.762,25.879,194.824,38.574,45.898
1573889577,36.621,35.645,423.828,45.41,190.43
1573889577,20.02,29.785,131.348,21.973,97.168
1573889577,12.207,24.902,-274.902,8.789,-40.527
1573889577,19.043,35.645,-193.359,22.949,-5.859
1573889577,22.949,41.016,321.289,29.785,163.574
1573889577,17.578,39.062,210.449,10.742,136.719
1573889577,9.766,33.691,-418.945,-4.883,-101.562
1573889577,20.508,33.203,-236.328,13.184,-96.68
1573889577,40.527,34.668,395.508,39.062,94.727
1573889577,41.504,37.598,268.555,30.273,134.277
1573889577,28.32,41.504,-151.855,5.371,-31.738
1573889577,29.785,41.016,-3.906,17.09,-105.469
1573889577,44.922,37.598,529.785,44.434,72.266
1573889577,46.387,32.715,477.539,38.574,164.062
1573889577,34.668,30.762,-135.254,15.625,-0.488
1573889577,27.832,35.156,-242.676,13.672,-106.445
1573889577,39.062,41.504,376.953,41.504,25.391
1573889577,56.152,32.715,603.027,61.035,170.898
1573889577,41.992,24.414,-110.84,36.133,81.055
1573889577,23.926,28.32,-280.762,15.137,-94.727
1573889577,35.156,28.32,299.316,40.039,-60.059
1573889577,44.922,25.879,402.344,57.617,100.098
1573889577,37.109,33.203,200.195,37.109,95.703
1573889577,22.949,37.109,127.93,15.137,-60.547
1573889577,18.066,35.645,423.34,17.578,-72.754
1573889577,28.809,28.32,723.633,32.715,108.398
1573889577,31.738,16.602,442.871,27.832,166.504
1573889577,13.184,18.066,-25.391,3.906,2.93
1573889577,8.301,25.879,120.117,4.883,-87.402
1573889577,23.438,29.785,417.969,29.785,47.363
1573889577,33.203,31.25,55.664,31.738,135.254
1573889577,21.484,31.738,-35.156,11.719,56.641
1573889577,13.672,35.645,178.711,9.766,-71.777
1573889577,23.926,31.25,489.258,31.738,22.461
1573889577,32.227,21.973,644.531,40.039,176.758
1573889577,23.926,21.484,232.91,22.461,85.449
1573889577,10.742,21.973,-61.035,14.648,-88.379
1573889577,23.926,28.809,229.492,36.621,-57.129
1573889577,43.457,37.598,507.812,58.105,141.113
1573889577,39.062,30.273,158.691,45.41,120.117
1573889577,23.438,21.484,-280.273,20.996,-53.223
1573889577,20.996,25.879,-71.777,28.809,-74.707
1573889577,35.156,31.738,480.469,50.781,95.703
1573889577,39.062,30.273,497.07,47.852,169.434
1573889577,21.973,26.367,-99.121,18.555,-11.719
1573889577,15.625,31.25,-435.059,10.254,-115.234
1573889577,21.973,41.504,161.621,28.809,43.457
1573889577,24.414,45.898,476.562,33.203,170.41
1573889577,15.625,41.016,-41.992,15.625,40.527
1573889577,4.883,29.297,-318.359,4.395,-122.07
1573889577,14.16,31.25,-0.977,24.414,-47.363
1573889577,26.855,34.18,184.57,40.039,118.652
1573889577,22.461,33.203,-321.777,21.973,53.711
1573889577,17.578,36.621,-498.535,11.719,-80.078
1573889577,20.02,31.25,64.453,29.297,-53.711
1573889577,32.227,28.809,420.41,44.922,92.773
1573889577,31.25,29.297,-123.047,34.18,104.492
1573889577,15.137,26.367,-671.875,9.766,-59.57
1573889577,15.137,28.809,-149.414,15.137,-83.008
1573889577,29.297,31.25,346.68,34.668,91.309
1573889577,34.18,33.691,95.703,32.715,138.184
1573889577,26.367,33.203,-257.812,14.16,3.418
1573889577,26.367,26.855,-288.086,16.602,-96.68
1573889577,34.668,27.344,-107.422,42.969,-6.836
1573889577,43.457,35.645,-18.555,51.27,139.648
1573889577,41.016,37.109,-215.82,36.621,44.922
1573889577,28.809,28.809,-185.059,28.32,-93.262
1573889577,40.527,31.25,106.445,46.875,-25.879
1573889577,58.594,37.598,-101.562,60.547,88.379
1573889577,43.457,32.715,-274.414,36.133,86.426
1573889577,26.855,36.621,-191.406,20.508,-67.383
1573889577,27.344,36.621,-128.418,34.668,-104.492
1573889577,36.133,29.785,110.352,45.898,76.66
1573889577,33.203,30.762,155.273,29.297,141.113
1573889577,14.648,29.785,-200.195,-0.977,-15.137
1573889577,14.16,24.902,-339.355,1.953,-89.844
1573889577,20.02,16.113,-81.543,22.949,54.199
1573889577,22.461,18.066,223.633,25.879,156.25
1573889577,18.066,23.926,-121.582,10.254,5.371
1573889577,11.23,25.391,-256.348,7.812,-99.609
1573889577,23.926,30.762,326.66,34.18,36.133
1573889577,37.598,36.133,524.902,47.363,153.32
1573889577,25.391,31.25,118.652,23.438,66.895
1573889577,12.207,31.25,-171.875,4.395,-90.82
1573889577,20.996,36.133,229.492,22.949,-28.809
1573889577,42.969,32.715,577.637,44.434,139.648
1573889577,42.969,26.367,88.379,37.598,86.426
1573889577,33.203,27.832,-567.871,20.508,-65.918
1573889577,37.109,35.156,-187.5,30.762,-43.457
1573889577,56.152,39.551,582.52,62.012,129.395
1573889577,65.918,38.574,344.238,61.523,146.484
1573889577,49.316,33.203,-179.688,34.18,-38.086
1573889577,45.41,31.738,2.93,35.156,-106.445
1573889577,63.477,36.621,416.016,60.547,50.781
1573889577,70.801,42.48,271.973,61.523,139.648
1573889577,57.617,41.992,-163.574,38.574,-1.465
1573889577,45.898,37.109,-76.172,31.25,-101.562
1573889577,50.293,35.645,395.02,48.828,7.324
1573889577,61.035,33.203,258.301,56.152,143.066
1573889577,50.293,27.832,-304.199,32.715,66.406
1573889577,32.715,31.25,-298.828,16.113,-105.469
1573889577,38.086,36.621,204.102,31.25,-41.504
1573889577,48.828,38.574,365.723,44.434,139.648
1573889577,43.945,43.457,-26.367,31.738,123.047
1573889577,31.25,41.016,-164.062,10.742,-16.113
1573889577,30.762,40.039,63.965,13.184,-64.941
1573889577,46.387,45.898,332.031,31.738,77.637
1573889577,51.758,41.016,170.41,29.297,158.691
1573889577,39.551,39.062,-190.43,8.789,4.883
1573889577,35.645,41.016,-93.262,7.324,-94.727
1573889577,46.387,34.668,110.84,30.762,20.996
1573889577,49.805,35.156,-2.93,40.527,134.766
1573889577,43.457,36.621,-200.195,24.414,45.41
1573889577,40.039,36.621,-208.496,21.484,-84.473
1573889577,51.27,38.086,-193.359,43.457,-31.25
1573889577,65.43,44.922,73.242,63.477,138.672
1573889577,62.012,47.363,80.078,53.223,107.422
1573889577,47.363,34.18,-349.121,29.785,-112.793
1573889577,47.852,27.832,-125,40.039,-88.379
1573889577,59.082,30.273,363.281,60.059,115.723
1573889577,49.316,30.762,245.117,44.922,145.996
1573889577,24.902,28.32,-258.301,17.578,-48.828
1573889577,30.762,36.133,-341.797,28.809,-131.836
1573889577,52.734,38.574,59.57,54.688,50.293
1573889577,55.176,35.156,38.574,52.734,141.113
1573889577,41.992,36.621,-516.602,29.785,10.254
1573889577,36.621,33.691,-577.148,22.949,-88.867
1573889577,44.922,34.668,198.242,47.363,34.18
1573889577,49.805,40.527,412.109,58.105,154.297
1573889577,43.457,38.574,-118.164,37.598,30.273
1573889577,26.855,34.18,-232.422,17.578,-97.656
1573889577,33.691,38.574,237.305,37.598,-18.555
1573889577,44.434,39.062,394.043,55.176,124.023
1573889577,34.18,36.621,-78.125,34.668,67.383
1573889577,20.508,36.621,-393.066,12.695,-67.383
1573889577,29.785,35.645,-109.863,27.344,-50.781
1573889577,53.223,39.062,84.473,54.199,61.523
1573889577,51.27,33.203,-381.348,47.852,66.895
1573889577,34.18,25.391,-589.355,25.879,-76.66
1573889577,31.25,26.855,-33.691,31.738,-90.82
1573889577,47.852,27.832,354.98,56.641,73.242
1573889577,55.664,28.32,238.77,59.57,159.668
1573889577,42.48,22.949,-63.965,37.109,9.277
1573889577,32.715,18.066,-26.367,29.785,-97.168
1573889577,42.969,22.461,326.172,53.223,32.715
1573889577,53.223,28.32,382.812,64.941,164.551
1573889577,41.992,31.25,-46.387,41.504,80.566
1573889577,27.832,28.32,-364.258,21.973,-113.281
1573889577,28.809,21.973,-253.906,33.203,-101.562
1573889577,38.574,21.484,-89.355,44.434,94.238
1573889577,34.668,22.461,28.32,27.832,113.77
1573889577,19.531,22.949,-331.055,11.23,-107.91
1573889577,21.484,24.902,-228.027,23.438,-121.094
1573889577,41.992,26.855,306.641,46.875,78.613
1573889577,47.852,26.367,262.207,42.969,132.324
1573889577,32.715,25.879,-125.488,20.508,-17.09
1573889577,29.297,29.297,-119.629,21.973,-102.539
1573889577,39.551,25.879,254.395,36.133,41.504
1573889577,47.852,33.691,152.832,39.062,141.113
1573889577,40.527,39.062,-313.965,22.949,13.672
1573889577,29.785,30.762,-659.668,10.254,-143.066
1573889577,38.086,30.762,-146.484,27.344,-27.832
1573889577,47.852,30.762,428.223,41.992,149.414
1573889577,36.133,24.902,12.695,21.484,70.312
1573889577,22.461,21.973,-241.211,7.324,-73.242
1573889577,28.32,29.785,67.871,25.879,-57.617
1573889577,48.34,36.133,343.75,48.34,95.215
1573889577,48.828,31.738,129.395,41.992,109.863
1573889577,30.762,32.227,-224.121,21.973,-65.918
1573889577,28.809,30.762,93.75,28.809,-88.379
1573889577,37.598,24.902,438.477,42.48,80.566
1573889577,35.156,22.461,1.953,31.738,106.934
1573889577,26.367,27.344,-542.969,9.766,-42.48
1573889577,23.926,35.156,-90.82,7.324,-87.891
1573889577,35.645,29.785,607.91,29.785,68.848
1573889577,39.551,22.461,535.156,31.25,166.016
1573889577,28.809,22.949,117.676,11.719,39.551
1573889577,19.043,27.832,169.434,0.488,-71.777
1573889577,20.508,35.156,565.918,15.137,9.766
1573889577,30.273,35.645,619.629,29.297,164.551
1573889577,19.043,27.832,195.312,5.371,96.68
1573889577,5.371,29.785,82.52,-9.277,-68.848
1573889577,16.113,36.133,292.48,15.137,-49.805
1573889577,31.25,37.109,343.75,33.203,109.375
1573889577,26.367,37.598,247.07,13.672,118.164
1573889577,9.766,32.227,108.398,-9.277,-65.43
1573889577,12.695,32.227,202.637,3.418,-109.375
1573889577,32.227,41.504,363.77,30.762,62.988
1573889577,37.598,45.41,417.48,31.738,154.297
1573889577,24.414,43.945,242.188,10.254,16.602
1573889577,18.066,48.828,145.02,12.207,-104.492
1573889577,27.832,48.828,515.625,32.227,26.855
1573889577,35.645,42.969,668.945,34.668,167.48
1573889577,22.949,36.133,328.613,11.719,81.543
1573889577,7.812,32.227,-59.57,-8.789,-55.176
1573889577,16.602,37.598,65.43,12.207,-2.93
1573889578,34.18,37.109,444.824,36.133,137.695
1573889578,27.344,33.203,331.543,22.949,108.398
1573889578,19.531,38.086,-207.031,11.719,-61.523
1573889578,24.414,38.574,-291.992,20.508,-106.445
1573889578,25.391,36.621,429.199,31.738,114.258
1573889578,26.855,40.527,424.316,26.855,166.016
1573889578,21.973,39.551,-155.273,8.301,-46.875
1573889578,18.066,40.039,-42.48,10.742,-105.469
1573889578,27.832,41.016,492.188,30.273,75.195
1573889578,36.133,37.598,395.02,28.32,151.855
1573889578,23.438,41.504,-213.867,5.859,7.324
1573889578,16.602,51.758,-289.062,6.836,-74.219
1573889578,28.809,55.176,62.988,28.32,2.441
1573889578,36.621,41.016,135.742,36.133,139.16
1573889578,33.691,32.715,-499.512,15.625,43.945
1573889578,24.414,37.109,-707.031,2.441,-110.352
1573889578,28.809,39.062,86.426,26.855,-22.461
1573889578,45.898,38.086,380.371,51.758,131.836
1573889578,44.922,38.574,5.371,38.574,87.402
1573889578,24.414,40.039,-180.664,13.672,-80.078
1573889578,21.484,41.992,96.68,23.438,-88.379
1573889578,41.016,40.039,331.055,49.805,73.73
1573889578,38.574,36.621,2.93,35.645,115.234
1573889578,27.832,45.41,-480.957,15.625,-61.523
1573889578,27.344,42.48,-339.844,23.926,-128.906
1573889578,35.645,34.18,142.578,37.109,48.34
1573889578,41.992,34.668,168.945,40.039,154.785
1573889578,23.926,35.645,-169.922,20.508,50.293
1573889578,12.207,40.527,-161.621,11.719,-68.848
1573889578,28.809,40.527,-5.371,29.297,4.883
1573889578,35.645,41.992,-40.039,36.621,140.137
1573889578,25.391,43.945,-36.133,18.066,99.609
1573889578,15.625,31.25,-218.262,8.789,-79.59
1573889578,19.043,23.926,-65.43,21.484,-80.566
1573889578,37.598,30.762,170.41,38.086,108.398
1573889578,35.645,32.715,-100.586,31.25,111.328
1573889578,21.973,33.691,-449.219,10.742,-43.945
1573889578,26.367,41.992,-302.246,18.066,-82.031
1573889578,41.016,42.969,329.102,40.039,113.77
1573889578,42.969,36.621,433.105,41.504,187.5
1573889578,32.227,36.621,-49.316,23.438,32.227
1573889578,34.18,29.785,-160.645,27.344,-52.734
1573889578,41.992,26.855,221.68,47.363,50.781
1573889578,44.922,38.086,438.965,52.246,169.434
1573889578,35.156,38.574,-77.148,29.297,47.363
1573889578,29.785,30.273,-471.68,19.531,-86.914
1573889578,45.41,30.762,40.039,51.758,13.672
1573889578,52.734,33.691,366.699,64.453,162.109
1573889578,42.969,36.621,-139.648,41.016,86.426
1573889578,26.855,37.598,-601.562,19.043,-118.164
1573889578,30.762,38.574,-3.906,31.738,-91.309
1573889578,47.363,37.109,560.547,56.152,105.957
1573889578,38.086,34.668,137.207,43.457,92.285
1573889578,23.926,38.086,-226.074,20.02,-64.941
1573889578,24.414,43.945,166.016,25.391,-76.172
1573889578,34.668,41.504,583.984,47.852,93.75
1573889578,39.062,35.156,328.613,43.945,156.738
1573889578,25.391,34.668,-71.289,13.672,10.742
1573889578,21.484,32.715,-75.684,10.254,-90.332
1573889578,33.691,33.203,202.637,30.762,32.227
1573889578,41.504,35.156,46.387,39.062,154.785
1573889578,36.133,33.691,-256.836,27.832,61.523
1573889578,23.926,40.039,-69.824,15.137,-93.75
1573889578,29.785,49.316,197.266,28.809,-48.34
1573889578,40.527,45.41,313.477,39.551,111.328
1573889578,33.203,35.156,122.559,24.902,86.426
1573889578,20.02,34.18,-109.863,8.301,-90.82
1573889578,19.531,41.504,-34.668,17.09,-116.211
1573889578,36.133,46.387,270.02,38.574,75.684
1573889578,43.945,51.27,224.121,35.645,149.414
1573889578,27.344,50.293,-204.102,16.602,-10.254
1573889578,19.531,41.504,-345.215,17.09,-92.285
1573889578,39.551,45.41,-69.824,38.574,68.848
1573889578,43.457,42.48,197.266,41.504,162.598
1573889578,28.32,35.156,-25.879,24.902,31.738
1573889578,27.832,42.48,-200.684,23.438,-108.887
1573889578,38.574,48.828,205.566,44.434,11.23
1573889578,51.27,46.875,511.23,58.594,187.988
1573889578,40.039,38.574,49.805,39.551,57.129
1573889578,20.508,36.621,-309.082,23.926,-112.793
1573889578,25.391,42.48,49.316,38.574,-45.41
1573889578,37.109,41.016,423.828,53.711,141.113
1573889578,29.297,34.668,-9.766,31.738,103.516
1573889578,13.184,33.691,-697.754,4.395,-71.289
1573889578,17.09,38.086,-358.887,19.043,-57.617
1573889578,33.691,38.086,260.742,43.945,91.797
1573889578,36.133,33.691,77.637,34.668,134.277
1573889578,25.391,33.691,-300.781,12.207,-25.879
1573889578,32.227,37.109,-120.117,21.484,-108.398
1573889578,46.387,41.016,441.406,44.434,86.914
1573889578,45.898,47.852,310.059,40.527,169.434
1573889578,35.156,49.805,-225.586,20.02,17.09
1573889578,27.832,37.598,-176.27,16.602,-77.148
1573889578,41.504,33.203,241.699,43.457,-1.953
1573889578,50.293,35.156,108.887,52.246,137.207
1573889578,38.086,34.18,-451.172,32.227,58.105
1573889578,23.438,37.598,-392.09,23.926,-98.145
1573889578,30.762,42.969,172.852,40.039,-15.137
1573889578,41.016,41.992,296.387,55.664,128.418
1573889578,29.297,35.645,-144.531,35.645,97.168
1573889578,16.113,32.715,-374.023,11.719,-45.41
1573889578,19.043,36.621,-69.336,21.484,-73.242
1573889578,34.668,40.039,274.902,39.551,78.125
1573889578,32.715,33.203,185.547,24.414,151.855
1573889578,20.02,38.086,-109.863,4.395,15.137
1573889578,21.973,44.434,-63.477,20.02,-67.871
1573889578,43.457,38.574,186.035,46.387,46.875
1573889578,51.758,36.621,61.035,47.852,147.949
1573889578,36.133,38.086,-255.371,20.996,51.758
1573889578,31.25,43.945,-244.141,12.695,-71.289
1573889578,39.551,42.48,-158.203,34.668,-14.16
1573889578,45.898,39.062,63.477,39.062,137.207
1573889578,41.016,36.133,102.539,22.949,111.816
1573889578,30.273,32.715,-211.914,12.695,-50.293
1573889578,32.227,34.668,-86.426,23.926,-39.062
1573889578,48.828,37.598,347.168,47.363,128.906
1573889578,49.805,37.109,200.684,40.527,119.629
1573889578,31.25,28.809,-303.223,15.137,-77.637
1573889578,21.484,22.461,-395.996,15.137,-154.297
1573889578,29.297,22.461,-2.93,35.645,42.48
1573889578,31.738,24.414,241.699,30.273,172.363
1573889578,27.344,23.438,-288.574,8.789,22.461
1573889578,25.391,30.273,-545.41,5.859,-94.238
1573889578,33.203,39.551,107.91,24.902,30.762
1573889578,43.457,34.18,294.434,31.25,157.715
1573889578,36.133,28.32,-102.051,13.184,67.383
1573889578,17.09,28.809,-209.473,0,-75.195
1573889578,23.438,31.738,247.07,21.973,-20.02
1573889578,42.969,36.133,407.227,45.898,152.344
1573889578,37.598,41.504,-3.906,34.668,113.77
1573889578,24.902,45.41,-333.008,21.973,-66.895
1573889578,26.367,40.039,-99.121,37.598,-54.688
1573889578,48.34,29.785,183.105,68.359,95.215
1573889578,55.176,20.996,-234.863,62.012,111.816
1573889578,35.645,23.926,-476.562,34.18,-38.086
1573889578,33.691,33.691,23.926,42.969,-87.402
1573889578,48.34,34.668,400.879,63.477,61.523
1573889578,49.805,35.156,299.805,55.664,151.855
1573889578,34.668,41.016,97.168,31.738,46.875
1573889578,26.855,36.133,187.012,25.391,-51.758
1573889578,29.297,25.879,488.281,33.691,37.109
1573889578,37.598,26.367,538.574,33.203,157.715
1573889578,23.926,25.879,23.438,8.301,35.645
1573889578,3.906,26.367,-275.391,-6.836,-129.395
1573889578,13.672,28.809,-26.367,10.742,-69.336
1573889578,25.879,31.25,208.008,22.461,133.789
1573889578,16.602,34.668,341.797,12.695,149.902
1573889578,2.441,33.691,236.328,-6.348,-29.297
1573889578,2.441,37.598,396.484,-0.977,-38.574
1573889578,18.066,43.945,746.094,25.391,119.141
1573889578,19.531,31.25,650.391,20.02,148.926
1573889578,1.465,22.949,262.207,-4.883,2.441
1573889578,-1.465,27.344,216.797,-2.93,-84.473
1573889578,14.16,32.715,550.781,23.438,17.09
1573889578,26.855,38.574,532.227,32.227,142.09
1573889578,22.461,38.086,-1.953,18.066,13.672
1573889578,16.113,39.062,-176.27,11.719,-122.07
1573889578,21.484,44.434,268.066,30.273,-17.09
1573889578,35.645,45.41,517.578,51.27,122.559
1573889578,36.621,39.551,250.488,43.457,81.055
1573889578,26.855,35.645,-216.797,27.832,-72.266
1573889578,32.715,38.086,139.16,45.41,-52.734
1573889578,51.27,38.574,719.727,71.289,125.977
1573889578,53.711,40.527,370.117,62.988,119.629
1573889578,42.48,46.387,-24.902,42.969,-48.828
1573889578,41.504,39.551,266.602,51.758,-76.172
1573889578,48.828,31.738,535.156,69.824,78.125
1573889578,42.969,28.809,155.273,55.664,126.465
1573889578,23.926,27.344,-258.301,30.273,-26.367
1573889578,12.695,35.156,18.555,27.832,-101.074
1573889578,26.367,41.504,521.973,45.41,37.598
1573889578,33.691,39.062,316.895,43.457,158.203
1573889578,13.672,35.156,-354.004,12.695,18.555
1573889578,-1.953,35.645,-214.355,0,-102.051
1573889578,8.301,39.551,342.285,21.973,-6.836
1573889578,23.438,38.574,202.637,33.203,126.465
1573889578,16.602,38.086,-220.703,14.16,73.242
1573889578,4.883,45.41,-234.375,2.441,-82.52
1573889578,12.695,48.828,-60.547,17.578,-58.105
1573889578,30.273,47.852,120.605,37.109,104.492
1573889578,34.18,47.363,41.992,31.738,113.281
1573889578,20.996,41.016,-147.949,10.254,-66.406
1573889578,24.902,47.363,-118.652,18.555,-149.414
1573889578,40.527,53.223,-66.895,40.039,20.508
1573889578,44.434,50.781,-59.082,35.645,124.023
1573889578,37.109,53.711,-109.863,19.531,5.859
1573889578,30.762,51.758,-197.266,15.625,-100.098
1573889578,39.062,44.434,51.758,32.715,15.625
1573889578,48.34,46.387,274.414,43.945,161.133
1573889578,42.48,49.316,15.137,29.297,67.871
1573889578,31.738,45.898,-410.645,18.066,-90.82
1573889578,39.551,40.039,-289.062,38.086,-44.922
1573889578,46.875,40.527,192.383,56.641,124.023
1573889578,32.227,42.48,117.188,40.039,120.605
1573889578,19.531,38.574,-365.723,18.066,-53.223
1573889578,21.484,33.203,-274.414,25.879,-78.613
1573889578,30.273,33.203,291.016,45.898,96.191
1573889578,30.762,33.691,138.184,40.527,115.234
1573889578,17.09,37.109,-309.082,17.578,-53.711
1573889578,15.137,49.805,-164.551,14.16,-113.281
1573889578,37.598,53.223,374.512,41.016,63.477
1573889578,47.852,39.551,207.52,48.34,143.555
1573889578,31.25,28.809,-406.25,23.438,-7.812
1573889578,19.043,24.414,-422.363,17.578,-111.328
1573889578,41.992,26.855,226.074,54.199,34.18
1573889578,63.477,36.133,410.645,74.219,177.734
1573889578,43.945,40.527,-155.273,38.574,40.527
1573889578,24.902,45.898,-235.352,20.02,-110.352
1573889578,31.25,48.828,311.523,41.016,-11.719
1573889578,50.781,49.316,450.684,57.617,146.973
1573889578,51.27,49.805,-142.09,49.316,91.309
1573889578,32.715,51.758,-277.832,30.273,-63.965
1573889578,35.645,52.246,172.363,35.156,-65.918
1573889578,52.246,44.434,415.527,59.57,81.055
1573889578,48.34,33.203,122.559,54.688,131.348
1573889578,33.203,33.691,-305.176,33.203,-35.645
1573889578,30.273,42.969,-274.414,34.18,-136.719
1573889578,43.457,45.898,150.879,48.34,47.363
1573889578,50.293,45.898,273.438,46.875,165.039
1573889578,32.715,44.434,44.434,19.531,55.176
1573889578,20.508,48.828,54.688,7.812,-72.754
1573889578,35.645,46.875,66.895,30.762,-29.297
1573889578,41.504,42.48,-8.789,35.645,119.629
1573889578,24.902,43.457,-37.598,9.277,63.477
1573889578,22.949,41.504,-168.457,3.418,-93.75
1573889578,34.18,41.016,55.664,23.438,-57.617
1573889578,41.504,39.062,301.27,38.574,125.488
1573889578,38.574,40.039,22.949,30.273,129.883
1573889578,25.879,43.457,-349.121,12.695,-52.734
1573889578,30.273,42.969,-442.383,22.461,-111.328
1573889578,52.246,49.805,-2.441,55.176,74.707
1573889578,59.57,47.852,222.168,62.012,154.297
1573889578,40.527,35.645,-198.242,35.645,-2.441
1573889578,37.109,41.016,-156.738,34.668,-83.496
1573889578,53.711,43.945,336.426,58.594,34.668
1573889578,58.594,43.945,388.672,64.453,139.648
1573889578,41.992,43.945,-92.773,41.016,52.734
1573889578,29.297,37.598,-189.453,30.273,-53.711
1573889578,39.062,35.645,123.047,52.734,8.301
1573889578,48.34,35.156,253.906,61.035,146.973
1573889578,44.434,36.621,-229.98,40.527,59.57
1573889578,30.762,34.668,-698.242,23.438,-113.281
1573889578,30.762,35.156,-65.43,36.133,-49.805
1573889578,46.387,40.527,375.488,58.105,95.703
1573889578,39.551,42.48,23.438,44.922,102.539
1573889578,17.09,38.574,-270.02,19.531,-32.715
1573889578,15.137,36.621,-10.742,23.926,-93.262
1573889578,30.273,35.645,342.773,45.898,60.547
1573889578,35.156,30.273,212.891,43.457,165.039
1573889578,20.02,31.25,-211.914,14.648,-5.859
1573889578,8.789,38.574,-229.004,10.742,-98.633
1573889578,22.949,44.434,87.891,36.133,34.668
1573889578,30.273,34.668,-157.227,41.016,120.605
1573889578,11.719,30.762,-419.434,14.648,65.918
1573889578,0.488,32.227,-160.156,-0.488,-60.547
1573889578,14.16,34.668,116.699,21.484,-30.273
1573889579,33.203,42.48,271.484,42.969,143.555
1573889579,32.227,40.039,22.461,31.738,75.684
1573889579,24.902,34.18,-211.426,19.531,-94.727
1573889579,30.762,33.203,-62.012,34.18,-63.477
1573889579,43.945,32.715,233.887,55.664,112.305
1573889579,42.969,26.855,254.883,47.852,165.039
1573889579,31.738,28.32,-209.961,29.297,-16.602
1573889579,29.297,31.25,-471.68,38.574,-125.488
1573889579,39.551,36.621,-166.504,60.547,40.527
1573889579,43.945,40.527,141.602,57.617,154.297
1573889579,30.762,34.18,-140.625,33.691,-14.16
1573889579,25.391,35.156,-270.508,28.32,-126.465
1573889579,40.039,43.457,164.062,49.316,10.742
1573889579,46.387,41.016,441.895,56.152,174.805
1573889579,40.039,39.062,84.473,39.062,90.82
1573889579,33.203,49.805,-190.43,29.297,-62.5
1573889579,35.645,48.34,213.379,45.41,6.348
1573889579,42.48,36.133,419.922,55.664,155.762
1573889579,32.715,26.367,-122.07,35.645,85.449
1573889579,16.113,26.367,-722.656,12.695,-78.125
1573889579,20.996,34.668,-387.695,21.484,-68.359
1573889579,37.109,40.527,342.285,39.062,93.262
1573889579,37.598,43.457,197.754,33.691,147.949
1573889579,24.414,44.922,-244.629,15.137,-7.324
1573889579,21.973,42.48,-36.133,14.16,-78.125
1573889579,32.715,35.156,417.48,33.691,55.176
1573889579,38.574,30.762,292.48,36.621,154.785
1573889579,30.762,25.879,-206.055,13.672,15.137
1573889579,30.762,30.273,-165.039,15.625,-105.957
1573889579,42.48,34.668,247.07,41.504,12.695
1573889579,53.711,34.668,172.363,55.176,143.555
1573889579,47.363,40.527,-206.055,40.039,95.703
1573889579,33.203,44.434,-386.719,25.879,-60.547
1573889579,40.039,42.969,60.059,45.41,-37.598
1573889579,55.664,33.203,223.145,62.012,120.117
1573889579,50.293,21.973,-316.895,42.48,103.516
1573889579,30.762,20.02,-378.906,18.555,-59.57
1573889579,35.156,30.762,-13.184,34.668,-91.309
1573889579,53.223,41.992,289.062,61.523,74.707
1573889579,54.199,43.457,169.922,56.641,130.859
1573889579,35.645,36.133,-131.836,33.203,-18.555
1573889579,25.391,36.621,-106.445,28.32,-109.375
1573889579,41.016,37.109,141.602,48.828,20.996
1573889579,51.27,31.738,114.258,54.688,151.855
1573889579,37.109,34.18,-156.25,33.203,47.852
1573889579,31.25,35.645,-125,23.438,-69.336
1573889579,43.457,37.109,-44.434,41.016,-14.16
1573889579,49.805,38.086,136.719,49.805,118.164
1573889579,43.945,37.598,236.816,35.156,102.051
1573889579,35.645,38.574,-77.148,20.02,-92.773
1573889579,40.527,40.039,137.207,35.156,-80.078
1573889579,53.223,37.109,622.559,58.594,113.77
1573889579,48.828,33.203,488.281,46.875,131.348
1573889579,37.598,37.598,91.797,24.902,-32.715
1573889579,37.598,40.039,103.516,31.738,-87.891
1573889579,48.828,31.738,457.031,49.316,83.008
1573889579,52.734,27.832,452.637,50.293,140.137
1573889579,41.016,29.785,-112.793,29.297,-33.691
1573889579,32.227,30.762,-272.461,20.02,-121.582
1573889579,45.41,37.109,428.711,47.852,7.324
1573889579,52.734,37.109,671.387,56.641,142.09
1573889579,40.527,30.762,187.5,34.18,45.41
1573889579,34.18,27.832,34.18,27.344,-110.352
1573889579,41.504,34.18,511.23,41.992,-40.039
1573889579,54.688,40.527,727.051,57.617,136.23
1573889579,51.758,35.156,293.945,41.016,80.078
1573889579,32.227,25.879,-70.801,14.16,-78.613
1573889579,33.691,27.344,154.785,24.902,-60.059
1573889579,46.387,32.715,516.602,46.387,114.746
1573889579,44.434,31.738,69.824,38.574,132.812
1573889579,29.785,34.668,-306.152,16.113,-37.598
1573889579,27.832,37.598,208.008,23.438,-84.473
1573889579,45.898,37.598,644.531,49.805,96.68
1573889579,45.898,39.551,516.113,47.852,186.035
1573889579,32.715,41.992,162.109,25.879,26.367
1573889579,26.367,38.574,67.871,24.414,-94.238
1573889579,38.574,35.645,188.965,45.41,-25.879
1573889579,48.34,34.18,292.48,51.27,112.305
1573889579,35.156,26.367,-37.598,26.367,51.27
1573889579,19.531,27.344,-279.785,8.789,-100.586
1573889579,24.414,36.621,-43.457,25.391,-47.363
1573889579,39.551,36.133,-85.938,46.875,101.562
1573889579,37.109,39.062,-107.422,39.062,96.68
1573889579,23.438,38.574,-174.316,27.344,-60.547
1573889579,21.973,32.227,-70.801,38.086,-71.289
1573889579,32.715,31.25,346.191,55.176,93.262
1573889579,36.621,31.25,317.871,54.199,142.578
1573889579,23.438,29.297,-96.191,33.691,-31.25
1573889579,13.184,28.809,-157.227,32.715,-135.742
1573889579,26.855,33.203,190.43,55.176,16.113
1573889579,33.203,28.809,125.488,52.734,146.484
1573889579,15.137,24.414,-327.637,22.461,28.32
1573889579,4.883,31.25,-564.453,9.766,-137.207
1573889579,14.648,35.156,-41.992,25.879,-16.602
1573889579,27.344,32.715,439.941,38.086,182.617
1573889579,21.484,27.344,36.621,20.02,113.281
1573889579,10.254,25.879,-338.379,6.836,-64.941
1573889579,24.902,30.273,90.332,26.367,-19.043
1573889579,38.086,28.809,447.266,45.898,141.113
1573889579,29.785,23.926,-50.781,29.785,102.051
1573889579,16.113,19.531,-659.18,5.371,-77.637
1573889579,15.625,21.484,-234.863,20.996,-87.402
1573889579,36.133,30.273,269.531,52.246,112.793
1573889579,43.457,32.715,12.207,43.945,173.34
1573889579,24.902,26.367,-360.352,18.066,12.695
1573889579,14.648,27.344,-256.348,19.531,-92.285
1573889579,21.484,27.832,264.648,33.691,27.344
1573889579,27.832,20.508,148.926,32.715,148.438
1573889579,15.137,22.461,-366.699,11.23,37.109
1573889579,3.418,23.438,-146.484,0.977,-65.43
1573889579,11.23,20.508,290.039,19.531,-8.301
1573889579,22.461,20.996,177.734,30.273,118.164
1573889579,16.602,25.391,-139.648,18.555,92.773
1573889579,5.371,32.715,-108.887,7.812,-61.523
1573889579,15.625,34.668,80.078,26.367,-66.406
1573889579,35.156,31.738,-9.766,48.34,86.914
1573889579,29.785,28.809,-161.621,30.762,115.234
1573889579,15.625,29.297,-121.582,10.254,-41.504
1573889579,18.555,31.738,45.898,23.926,-72.266
1573889579,35.156,35.645,337.402,48.828,82.52
1573889579,47.852,39.062,369.141,52.246,157.715
1573889579,36.621,39.062,54.199,31.25,5.859
1573889579,27.344,38.574,-26.367,30.762,-101.562
1573889579,40.527,36.621,279.297,48.828,13.672
1573889579,46.387,31.25,409.668,49.316,142.578
1573889579,38.086,31.25,131.836,30.273,66.406
1573889579,24.902,32.227,-275.391,15.625,-83.496
1573889579,29.297,38.086,-133.789,31.738,-23.438
1573889579,37.109,36.133,354.004,39.551,149.414
1573889579,27.832,31.738,189.941,20.02,107.91
1573889579,18.555,40.039,-302.734,7.812,-83.008
1573889579,23.438,43.457,-154.785,20.508,-83.008
1573889579,36.621,37.598,457.031,38.574,126.465
1573889579,30.762,31.25,178.223,30.273,132.812
1573889579,11.719,32.227,-439.941,8.789,-43.945
1573889579,20.996,37.109,-162.109,17.09,-68.848
1573889579,39.551,38.086,401.367,43.945,68.359
1573889579,39.062,39.062,308.105,44.434,174.316
1573889579,27.832,40.039,-267.09,25.391,21.973
1573889579,25.391,38.574,-390.137,28.32,-114.258
1573889579,32.715,34.668,137.207,43.945,23.926
1573889579,39.062,34.668,292.969,46.387,158.691
1573889579,27.832,34.668,-129.395,27.832,84.961
1573889579,17.09,36.621,-171.387,19.043,-55.176
1573889579,23.438,37.598,259.277,40.527,-13.672
1573889579,31.25,33.691,383.789,50.293,145.02
1573889579,27.832,36.621,-354.004,32.227,75.684
1573889579,17.578,44.922,-695.801,16.602,-96.68
1573889579,22.949,47.852,-153.809,25.879,-67.383
1573889579,39.062,40.527,186.035,51.27,75.684
1573889579,40.039,34.668,-17.578,46.387,135.254
1573889579,29.785,36.133,-356.934,22.949,1.465
1573889579,29.785,39.551,-124.023,30.273,-59.082
1573889579,42.48,41.016,197.266,50.781,76.66
1573889579,48.828,39.551,-71.777,50.293,146.484
1573889579,36.133,44.434,-189.453,30.273,33.203
1573889579,26.367,45.898,-106.445,21.484,-100.586
1573889579,35.156,33.691,129.883,33.691,-21.973
1573889579,41.992,29.297,268.066,46.387,134.277
1573889579,31.25,31.25,32.227,30.273,72.754
1573889579,14.648,29.297,-194.336,8.789,-85.938
1573889579,16.113,31.25,42.48,19.531,-35.645
1573889579,33.691,37.109,225.098,42.48,125.977
1573889579,35.645,34.18,-89.355,39.551,114.746
1573889579,21.484,25.391,-458.008,19.531,-68.848
1573889579,30.273,25.879,-515.625,29.297,-116.211
1573889579,48.34,34.18,-31.25,53.223,75.684
1573889579,54.199,37.598,240.234,55.176,157.715
1573889579,45.41,33.691,-202.148,34.18,-18.066
1573889579,39.551,32.227,-163.574,31.25,-81.055
1573889579,47.852,35.645,375,57.617,66.895
1573889579,51.27,38.574,434.082,63.477,169.922
1573889579,40.039,38.574,-95.215,42.969,42.48
1573889579,26.367,34.18,-274.902,31.738,-104.492
1573889579,35.156,30.273,92.285,52.246,-2.441
1573889579,42.48,26.367,281.25,62.012,163.086
1573889579,33.691,24.414,-213.379,37.109,73.242
1573889579,21.484,28.809,-646.973,19.043,-118.652
1573889579,27.832,30.762,-13.184,34.18,-50.293
1573889579,42.48,26.367,431.641,48.34,130.859
1573889579,38.086,24.414,38.086,31.738,116.699
1573889579,23.926,27.344,-309.082,8.789,-30.273
1573889579,17.578,33.203,-8.789,11.23,-69.824
1573889579,29.785,36.133,395.996,33.203,79.59
1573889579,39.062,39.551,59.57,32.227,138.184
1573889579,24.414,36.133,-403.809,10.254,-20.508
1573889579,16.113,28.32,-286.621,9.277,-102.539
1573889579,28.809,33.691,10.742,36.133,20.996
1573889579,36.133,42.48,88.379,45.41,137.207
1573889579,29.785,42.48,-104.98,26.855,53.223
1573889579,20.996,38.086,-91.309,16.113,-81.543
1573889579,33.203,37.109,108.398,35.156,-29.297
1573889579,52.734,36.133,-63.477,52.246,115.234
1573889579,42.48,39.062,-258.301,35.156,83.496
1573889579,27.344,41.504,-147.949,20.996,-69.336
1573889579,37.109,42.969,-55.176,38.574,-85.938
1573889579,54.199,41.016,93.262,55.664,79.102
1573889579,50.293,37.109,151.367,43.457,135.742
1573889579,36.133,39.551,-252.93,25.391,-41.504
1573889579,33.203,38.086,-322.266,30.273,-103.027
1573889579,44.434,32.715,148.438,47.363,54.199
1573889579,48.828,30.762,267.578,45.41,149.414
1573889579,36.133,29.785,-37.109,24.902,11.23
1573889579,30.762,32.715,-330.566,20.508,-117.188
1573889579,37.598,33.691,-197.754,37.598,-12.207
1573889579,44.434,29.785,211.914,43.945,164.551
1573889579,36.133,32.227,-19.531,26.367,92.773
1573889579,22.949,37.109,-279.785,16.602,-85.449
1573889579,30.762,40.527,144.043,35.645,-15.625
1573889579,45.41,40.527,553.711,56.152,165.527
1573889579,42.48,37.109,146.484,42.969,120.605
1573889579,25.391,35.645,-582.52,19.043,-80.566
1573889579,23.926,38.574,-392.09,27.832,-115.723
1573889579,37.109,42.48,454.102,47.852,91.309
1573889579,41.504,39.551,375.488,41.504,139.648
1573889579,30.273,31.738,-277.832,20.996,-32.227
1573889579,22.949,29.297,-29.297,20.996,-74.219
1573889579,39.062,34.668,665.039,43.945,79.102
1573889579,48.828,36.621,617.676,46.387,176.758
1573889579,38.086,36.621,120.605,23.926,16.113
1573889579,24.902,35.156,-33.691,13.672,-141.602
1573889579,31.738,36.133,441.406,37.598,-26.367
1573889579,47.363,39.062,479.492,56.152,134.277
1573889579,38.574,36.133,-51.27,34.668,51.27
1573889579,23.926,40.527,77.637,20.996,-70.801
1573889579,32.715,45.898,615.723,39.551,-8.789
1573889579,43.457,39.551,698.242,51.758,134.766
1573889579,32.227,31.738,333.496,31.738,112.305
1573889579,19.531,33.203,125,14.16,-76.66
1573889579,29.297,37.109,300.293,24.414,-116.699
1573889579,47.363,38.086,571.289,44.922,54.688
1573889579,44.922,38.574,486.816,42.48,138.672
1573889579,29.297,36.621,196.777,18.555,-11.719
1573889579,23.926,33.203,221.191,17.578,-100.586
1573889579,36.621,32.227,470.703,42.969,45.41
1573889579,46.875,34.668,313.965,51.27,134.277
1573889579,34.18,34.668,-77.637,30.273,29.785
1573889579,26.855,33.691,-179.688,21.973,-104.492
1573889579,41.504,35.645,-18.555,41.504,-26.367
1573889579,44.434,31.738,291.016,49.805,158.691
1573889579,37.598,33.203,306.641,32.227,107.422
1573889579,35.156,34.668,-14.16,20.02,-58.105
1573889579,42.969,28.32,196.777,32.715,-19.043
1573889579,50.293,25.391,564.941,42.48,128.418
1573889579,45.41,28.32,300.293,34.668,115.723
1573889579,32.227,29.297,-129.883,12.695,-40.527
1573889579,25.391,29.785,-193.848,11.719,-105.469
1573889579,35.645,31.738,119.141,36.133,37.598
1573889579,39.062,31.25,297.852,33.691,151.855
1573889579,28.32,30.273,-354.004,9.277,-34.668
1573889579,20.508,31.25,-660.645,3.906,-164.062
1573889579,26.367,35.156,149.902,25.391,26.367
1573889579,33.203,33.691,449.707,34.668,175.781
1573889579,19.043,28.809,-47.852,11.23,60.059
1573889579,8.789,28.809,-223.145,2.441,-94.727
1573889579,21.973,37.109,250,30.273,-15.137
1573889580,29.297,42.48,437.5,47.363,136.23
1573889580,24.902,35.156,10.254,33.203,88.867
1573889580,19.043,28.809,-338.867,17.09,-60.059
1573889580,21.484,28.809,-192.871,30.273,-75.195
1573889580,31.738,29.785,124.023,53.223,89.355
1573889580,31.738,30.273,-323.73,39.062,114.258
1573889580,18.066,32.227,-714.844,14.16,-61.523
1573889580,16.602,33.203,-229.98,24.414,-93.75
1573889580,31.25,32.227,92.285,51.27,66.895
1573889580,35.156,33.691,47.852,49.805,153.809
1573889580,22.461,33.691,-138.672,25.879,41.992
1573889580,17.09,36.621,-45.41,22.949,-47.363
1573889580,27.832,39.551,263.184,38.574,45.41
1573889580,31.738,34.668,302.734,40.527,163.574
1573889580,21.973,27.832,-172.852,21.973,55.664
1573889580,13.184,30.273,-391.113,12.695,-103.516
1573889580,21.484,32.227,-87.891,30.762,-43.945
1573889580,36.133,24.902,139.16,44.922,130.371
1573889580,27.832,24.414,32.227,30.273,98.145
1573889580,16.602,29.297,-141.602,11.719,-61.035
1573889580,19.531,26.855,-158.691,20.02,-77.637
1573889580,28.809,26.855,-25.879,37.598,79.59
1573889580,27.832,33.691,36.133,27.344,131.348
1573889580,14.16,38.086,-254.395,4.883,-38.574
1573889580,15.137,37.109,-145.508,11.719,-105.957
1573889580,27.832,33.203,338.379,31.25,52.734
1573889580,31.25,32.227,318.848,32.715,162.598
1573889580,22.461,32.715,-252.93,14.648,8.789
1573889580,13.184,29.297,-446.777,9.766,-153.32
1573889580,18.555,30.273,138.672,30.762,-9.766
1573889580,33.203,31.738,599.609,46.387,190.918
1573889580,27.344,23.438,196.777,31.25,101.074
1573889580,12.207,23.438,-428.711,13.672,-95.215
1573889580,14.648,25.879,-51.27,32.715,-43.945
1573889580,27.344,25.391,553.711,51.758,140.137
1573889580,29.785,27.344,231.934,43.457,124.512
1573889580,20.508,30.273,-254.395,30.273,-53.223
1573889580,18.066,34.668,10.742,36.621,-55.176
1573889580,32.227,34.18,388.184,54.199,89.844
1573889580,33.203,28.32,20.996,44.434,130.371
1573889580,10.742,27.344,-459.473,10.742,13.672
1573889580,4.395,29.785,-149.414,3.906,-81.055
1573889580,19.043,29.297,482.422,28.809,62.012
1573889580,24.902,28.32,428.711,29.785,176.27
1573889580,14.16,24.414,-67.383,4.395,25.391
1573889580,7.812,25.879,-83.008,-0.977,-103.027
1573889580,19.043,29.785,322.754,19.531,4.395
1573889580,31.738,31.738,429.688,33.203,162.598
1573889580,27.344,34.18,50.781,22.949,82.031
1573889580,20.508,36.133,-149.902,11.719,-84.473
1573889580,29.785,36.621,72.266,28.809,-33.691
1573889580,46.875,41.992,-25.879,52.734,110.84
1573889580,35.156,36.133,-266.113,42.969,106.934
1573889580,18.066,30.273,-217.773,25.879,-39.062
1573889580,26.367,35.156,-84.961,40.527,-92.285
1573889580,40.039,31.25,225.098,56.641,74.219
1573889580,41.504,29.297,293.457,50.781,168.457
1573889580,29.297,28.809,-42.48,27.344,19.043
1573889580,24.414,27.832,-149.414,21.484,-81.543
1573889580,35.645,30.762,173.828,42.48,48.34
1573889580,42.48,35.645,375,48.828,188.965
1573889580,32.715,37.598,99.609,26.855,102.539
1573889580,22.949,40.039,-322.266,14.648,-56.641
1573889580,30.762,44.434,-266.113,34.668,-35.645
1573889580,42.48,44.922,265.625,53.223,152.344
1573889580,39.062,36.621,36.621,39.062,116.211
1573889580,23.438,31.738,-499.512,16.113,-88.867
1573889580,25.391,34.18,-164.551,28.809,-66.406
1573889580,38.574,39.551,390.137,53.711,125.488
1573889580,37.598,40.039,277.344,45.898,160.156
1573889580,20.508,32.715,-263.184,17.578,-2.441
1573889580,14.648,32.715,-195.801,12.207,-57.129
1573889580,26.367,37.109,341.797,37.109,85.938
1573889580,33.691,32.715,324.707,43.945,184.082
1573889580,20.996,21.973,-218.75,20.996,47.363
1573889580,14.16,25.879,-440.918,15.625,-102.051
1573889580,31.25,33.691,66.895,41.992,15.625
1573889580,45.898,28.32,267.09,50.781,149.902
1573889580,40.039,24.902,-438.965,32.227,43.457
1573889580,31.25,30.273,-614.746,24.414,-104.004
1573889580,44.434,36.133,10.254,46.387,-33.203
1573889580,62.5,41.992,312.988,63.965,166.016
1573889580,56.152,39.551,46.387,50.293,135.254
1573889580,39.551,39.551,-212.402,35.156,-65.918
1573889580,42.48,43.457,90.82,48.828,-67.383
1573889580,53.223,34.18,349.609,68.848,104.98
1573889580,50.781,28.809,-19.531,61.035,127.441
1573889580,35.156,29.785,-441.406,36.621,-28.32
1573889580,25.879,30.273,-284.668,34.18,-112.305
1573889580,37.109,32.715,55.176,48.34,38.086
1573889580,39.062,36.133,-96.191,42.48,155.273
1573889580,20.02,38.574,-250.488,18.066,21.973
1573889580,11.719,34.668,-146.484,8.789,-103.516
1573889580,21.973,31.25,204.59,29.297,12.695
1573889580,28.809,25.391,279.297,37.109,167.969
1573889580,21.973,23.438,-1.465,15.625,97.656
1573889580,17.09,25.879,-172.852,4.395,-84.473
1573889580,26.367,26.367,7.812,25.879,-52.246
1573889580,41.016,34.18,285.156,45.41,155.273
1573889580,37.109,39.551,-11.719,32.715,130.859
1573889580,19.531,29.785,-348.633,12.207,-47.363
1573889580,22.461,24.414,-384.277,20.508,-82.52
1573889580,36.621,30.762,-26.367,35.645,72.754
1573889580,40.039,33.691,281.25,34.18,159.668
1573889580,34.18,35.156,-182.617,18.066,-20.508
1573889580,28.809,38.086,-362.793,14.648,-147.949
1573889580,35.156,34.668,192.871,34.668,4.395
1573889580,42.969,26.855,417.969,36.133,160.156
1573889580,34.18,32.715,-108.887,13.184,26.855
1573889580,27.832,39.062,-385.742,4.883,-119.629
1573889580,36.621,33.203,-59.57,22.949,-35.645
1573889580,43.457,29.297,114.746,33.203,119.141
1573889580,44.922,31.738,-294.434,21.973,88.867
1573889580,33.203,31.738,-681.152,6.836,-91.797
1573889580,33.203,35.156,-86.914,17.09,-65.918
1573889580,50.781,41.016,483.887,41.016,129.883
1573889580,50.781,42.969,192.383,35.156,132.812
1573889580,31.25,43.457,-184.082,7.812,-42.969
1573889580,27.832,44.922,105.469,13.184,-61.523
1573889580,43.945,41.504,501.465,44.922,97.168
1573889580,45.41,39.062,300.781,41.504,155.762
1573889580,29.785,31.738,-49.316,20.02,25.879
1573889580,27.344,27.344,-117.676,21.484,-86.426
1573889580,46.387,32.227,125.488,45.898,37.109
1573889580,58.594,37.109,199.707,57.129,175.781
1573889580,48.34,44.434,-12.207,44.922,69.336
1573889580,38.574,41.504,57.129,35.156,-71.289
1573889580,43.457,36.133,332.52,45.898,-16.602
1573889580,49.805,33.203,256.348,55.176,106.445
1573889580,42.969,29.785,43.457,37.598,69.824
1573889580,26.855,32.715,-27.832,17.578,-82.52
1573889580,24.414,31.738,196.289,28.32,-68.848
1573889580,38.574,31.25,508.789,49.805,96.68
1573889580,35.645,36.621,438.965,39.062,129.883
1573889580,21.484,37.109,10.742,14.16,-42.48
1573889580,22.461,38.086,-124.023,19.043,-120.605
1573889580,39.551,36.621,168.457,42.48,23.926
1573889580,37.598,31.738,408.691,37.598,134.277
1573889580,21.973,30.762,167.48,14.648,8.789
1573889580,16.113,32.227,-81.543,2.441,-117.676
1573889580,25.879,35.645,363.77,22.461,36.621
1573889580,35.156,34.18,743.164,41.016,177.246
1573889580,25.391,29.297,392.09,20.996,75.684
1573889580,14.648,26.855,84.473,9.766,-97.656
1573889580,20.02,31.738,391.602,26.855,-48.34
1573889580,32.227,36.133,802.246,39.062,165.527
1573889580,30.273,33.691,278.32,26.367,97.168
1573889580,17.578,31.738,-359.375,9.277,-110.352
1573889580,15.137,34.18,37.109,16.602,-84.473
1573889580,33.203,41.992,662.109,41.016,114.746
1573889580,38.086,37.109,521.484,41.504,166.992
1573889580,23.438,31.738,-266.113,17.578,-23.926
1573889580,22.949,35.156,-351.074,13.184,-123.535
1573889580,40.039,37.109,301.758,42.48,13.672
1573889580,50.293,35.645,323.73,49.805,121.582
1573889580,36.621,34.18,-83.984,24.414,19.043
1573889580,24.902,39.551,-28.809,10.742,-107.422
1573889580,37.598,35.645,365.723,33.203,-20.02
1573889580,47.363,30.273,287.598,51.27,124.512
1573889580,37.109,35.645,-133.789,29.785,74.219
1573889580,24.414,39.062,-154.785,13.184,-69.824
1573889580,28.32,37.109,259.766,24.414,-33.203
1573889580,43.457,37.598,246.094,40.039,100.098
1573889580,38.086,37.598,-302.246,28.809,83.008
1573889580,24.902,43.457,-300.293,11.23,-43.945
1573889580,28.809,51.758,92.285,19.043,-73.73
1573889580,40.039,44.922,282.227,42.969,72.754
1573889580,39.062,34.668,-7.324,41.016,115.234
1573889580,26.367,34.668,-265.137,14.16,-31.738
1573889580,27.344,37.109,-107.422,21.484,-107.422
1573889580,46.875,45.898,166.016,55.664,24.902
1573889580,53.223,49.316,85.449,56.152,148.926
1573889580,39.062,41.016,-187.012,31.25,63.965
1573889580,30.762,37.598,-198.73,26.855,-69.336
1573889580,37.109,37.109,-136.719,41.992,-39.062
1573889580,41.016,37.598,53.223,52.734,130.371
1573889580,31.738,41.992,7.324,36.133,95.703
1573889580,20.996,42.48,-312.5,20.02,-71.289
1573889580,27.344,41.992,-274.414,34.668,-45.898
1573889580,38.086,44.922,121.582,51.27,110.352
1573889580,34.18,43.457,127.441,38.574,131.836
1573889580,20.508,39.551,-309.082,18.555,-34.18
1573889580,21.973,40.527,-319.824,24.414,-94.238
1573889580,36.133,41.016,68.359,44.922,67.871
1573889580,38.086,41.016,71.777,44.922,139.648
1573889580,28.32,41.992,-374.512,27.344,-28.809
1573889580,24.414,48.828,-338.379,22.949,-115.723
1573889580,36.133,58.594,338.379,40.039,63.965
1573889580,47.363,53.711,509.277,54.199,177.246
1573889580,35.156,43.945,-294.434,28.809,7.324
1573889580,21.484,42.969,-656.25,11.23,-115.723
1573889580,27.832,43.457,122.07,34.18,5.371
1573889580,41.016,47.363,547.852,49.805,187.012
1573889580,41.016,52.734,113.281,35.156,118.652
1573889580,29.297,47.363,-332.031,16.602,-83.008
1573889580,30.273,38.574,-98.633,29.785,-71.289
1573889580,41.992,39.551,214.844,50.293,104.492
1573889580,40.039,37.109,5.371,41.016,121.094
1573889580,25.879,35.156,-214.844,18.066,-49.805
1573889580,23.926,38.086,104.004,24.414,-82.031
1573889580,40.527,40.039,496.094,53.223,83.984
1573889580,44.434,32.227,80.566,46.875,139.648
1573889580,29.785,28.809,-300.781,22.949,-6.836
1573889580,23.438,32.227,-70.312,22.461,-122.559
1573889580,32.715,30.273,275.391,41.504,0
1573889580,41.016,30.762,323.242,45.898,159.18
1573889580,34.18,36.133,-84.961,32.227,70.801
1573889580,19.043,39.062,-304.199,19.531,-107.91
1573889580,20.508,32.715,14.16,28.809,-58.594
1573889580,31.738,31.738,342.285,42.969,126.953
1573889580,26.855,37.109,107.91,24.414,97.168
1573889580,10.254,36.133,-174.316,1.953,-64.941
1573889580,10.742,31.738,-146.973,8.789,-96.68
1573889580,28.32,33.691,-24.902,28.32,56.641
1573889580,29.297,39.551,179.199,28.32,137.695
1573889580,18.066,42.969,-96.191,15.625,-43.457
1573889580,21.973,36.621,-155.273,21.973,-134.766
1573889580,38.574,35.645,318.359,45.898,41.016
1573889580,45.898,35.156,295.898,50.293,159.18
1573889580,36.133,33.203,-240.723,29.785,2.441
1573889580,29.297,34.18,-575.195,23.438,-152.832
1573889580,37.109,33.203,-156.738,41.992,-31.25
1573889580,49.805,39.062,460.938,57.617,173.828
1573889580,43.457,41.992,143.066,43.457,101.074
1573889580,29.297,38.574,-310.059,24.902,-101.562
1573889580,34.668,35.645,-14.648,35.156,-54.199
1573889580,51.758,35.645,471.191,51.27,147.949
1573889580,54.199,36.621,112.305,41.504,114.746
1573889580,36.621,36.133,-320.801,20.02,-54.199
1573889580,36.133,38.086,46.875,31.25,-49.805
1573889580,49.316,37.109,337.402,54.199,86.914
1573889580,47.363,37.109,54.199,46.387,175.293
1573889580,30.273,33.691,-499.512,23.438,13.672
1573889580,19.531,33.203,-220.215,17.09,-74.219
1573889580,29.297,35.156,435.547,32.715,78.125
1573889580,40.039,32.715,320.312,41.992,154.785
1573889580,26.855,29.785,-124.023,16.113,37.109
1573889580,9.766,30.273,-89.844,0.488,-68.848
1573889580,27.344,33.203,305.664,30.273,24.902
1573889580,44.434,32.227,333.984,47.852,168.457
1573889580,36.621,34.18,-71.777,30.762,84.961
1573889580,26.367,30.273,-209.961,16.602,-77.148
1573889580,31.25,28.32,13.184,31.25,-40.527
1573889580,40.527,32.715,-102.539,45.41,93.75
1573889580,43.945,32.715,-300.781,36.621,110.84
1573889580,34.668,23.438,-273.926,17.578,-56.152
1573889580,27.344,20.508,-90.82,16.113,-90.332
1573889580,46.875,29.785,220.703,45.898,76.66
1573889580,55.176,36.133,194.824,51.758,136.719
1573889580,41.504,32.715,-71.289,33.691,11.23
1573889580,40.527,34.668,-133.789,37.598,-95.215
1573889580,48.828,41.504,167.48,58.594,15.625
1573889580,47.852,35.156,396.484,57.129,178.711
1573889580,37.109,32.227,66.895,33.691,102.539
1573889580,25.391,32.227,-461.914,18.555,-98.633
1573889580,29.297,27.344,-317.871,27.832,-60.059
1573889581,38.086,35.645,223.633,39.551,156.25
1573889581,25.879,35.156,140.137,20.996,125.488
1573889581,11.719,23.926,-398.926,-1.465,-72.266
1573889581,9.766,26.855,-394.531,4.883,-67.871
1573889581,20.508,30.762,234.375,27.832,118.652
1573889581,20.508,32.227,226.074,21.973,147.461
1573889581,10.254,34.668,-195.312,4.883,-2.441
1573889581,17.09,38.086,-104.492,15.625,-80.566
1573889581,32.715,40.039,315.43,39.062,46.875
1573889581,37.598,36.621,312.012,42.48,154.297
1573889581,26.855,28.32,-264.16,21.973,20.508
1573889581,23.926,27.832,-353.516,20.508,-83.008
1573889581,34.668,38.574,142.09,43.457,25.879
1573889581,49.316,43.457,326.66,59.57,166.016
1573889581,44.922,36.133,-411.621,43.945,26.367
1573889581,28.32,33.691,-754.395,24.414,-164.062
1573889581,37.109,38.086,39.551,42.969,-48.828
1573889581,52.246,41.504,393.066,56.641,161.621
1573889581,41.992,39.551,21.484,35.645,116.211
1573889581,18.066,35.156,-235.352,10.254,-74.219
1573889581,16.113,36.621,11.719,18.555,-89.844
1573889581,28.809,40.527,241.699,41.016,82.52
1573889581,30.273,40.527,-70.312,33.691,125.488
1573889581,17.578,36.133,-521.484,9.766,-52.246
1573889581,15.625,35.645,-275.391,11.719,-97.168
1573889581,34.668,40.527,71.289,36.621,26.855
1573889581,38.574,46.875,-193.359,37.109,122.07
1573889581,20.996,45.898,-341.309,11.23,33.691
1573889581,11.719,41.504,-187.5,6.348,-121.582
1573889581,25.879,36.621,157.715,28.32,-21.973
1573889581,39.062,38.086,359.375,39.551,156.738
1573889581,30.762,42.48,107.422,23.926,80.078
1573889581,24.414,43.457,-140.625,17.09,-96.68
1573889581,36.133,44.434,94.238,40.527,-56.641
1573889581,48.828,38.086,304.199,53.223,127.93
1573889581,41.992,33.691,18.066,35.645,132.812
1573889581,28.32,37.598,-236.328,18.555,-36.133
1573889581,32.227,40.039,-311.035,28.32,-105.469
1573889581,42.48,39.062,40.039,49.316,63.477
1573889581,43.457,38.086,421.875,45.41,172.363
1573889581,31.25,35.156,65.43,26.367,16.113
1573889581,22.949,39.551,-30.273,28.32,-89.355
1573889581,36.133,43.945,541.504,51.758,63.965
1573889581,43.945,37.109,697.266,55.176,180.664
1573889581,32.227,39.062,174.805,29.785,42.48
1573889581,24.414,41.504,24.414,22.461,-99.609
1573889581,33.691,42.969,415.527,41.992,6.836
1573889581,40.039,40.527,589.355,51.27,182.129
1573889581,33.203,40.039,132.324,34.668,94.238
1573889581,23.926,41.016,-354.98,19.043,-91.309
1573889581,31.25,49.316,156.738,33.691,-62.012
1573889581,44.434,58.594,793.457,51.758,144.531
1573889581,39.551,55.664,511.719,40.039,148.438
1573889581,27.344,47.363,50.781,19.043,-65.43
1573889581,22.949,38.086,316.406,19.531,-100.586
1573889581,37.598,33.203,658.691,41.504,82.52
1573889581,41.504,33.203,428.711,40.039,143.555
1573889581,27.344,35.645,-10.742,16.113,-24.414
1573889581,23.926,44.922,-71.777,20.02,-110.352
1573889581,34.18,49.805,343.262,39.062,34.668
1573889581,41.504,42.48,160.645,41.504,132.324
1573889581,32.715,34.668,-263.672,25.391,28.32
1573889581,22.461,35.156,12.695,18.555,-92.773
1573889581,32.227,34.18,403.32,40.039,-16.602
1573889581,51.27,39.551,512.695,57.617,143.555
1573889581,42.48,41.016,264.648,40.527,96.191
1573889581,28.809,39.062,55.176,25.391,-66.895
1573889581,37.598,41.992,216.797,39.551,-58.105
1573889581,45.41,40.527,519.043,53.711,135.742
1573889581,42.48,41.504,426.758,43.945,170.898
1573889581,29.297,44.434,-90.82,24.902,-26.855
1573889581,21.484,39.551,-254.395,22.461,-83.984
1573889581,25.879,30.273,96.68,34.668,63.477
1573889581,26.855,23.438,241.699,28.32,143.066
1573889581,13.672,18.555,-18.555,2.93,22.461
1573889581,4.883,19.531,-342.773,-3.906,-130.371
1573889581,16.113,27.832,-212.891,10.742,-22.949
1573889581,24.902,34.668,298.34,24.414,172.363
1573889581,21.484,33.691,145.996,11.719,105.957
1573889581,14.16,27.832,-154.785,2.441,-55.176
1573889581,21.484,30.762,121.094,24.414,-24.902
1573889581,39.062,37.109,436.035,43.457,130.859
1573889581,35.156,31.25,-76.66,27.832,81.055
1573889581,19.531,30.762,-546.387,8.301,-83.008
1573889581,20.996,37.598,-245.605,25.391,-87.891
1573889581,38.574,36.621,165.039,49.316,84.961
1573889581,43.945,35.156,91.797,46.875,132.324
1573889581,24.902,27.344,-640.625,19.043,-65.918
1573889581,15.625,27.832,-567.871,15.625,-128.906
1573889581,27.344,36.621,213.379,40.039,47.852
1573889581,37.598,36.621,201.66,45.41,158.691
1573889581,24.902,31.25,-215.332,19.531,48.34
1573889581,18.066,36.133,-184.57,7.324,-87.402
1573889581,31.25,44.922,250.488,38.086,8.301
1573889581,40.527,40.527,171.387,50.781,146.484
1573889581,25.391,29.785,-361.816,25.391,56.641
1573889581,9.277,28.32,-357.422,11.719,-84.473
1573889581,19.531,32.715,129.395,31.738,-44.434
1573889581,39.551,39.551,201.66,54.688,117.188
1573889581,34.18,43.945,-375.977,36.133,82.031
1573889581,12.695,45.41,-457.52,6.836,-85.449
1573889581,12.695,47.852,39.062,19.531,-81.543
1573889581,28.32,40.039,177.246,38.086,62.988
1573889581,26.367,30.762,-10.254,23.438,127.441
1573889581,13.184,32.227,-72.266,5.859,11.23
1573889581,17.09,39.062,54.199,12.695,-68.359
1573889581,34.668,42.969,324.219,37.598,58.105
1573889581,49.316,46.875,187.988,52.246,149.414
1573889581,43.945,47.363,-171.875,34.18,19.531
1573889581,35.156,40.527,-166.016,22.949,-100.586
1573889581,43.945,36.621,95.703,43.945,-22.461
1573889581,54.199,35.156,280.762,59.57,136.23
1573889581,44.922,33.691,158.691,40.527,111.816
1573889581,38.086,38.086,-173.828,23.438,-86.914
1573889581,45.41,39.062,-255.371,40.039,-86.426
1573889581,51.758,46.387,238.281,57.617,125.488
1573889581,47.363,50.781,310.059,47.363,128.906
1573889581,33.691,37.598,-200.195,27.344,-65.43
1573889581,30.273,30.762,-164.551,30.273,-77.637
1573889581,41.016,35.645,302.734,48.828,109.863
1573889581,43.457,37.109,284.18,46.387,161.621
1573889581,30.762,32.227,-154.297,22.461,9.766
1573889581,25.391,34.668,-147.461,21.484,-89.844
1573889581,35.156,38.574,358.887,45.41,25.879
1573889581,42.969,33.203,537.109,49.805,165.039
1573889581,30.273,30.273,-194.824,22.461,23.438
1573889581,17.09,30.273,-625,8.789,-130.371
1573889581,23.438,33.203,116.211,29.297,-11.719
1573889581,40.039,42.48,415.039,44.434,170.41
1573889581,36.621,44.922,-49.316,30.762,97.168
1573889581,24.414,36.621,-375,13.184,-86.914
1573889581,28.32,32.715,-130.859,24.902,-65.43
1573889581,40.039,38.574,269.531,43.945,110.84
1573889581,40.527,41.016,-146.973,38.086,119.141
1573889581,26.367,42.969,-579.59,20.508,-71.777
1573889581,21.484,44.922,-62.012,26.367,-101.074
1573889581,39.062,45.898,357.91,53.711,68.848
1573889581,46.875,38.086,261.719,54.688,171.387
1573889581,29.297,27.344,-28.809,27.344,41.016
1573889581,17.09,30.273,-10.254,18.555,-75.684
1573889581,24.902,38.574,253.906,35.645,27.832
1573889581,31.25,41.016,276.855,41.992,161.133
1573889581,17.09,33.691,-126.953,22.461,74.707
1573889581,8.301,31.25,-443.848,10.742,-104.98
1573889581,25.879,38.574,-261.23,33.691,-60.059
1573889581,42.48,40.527,-156.738,50.781,99.609
1573889581,30.762,39.551,-109.863,32.715,104.98
1573889581,13.184,37.598,-169.434,11.719,-55.176
1573889581,17.578,38.086,-39.062,23.438,-83.984
1573889581,36.621,38.574,291.504,47.363,81.055
1573889581,35.645,34.668,218.262,39.062,120.605
1573889581,20.508,28.809,-161.621,10.254,-30.273
1573889581,23.438,36.133,-177.246,16.602,-98.145
1573889581,45.41,43.945,246.094,48.828,52.734
1573889581,54.199,31.25,249.023,49.316,168.457
1573889581,43.457,25.391,-238.281,23.926,44.922
1573889581,41.504,34.18,-595.215,18.066,-100.586
1573889581,53.711,41.016,-265.137,38.086,-3.906
1573889581,59.57,42.48,340.82,48.34,180.176
1573889581,49.316,38.086,61.035,30.762,96.68
1573889581,37.109,36.133,-319.336,17.578,-95.703
1573889581,41.992,36.621,104.492,36.133,-41.504
1573889581,56.152,37.109,490.723,60.547,136.23
1573889581,45.898,38.086,126.953,45.41,130.371
1573889581,22.949,38.086,-296.875,16.602,-51.27
1573889581,30.273,41.992,-90.82,29.785,-92.285
1573889581,53.223,40.527,240.234,62.988,86.914
1573889581,42.969,32.715,-62.988,48.34,141.113
1573889581,16.113,33.691,-684.082,11.23,-29.785
1573889581,9.277,43.457,-374.512,10.742,-97.656
1573889581,21.484,48.828,336.426,37.598,55.664
1573889581,24.414,39.062,190.918,38.574,153.809
1573889581,5.859,29.297,-291.016,8.789,33.691
1573889581,-11.719,22.949,-209.473,-6.836,-97.656
1573889581,0.977,29.297,206.055,16.113,-17.578
1573889581,13.672,35.645,316.895,31.738,137.695
1573889581,6.836,28.809,-57.617,14.648,70.801
1573889581,-1.953,28.809,-225.098,3.906,-91.797
1573889581,14.16,41.016,-18.066,24.902,-68.359
1573889581,41.016,40.039,-62.5,51.27,91.309
1573889581,44.434,31.25,-306.152,43.945,94.727
1573889581,34.668,34.668,-309.082,27.344,-76.172
1573889581,36.133,33.691,-96.68,32.715,-112.793
1573889581,51.27,32.227,226.074,52.246,62.5
1573889581,57.617,36.133,251.953,50.293,147.461
1573889581,48.34,41.992,-6.836,26.855,29.785
1573889581,41.992,43.457,-215.82,23.926,-104.004
1573889581,55.176,44.434,87.402,47.852,10.742
1573889581,67.383,40.039,400.879,61.035,184.57
1573889581,57.129,31.25,19.043,33.691,54.688
1573889581,42.969,35.645,-371.094,13.672,-117.676
1573889581,48.828,40.527,-102.539,33.691,-36.621
1573889581,55.664,37.109,299.805,43.945,139.648
1573889581,49.805,39.062,118.164,29.785,94.238
1573889581,35.645,41.992,-406.738,12.207,-95.703
1573889581,34.18,34.668,-458.008,22.461,-103.516
1573889581,39.551,27.832,230.957,39.062,119.141
1573889581,36.133,32.715,290.527,28.32,165.527
1573889581,24.414,36.621,-235.352,7.324,-35.156
1573889581,18.555,35.645,-131.348,7.812,-103.027
1573889581,31.738,37.109,299.805,26.367,48.828
1573889581,39.551,40.527,247.07,30.273,156.738
1573889581,26.367,43.945,-206.543,5.371,25.879
1573889581,24.414,44.922,-224.609,7.324,-86.426
1573889581,45.41,42.48,411.133,42.48,36.133
1573889581,45.898,37.109,589.355,45.41,156.738
1573889581,27.344,28.32,-181.152,15.625,25.879
1573889581,14.648,27.832,-466.309,2.93,-152.344
1573889581,31.738,38.086,289.062,30.762,-55.176
1573889581,52.734,37.598,645.02,45.41,162.598
1573889581,44.922,33.203,326.172,27.832,138.672
1573889581,27.832,30.762,128.418,9.277,-42.48
1573889581,32.715,35.645,412.109,23.926,-60.059
1573889581,50.293,37.598,695.312,50.781,108.887
1573889581,52.246,34.668,349.121,47.852,143.066
1573889581,40.527,30.273,-122.07,22.461,-18.066
1573889581,35.645,29.785,49.805,18.066,-91.309
1573889581,48.34,35.645,394.531,44.434,44.434
1573889581,49.316,30.762,253.418,42.48,138.672
1573889581,34.668,28.32,16.602,14.648,4.883
1573889581,26.855,35.156,129.395,11.23,-113.281
1573889581,40.527,42.48,526.367,35.645,-2.93
1573889581,50.781,42.969,684.57,41.992,156.25
1573889581,40.527,37.109,410.156,23.438,77.148
1573889581,25.391,35.645,107.91,6.348,-117.676
1573889581,29.785,32.227,321.289,16.602,-72.754
1573889581,49.805,37.598,494.629,41.504,106.445
1573889581,43.457,40.039,145.02,27.344,91.797
1573889581,22.949,40.527,-44.434,1.465,-62.012
1573889581,28.32,45.41,-138.672,12.695,-105.957
1573889581,45.41,41.016,108.887,37.109,62.012
1573889581,46.387,36.133,429.688,41.504,142.09
1573889581,38.086,37.598,60.547,26.367,-2.441
1573889581,34.18,41.504,-23.926,30.273,-96.191
1573889581,48.828,50.293,466.309,58.594,31.25
1573889581,60.059,54.199,619.629,66.895,172.852
1573889581,45.41,42.48,84.961,41.504,37.598
1573889581,37.109,37.598,-118.652,31.25,-109.375
1573889581,47.363,35.156,189.453,50.781,-9.277
1573889581,52.734,37.598,330.566,63.965,146.484
1573889581,45.41,50.293,-136.719,48.34,53.711
1573889581,33.203,47.852,-641.602,27.832,-126.465
1573889581,28.809,36.621,-72.266,33.691,-61.523
1573889581,34.18,31.738,453.613,45.41,119.141
1573889581,31.25,35.156,100.098,34.18,121.582
1573889581,18.555,43.457,-250.977,12.695,-48.34
1573889581,18.066,47.363,65.918,16.113,-82.031
1573889581,37.109,54.199,518.066,41.992,101.562
1573889581,41.992,47.363,310.547,38.574,161.133
1573889581,25.879,35.156,-131.836,14.648,9.766
1573889581,18.066,34.18,-206.543,14.16,-104.004
1573889581,25.391,30.273,33.203,33.691,14.648
1573889581,31.738,36.133,48.34,41.016,151.855
1573889581,24.414,47.363,-226.562,22.949,44.922
1573889581,11.23,43.457,-229.492,12.695,-112.793
1573889581,18.555,38.574,111.328,32.227,-37.109
1573889582,37.109,32.227,1.465,48.828,117.676
1573889582,32.227,27.832,-255.371,32.715,102.051
1573889582,18.066,32.715,-286.621,15.137,-50.293
1573889582,21.484,34.668,-178.223,29.297,-83.008
1573889582,33.691,38.086,191.895,50.293,93.75
1573889582,33.691,36.133,187.988,40.039,142.09
1573889582,22.949,34.668,-249.023,20.02,-30.762
1573889582,28.809,39.551,-363.281,29.297,-117.676
1573889582,49.805,43.457,61.035,55.176,26.855
1573889582,50.781,42.969,220.703,55.176,132.324
1573889582,36.621,40.039,-55.176,31.25,6.348
1573889582,30.762,36.133,-325.195,25.391,-124.512
1573889582,40.039,33.203,-224.609,41.504,-36.621
1573889582,46.875,30.273,204.59,49.316,131.348
1573889582,34.18,30.762,63.965,26.855,73.242
1573889582,23.438,34.668,-211.914,9.766,-94.238
1573889582,36.621,37.109,105.469,33.203,-47.852
1573889582,55.176,39.062,422.852,58.105,153.809
1573889582,47.852,39.551,59.082,45.898,113.281
1573889582,28.809,33.203,-627.93,20.996,-116.699
1573889582,31.738,32.227,-432.129,29.785,-126.465
1573889582,49.805,40.039,456.543,60.059,102.051
1573889582,53.711,41.016,344.727,56.152,127.93
1573889582,41.504,39.551,-153.32,32.227,-30.273
1573889582,35.156,34.18,87.402,32.715,-63.965
1573889582,41.504,27.344,576.172,51.27,73.242
1573889582,48.828,32.227,447.754,54.199,161.621
1573889582,40.039,41.992,-109.863,33.691,-3.418
1573889582,30.273,41.016,-82.52,20.508,-104.98
1573889582,41.016,37.598,437.988,35.156,26.855
1573889582,50.781,34.18,377.93,45.41,163.086
1573889582,41.016,33.203,-267.09,26.855,83.984
1573889582,30.273,35.156,-287.598,11.719,-58.594
1573889582,38.086,39.062,222.168,25.391,-41.016
1573889582,54.199,38.574,316.895,46.387,110.352
1573889582,50.293,34.668,-44.434,34.668,105.469
1573889582,32.227,41.016,-152.344,14.648,-33.203
1573889582,33.203,36.621,182.617,28.32,-48.34
1573889582,49.805,30.273,290.527,51.758,95.215
1573889582,52.246,36.133,-40.527,49.805,132.324
1573889582,34.18,36.133,-224.121,26.367,-34.18
1573889582,23.438,34.18,-89.844,18.555,-109.863
1573889582,29.297,34.18,148.926,37.598,26.855
1573889582,36.133,32.715,70.312,40.527,127.93
1573889582,26.855,31.738,-82.031,19.043,52.246
1573889582,23.438,37.598,-147.461,17.09,-78.613
1573889582,37.598,36.621,-33.203,42.969,-35.156
1573889582,48.34,35.645,233.398,54.199,145.508
1573889582,38.574,32.715,100.586,38.574,102.051
1573889582,27.344,26.367,-283.691,22.949,-95.703
1573889582,28.32,27.832,-424.316,27.832,-113.77
1573889582,34.668,33.691,42.48,40.527,108.398
1573889582,35.156,36.133,244.141,31.25,161.133
1573889582,20.996,27.832,-270.02,8.789,-44.434
1573889582,17.578,24.902,-314.941,9.766,-90.332
1573889582,30.762,28.809,117.188,30.273,98.633
1573889582,35.156,26.855,225.098,31.738,192.871
1573889582,25.879,26.855,-313.477,10.742,5.371
1573889582,19.531,24.902,-608.887,3.418,-108.398
1573889582,31.25,31.738,76.172,26.855,29.297
1573889582,46.875,38.574,301.27,41.992,148.926
1573889582,38.574,44.434,-231.445,23.438,39.062
1573889582,19.043,44.922,-326.66,8.301,-106.445
1573889582,28.809,38.086,212.402,29.297,-18.555
1573889582,42.969,30.273,499.512,44.434,164.062
1573889582,29.785,22.461,39.062,23.438,126.465
1573889582,19.531,26.855,-374.023,14.16,-34.18
1573889582,31.25,36.133,-159.18,39.062,-56.641
1573889582,51.758,41.504,316.895,63.477,111.816
1573889582,49.805,41.016,-136.23,48.34,104.98
1573889582,29.297,39.551,-572.266,19.531,-44.922
1573889582,24.902,34.18,-62.988,27.832,-55.664
1573889582,41.504,31.25,204.102,51.27,40.039
1573889582,45.898,28.809,120.117,45.898,124.512
1573889582,37.109,25.879,-229.492,27.832,-4.883
1573889582,34.18,33.691,-272.461,36.133,-114.258
1573889582,41.016,40.527,126.465,57.129,7.324
1573889582,49.805,40.039,253.906,59.082,152.832
1573889582,36.133,31.738,-164.062,35.645,62.988
1573889582,20.996,22.949,-345.703,21.484,-83.008
1573889582,30.273,26.855,-64.453,36.133,-40.527
1573889582,37.109,34.668,-60.059,41.016,103.516
1573889582,28.809,37.109,-32.715,25.391,130.371
1573889582,20.02,36.133,-106.934,8.301,-32.715
1573889582,26.855,41.504,-16.602,16.113,-67.871
1573889582,43.457,46.387,352.539,41.016,120.117
1573889582,47.852,44.434,289.062,36.621,161.133
1573889582,34.18,36.621,-128.418,14.16,-13.672
1573889582,28.32,30.273,-193.848,12.695,-104.98
1573889582,43.457,34.18,108.398,35.156,38.574
1573889582,59.082,36.621,125.488,46.387,161.133
1573889582,48.828,35.645,-276.367,29.785,43.457
1573889582,35.156,37.109,-571.289,23.438,-76.172
1573889582,47.852,46.875,-159.18,45.898,13.184
1573889582,56.641,48.828,413.574,58.105,170.898
1573889582,43.457,33.203,63.965,36.621,89.355
1573889582,23.438,21.973,-261.23,14.648,-67.871
1573889582,28.809,27.832,161.621,30.762,-20.508
1573889582,48.828,39.062,496.582,59.57,133.301
1573889582,43.945,34.18,91.797,47.363,102.539
1573889582,30.762,29.297,-331.055,26.855,-70.312
1573889582,31.25,36.621,4.883,34.18,-67.871
1573889582,50.781,42.48,300.781,57.129,84.473
1573889582,52.246,34.18,-60.059,48.828,142.578
1573889582,32.227,29.297,-617.676,16.602,-8.789
1573889582,28.32,38.574,-354.004,20.02,-109.863
1573889582,33.691,38.574,350.098,41.016,47.363
1573889582,33.203,32.227,321.777,34.18,160.156
1573889582,23.438,29.297,-92.285,9.277,58.594
1573889582,18.555,32.227,-123.535,4.883,-90.332
1573889582,27.344,31.738,162.109,24.414,-51.27
1573889582,33.203,25.879,351.074,33.691,154.297
1573889582,27.344,25.391,43.945,17.578,102.539
1573889582,16.113,24.414,-234.375,2.441,-103.516
1573889582,15.137,23.438,-15.137,10.254,-69.824
1573889582,29.785,26.367,-8.789,30.273,98.145
1573889582,34.18,33.691,-189.453,28.32,118.164
1573889582,23.438,38.574,-79.59,11.719,-13.672
1573889582,26.855,34.668,78.613,22.949,-54.688
1573889582,39.551,31.25,423.34,46.875,105.957
1573889582,44.922,26.855,514.16,42.48,173.34
1573889582,33.203,25.391,226.562,21.484,34.668
1573889582,23.438,24.902,115.723,14.16,-89.844
1573889582,30.762,21.973,325.684,31.25,-26.855
1573889582,40.039,31.25,502.441,37.598,112.305
1573889582,37.109,36.133,270.02,18.555,67.383
1573889582,27.832,26.855,-92.285,7.812,-84.473
1573889582,35.156,23.926,43.457,28.32,-64.941
1573889582,51.27,34.18,582.031,49.805,129.395
1573889582,47.852,33.203,456.055,37.109,87.891
1573889582,29.297,24.902,-70.312,14.16,-120.605
1573889582,29.297,29.785,129.883,24.414,-102.051
1573889582,49.316,41.504,620.605,50.781,88.867
1573889582,52.246,41.992,415.039,47.852,124.023
1573889582,32.715,27.344,101.562,22.949,-13.672
1573889582,23.926,24.414,285.156,21.484,-63.965
1573889582,40.527,29.785,760.742,48.828,90.332
1573889582,42.969,33.691,654.297,48.828,150.879
1573889582,31.738,40.039,42.969,25.391,0
1573889582,26.367,35.156,-77.148,20.02,-80.078
1573889582,27.344,24.414,441.406,34.668,27.832
1573889582,32.227,22.949,665.039,42.48,158.203
1573889582,27.344,22.461,-114.258,20.996,49.316
1573889582,20.02,26.367,-438.965,9.277,-104.98
1573889582,29.785,34.18,309.082,33.691,-32.227
1573889582,41.992,36.133,519.043,50.293,104.492
1573889582,35.156,34.18,109.375,34.668,76.66
1573889582,15.625,29.785,-188.965,8.789,-90.332
1573889582,15.625,30.273,67.383,18.066,-110.352
1573889582,31.738,40.527,473.145,41.504,92.773
1573889582,30.762,41.016,189.941,32.715,140.625
1573889582,16.602,30.273,-290.527,7.324,-27.344
1573889582,14.16,27.832,-98.633,8.789,-69.824
1573889582,27.832,30.273,290.039,33.203,49.316
1573889582,36.133,34.18,222.656,38.086,116.699
1573889582,22.949,40.039,12.695,16.113,55.664
1573889582,14.16,39.551,52.246,6.836,-48.34
1573889582,31.738,41.504,73.242,29.297,-24.902
1573889582,45.898,44.434,-53.223,46.387,114.258
1573889582,38.574,40.527,-49.805,35.156,84.473
1573889582,29.785,38.086,-114.258,24.414,-73.73
1573889582,33.203,40.039,22.949,37.109,-45.898
1573889582,45.898,38.574,182.129,55.176,114.746
1573889582,50.293,39.062,-34.18,48.828,108.887
1573889582,34.668,44.434,-386.719,21.973,-42.969
1573889582,34.18,49.316,-311.035,26.367,-83.496
1573889582,45.898,41.504,223.633,44.922,88.379
1573889582,49.316,35.156,371.582,42.48,177.246
1573889582,45.898,34.18,-88.867,29.785,11.23
1573889582,41.504,31.25,-514.16,24.414,-125
1573889582,49.805,38.574,-158.203,44.434,-8.789
1573889582,57.129,41.992,268.066,50.293,148.926
1573889582,41.992,33.691,-138.672,25.391,54.199
1573889582,23.926,27.344,-333.496,11.719,-93.262
1573889582,32.715,31.738,4.395,30.273,-24.902
1573889582,48.34,37.109,190.918,47.363,133.789
1573889582,41.504,40.039,-161.133,28.32,87.891
1573889582,26.367,37.109,-420.898,6.836,-76.66
1573889582,29.785,39.551,54.199,18.066,-70.801
1573889582,44.922,39.551,348.633,40.039,84.473
1573889582,44.434,31.738,-90.332,31.738,111.328
1573889582,29.785,26.855,-432.129,10.742,-40.527
1573889582,27.344,34.18,39.062,18.555,-43.457
1573889582,43.457,41.992,587.402,45.41,116.211
1573889582,51.27,34.668,121.094,49.316,120.117
1573889582,35.645,26.855,-473.633,28.32,-28.32
1573889582,34.18,36.133,-242.188,33.203,-94.238
1573889582,48.34,35.645,88.379,55.176,8.301
1573889582,47.363,30.762,152.832,54.688,135.254
1573889582,32.715,36.621,-25.391,30.273,60.547
1573889582,25.391,41.992,-91.797,22.461,-71.289
1573889582,29.297,37.109,135.742,36.621,-21.973
1573889582,38.574,30.273,34.668,44.434,111.816
1573889582,35.156,35.645,-298.34,29.297,61.035
1573889582,22.461,37.109,-145.508,12.695,-70.312
1573889582,32.715,40.527,78.613,26.855,-74.707
1573889582,46.387,44.922,323.242,43.945,79.59
1573889582,40.039,35.645,351.562,33.691,153.32
1573889582,25.879,33.691,-52.246,13.672,1.465
1573889582,25.391,41.016,-209.961,15.625,-74.707
1573889582,39.062,37.109,-67.871,37.109,30.762
1573889582,41.016,34.668,149.902,39.551,136.719
1573889582,23.926,38.574,24.414,18.066,24.414
1573889582,16.113,35.645,-87.891,13.672,-77.637
1573889582,27.344,33.691,275.879,32.227,40.039
1573889582,33.203,30.762,421.875,36.621,179.688
1573889582,28.32,30.273,44.922,21.484,82.52
1573889582,17.578,35.645,-225.586,9.277,-96.191
1573889582,21.973,36.621,134.277,26.855,-19.531
1573889582,40.039,29.297,478.516,46.875,149.902
1573889582,39.062,21.484,94.238,33.203,117.188
1573889582,28.809,17.09,-650.879,13.184,-83.496
1573889582,30.762,23.438,-520.02,21.973,-113.77
1573889582,44.434,32.715,315.918,44.434,100.586
1573889582,47.363,33.691,179.688,42.969,125
1573889582,27.832,31.25,-339.355,17.09,-41.504
1573889582,22.461,33.203,-128.906,16.113,-93.75
1573889582,40.039,36.133,379.883,42.48,53.711
1573889582,47.363,28.809,311.035,48.828,164.551
1573889582,32.227,23.926,-266.602,24.414,39.062
1573889582,23.926,32.227,-305.664,20.02,-66.895
1573889582,33.203,38.086,271.484,43.945,36.621
1573889582,42.969,33.691,229.98,49.805,159.18
1573889582,34.18,30.273,-458.496,24.414,71.777
1573889582,19.531,33.203,-497.559,8.789,-95.215
1573889582,27.344,38.086,163.574,28.809,-8.789
1573889582,43.457,34.18,414.062,46.875,159.18
1573889582,41.016,31.738,34.18,34.668,115.723
