timestamps,TP9,AF7,AF8,TP10,Right AUX
1573889166,-0.488,92.285,-543.945,4.395,-109.863
1573889166,25.879,104.492,-298.34,41.504,18.066
1573889166,36.133,111.328,-635.254,42.969,86.914
1573889166,17.09,109.863,-931.152,5.371,-35.156
1573889166,2.93,109.863,-672.852,1.953,-133.789
1573889166,21.484,111.328,-412.109,41.992,-5.859
1573889166,41.016,107.91,-767.578,50.293,104.98
1573889166,15.625,105.957,-1000,14.16,0.488
1573889166,-0.488,110.84,-803.223,-0.488,-130.859
1573889166,18.066,119.141,-443.359,28.32,-69.824
1573889166,32.715,120.117,-347.656,47.852,102.539
1573889166,22.949,116.699,-697.266,31.25,79.59
1573889166,-2.93,121.582,-953.613,3.418,-103.516
1573889166,-4.883,133.301,-672.852,7.812,-117.676
1573889166,19.531,142.09,-365.234,43.457,65.43
1573889166,26.855,132.324,-523.438,33.203,128.418
1573889166,-0.488,119.629,-822.754,-7.812,-33.691
1573889166,-9.766,121.094,-752.441,2.93,-123.047
1573889166,17.09,117.676,-541.504,40.039,14.648
1573889166,24.414,104.492,-625,41.992,116.211
1573889166,0.977,105.957,-879.395,3.906,5.859
1573889166,-7.812,116.211,-991.211,-3.906,-172.852
1573889166,4.395,122.559,-749.512,27.344,-83.008
1573889166,16.602,117.676,-470.703,41.016,125.488
1573889166,7.812,98.633,-749.023,16.113,56.152
1573889166,-12.695,96.68,-885.742,-9.766,-118.652
1573889166,-9.277,103.516,-457.52,6.348,-77.637
1573889166,14.16,92.285,-154.297,30.762,96.68
1573889166,18.555,71.289,-533.691,18.066,80.078
1573889166,-2.93,64.941,-952.637,-11.719,-122.07
1573889166,-8.789,75.684,-637.695,-3.906,-147.949
1573889166,15.625,75.684,-88.867,26.367,53.223
1573889166,30.762,53.711,-407.715,22.461,94.238
1573889166,3.906,38.574,-969.238,-10.742,-87.891
1573889166,-28.32,41.016,-513.672,-18.066,-146.484
1573889166,-7.812,39.551,111.328,12.207,26.367
1573889166,26.855,39.062,-146.973,23.926,120.117
1573889166,11.719,36.621,-721.191,0,-41.504
1573889166,-26.367,32.715,-559.082,-21.973,-168.945
1573889166,-20.02,37.109,-34.668,2.441,-48.34
1573889166,14.16,35.645,-139.16,33.203,101.562
1573889166,2.93,37.598,-727.539,9.766,33.691
1573889166,-24.414,53.711,-804.688,-18.066,-109.375
1573889166,-18.555,56.152,-279.785,11.23,-78.125
1573889166,18.066,36.133,-382.324,42.969,47.363
1573889166,21.973,26.855,-888.184,24.902,38.086
1573889166,-9.766,35.645,-733.887,-8.789,-98.633
1573889166,-10.742,38.574,-339.844,4.883,-133.789
1573889166,7.324,36.133,-180.176,39.551,0.488
1573889166,15.625,36.133,-386.719,30.273,83.496
1573889166,6.836,27.344,-640.137,-5.859,-39.551
1573889166,-8.789,22.949,-505.859,-4.883,-133.301
1573889166,6.348,29.297,-184.57,38.086,-18.555
1573889166,25.879,26.855,-327.637,47.363,122.07
1573889166,12.207,20.996,-801.758,15.625,19.043
1573889166,1.953,27.344,-947.754,2.441,-169.922
1573889166,11.23,38.574,-679.199,28.809,-88.867
1573889166,28.809,35.645,-383.789,48.828,80.566
1573889166,27.344,29.297,-598.633,24.902,29.785
1573889166,4.395,29.297,-842.285,-1.953,-139.648
1573889166,8.301,41.992,-461.426,21.484,-121.582
1573889166,33.203,54.688,-106.445,61.523,55.664
1573889166,35.156,45.898,-393.066,45.898,99.121
1573889166,8.301,34.668,-779.297,7.812,-69.824
1573889166,1.953,33.691,-501.953,15.137,-121.094
1573889166,30.762,42.48,-191.406,53.223,30.762
1573889166,39.062,48.34,-503.418,49.805,121.094
1573889166,19.531,41.992,-944.336,8.301,-28.32
1573889166,0,41.992,-774.414,-4.883,-155.762
1573889166,5.859,53.223,-146.484,28.32,8.301
1573889166,29.785,50.781,-310.547,49.316,113.77
1573889166,17.578,40.527,-869.141,15.137,-13.184
1573889166,-8.789,46.387,-714.844,-10.254,-130.371
1573889166,0.488,55.176,-136.719,21.484,-43.457
1573889166,24.414,53.223,-185.547,47.363,92.285
1573889166,11.719,55.664,-708.984,21.484,51.758
1573889166,-15.625,63.477,-887.207,-1.465,-118.652
1573889166,-9.766,70.801,-625.977,21.973,-127.441
1573889166,13.672,71.289,-500.977,49.805,56.152
1573889166,21.973,64.453,-892.578,38.574,72.266
1573889166,-1.953,68.359,-950.195,7.324,-63.965
1573889166,-11.23,69.824,-550.781,7.324,-129.883
1573889166,9.277,70.801,-296.875,44.922,-0.977
1573889166,27.344,68.359,-546.387,53.711,109.863
1573889166,18.555,60.059,-869.629,21.973,-8.301
1573889166,-1.953,54.199,-598.145,15.137,-114.258
1573889166,12.207,56.641,-199.219,46.875,-16.113
1573889166,34.668,61.523,-189.941,56.152,148.438
1573889166,21.484,58.594,-591.309,30.762,44.922
1573889166,2.441,61.035,-750.488,16.113,-122.559
1573889166,20.02,74.707,-689.941,40.039,-104.492
1573889167,35.156,78.125,-618.652,55.664,57.129
1573889167,21.484,71.777,-534.668,28.809,106.445
1573889167,-4.395,66.406,-662.109,-0.977,-68.359
1573889167,-5.371,64.941,-383.301,10.254,-89.355
1573889167,21.484,62.5,-113.77,42.48,44.922
1573889167,25.879,60.059,-331.055,37.598,101.562
1573889167,4.883,54.688,-623.047,2.93,-13.672
1573889167,-4.395,59.082,-592.285,1.953,-123.047
1573889167,6.348,64.941,-211.426,38.574,2.441
1573889167,13.672,59.082,-171.387,43.945,140.625
1573889167,6.836,52.246,-722.656,7.812,-1.465
1573889167,-6.348,53.711,-964.844,-6.348,-189.453
1573889167,-1.465,59.082,-445.801,23.438,-76.66
1573889167,25.879,54.688,-193.359,50.781,98.145
1573889167,20.508,49.805,-648.438,25.391,48.34
1573889167,-6.836,49.316,-774.902,-3.906,-114.258
1573889167,4.395,49.805,-266.602,20.508,-82.52
1573889167,30.762,50.781,-98.633,53.711,75.195
1573889167,24.902,49.316,-600.098,36.133,65.43
1573889167,1.953,51.758,-836.426,0.488,-77.148
1573889167,3.418,50.293,-364.258,14.16,-97.168
1573889167,28.32,37.598,-159.668,52.734,38.574
1573889167,40.039,28.809,-652.344,50.781,95.215
1573889167,14.648,24.414,-1000,15.625,-65.43
1573889167,-4.395,22.461,-719.238,8.789,-149.414
1573889167,14.648,18.555,-272.461,40.039,-16.113
1573889167,32.715,10.254,-629.395,48.828,72.266
1573889167,11.23,11.23,-1000,9.766,-23.438
1573889167,-8.301,17.578,-805.664,-4.883,-151.367
1573889167,9.277,15.625,-321.289,26.855,-35.156
1573889167,32.715,9.766,-312.012,49.316,132.324
1573889167,26.367,8.301,-793.457,20.996,39.551
1573889167,3.418,8.301,-879.395,-6.836,-118.164
1573889167,9.277,8.789,-589.844,23.438,-114.258
1573889167,31.25,7.812,-617.676,53.711,37.109
1573889167,23.926,12.207,-892.09,27.344,85.449
1573889167,-1.953,17.09,-947.754,-5.371,-72.754
1573889167,-0.488,22.461,-741.211,7.812,-129.883
1573889167,20.508,25.879,-768.555,31.25,-6.348
1573889167,18.066,25.391,-882.812,26.855,82.031
1573889167,3.418,25.879,-954.102,0.977,-24.902
1573889167,-12.207,31.25,-824.707,-5.371,-126.953
1573889167,3.418,37.598,-462.891,26.855,-27.832
1573889167,23.926,31.25,-423.828,32.715,115.723
1573889167,7.324,24.414,-778.32,-2.93,48.34
1573889167,-11.719,31.738,-892.09,-18.555,-116.699
1573889167,6.348,35.156,-631.836,15.137,-59.082
1573889167,28.809,15.137,-702.637,37.109,83.496
1573889167,9.766,-0.977,-978.027,1.953,43.945
1573889167,-17.578,5.859,-984.863,-26.367,-116.211
1573889167,-13.672,17.578,-799.805,1.953,-127.93
1573889167,10.254,28.32,-673.34,36.133,48.828
1573889167,-0.488,33.691,-853.516,10.742,88.867
1573889167,-41.504,37.598,-1000,-41.504,-92.773
1573889167,-56.641,38.574,-837.402,-42.48,-153.32
1573889167,-46.875,28.809,-514.648,-14.16,27.832
1573889167,-41.992,26.855,-722.168,-23.926,111.328
1573889167,-59.57,39.062,-1000,-62.5,-41.992
1573889167,-91.797,49.805,-944.336,-83.008,-135.742
1573889167,-87.891,54.688,-720.215,-63.965,-4.883
1573889167,-68.359,59.57,-736.328,-53.223,124.023
1573889167,-83.496,62.5,-986.328,-91.797,15.137
1573889167,-119.629,62.012,-949.219,-127.441,-144.531
1573889167,-124.512,61.523,-541.016,-108.887,-67.383
1573889167,-99.121,52.734,-506.348,-79.59,109.863
1573889167,-107.422,43.945,-937.012,-104.004,67.871
1573889167,-141.113,46.875,-958.008,-140.625,-86.914
1573889167,-144.043,51.27,-636.719,-134.277,-95.703
1573889167,-121.582,63.965,-505.859,-104.004,52.734
1573889167,-123.535,73.242,-787.109,-114.746,115.234
1573889167,-153.32,68.359,-1000,-165.527,-57.617
1573889167,-161.133,71.777,-877.441,-165.527,-142.578
1573889167,-137.695,73.242,-824.707,-122.07,-18.066
1573889167,-125.977,69.336,-967.773,-125,76.66
1573889167,-158.203,68.848,-985.84,-167.48,-17.09
1573889167,-170.898,70.312,-878.418,-168.457,-139.16
1573889167,-142.578,76.172,-582.031,-125.488,-38.086
1573889167,-124.023,74.707,-518.066,-107.422,117.676
1573889167,-136.23,69.824,-798.34,-133.789,79.102
1573889167,-147.949,73.242,-981.445,-153.809,-97.656
1573889167,-131.348,84.961,-661.621,-120.117,-70.312
1573889167,-113.77,89.355,-395.02,-86.426,106.934
1573889167,-123.047,72.754,-783.691,-110.352,83.008
1573889167,-135.742,65.918,-1000,-140.625,-104.004
1573889167,-127.93,75.195,-893.555,-122.559,-138.672
1573889167,-111.328,84.961,-580.566,-90.332,43.945
1573889167,-100.586,86.426,-684.57,-89.355,110.84
1573889167,-101.074,89.844,-1000,-105.957,-51.27
1573889167,-118.164,96.191,-764.648,-111.328,-137.207
1573889167,-106.934,92.773,-382.812,-78.613,-13.672
1573889167,-73.73,81.055,-456.055,-53.711,111.816
1573889167,-78.125,78.125,-878.418,-80.078,11.23
1573889167,-100.098,84.961,-817.871,-98.633,-127.441
1573889167,-92.773,84.961,-343.262,-72.266,-38.574
1573889167,-62.012,80.078,-405.762,-44.922,123.047
1573889167,-56.152,68.359,-863.77,-59.57,61.035
1573889167,-86.914,57.617,-878.418,-93.75,-111.328
1573889167,-98.145,61.035,-267.09,-80.078,-63.477
1573889167,-61.035,58.594,-100.586,-35.645,70.801
1573889167,-42.48,41.504,-627.441,-44.434,65.918
1573889167,-59.082,42.48,-795.41,-72.266,-71.777
1573889167,-65.43,62.5,-351.562,-60.547,-111.328
1573889167,-45.41,62.012,-87.402,-26.855,45.41
1573889167,-38.086,49.805,-399.902,-33.691,136.719
1573889167,-62.012,46.875,-709.961,-69.336,-11.23
1573889167,-68.359,44.922,-444.824,-63.965,-109.375
1573889167,-44.434,37.109,-275.391,-24.414,-3.418
1573889167,-27.832,36.621,-747.07,-17.09,101.562
1573889167,-52.734,46.387,-1000,-51.27,-5.371
1573889167,-78.613,50.781,-838.379,-68.848,-156.25
1573889167,-63.477,45.898,-442.871,-41.992,-67.383
1573889167,-44.434,36.133,-297.363,-16.602,119.141
1573889167,-48.34,28.32,-599.121,-36.621,83.984
1573889167,-58.594,27.832,-762.207,-53.223,-98.633
1573889167,-64.453,27.832,-494.141,-37.109,-109.863
1573889167,-55.176,22.461,-317.871,-21.484,58.594
1573889167,-40.039,14.16,-562.988,-20.02,104.492
1573889167,-49.316,17.578,-858.398,-42.48,-57.617
1573889167,-63.477,36.621,-754.395,-51.27,-128.906
1573889167,-51.27,41.504,-572.754,-20.508,3.906
1573889167,-23.926,38.574,-674.316,-9.277,92.285
1573889167,-26.855,31.25,-851.074,-29.297,-16.602
1573889167,-42.969,12.207,-965.82,-36.621,-162.109
1573889167,-21.973,0,-770.02,-0.488,-67.383
1573889167,-5.371,10.254,-521.484,16.113,105.469
1573889167,-23.438,14.648,-773.926,-16.602,54.199
1573889167,-28.32,9.766,-913.574,-35.645,-114.258
1573889167,-20.996,3.906,-428.711,-18.066,-59.57
1573889167,0.488,1.953,-192.871,17.578,117.676
1573889167,13.184,1.953,-662.598,9.277,82.031
1573889167,-21.973,-6.348,-1000,-31.25,-96.68
1573889167,-38.574,-0.488,-761.719,-17.09,-121.582
1573889167,0.488,9.766,-375.488,30.273,44.922
1573889167,20.508,19.043,-649.414,24.902,87.891
1573889167,-15.137,27.344,-987.305,-27.832,-46.387
1573889167,-29.297,36.133,-566.406,-31.25,-99.609
1573889167,-1.465,47.363,-82.031,13.672,47.363
1573889167,17.09,54.688,-420.41,25.879,135.742
1573889167,1.953,50.293,-979.492,-4.395,-19.043
1573889167,-24.414,48.34,-821.777,-19.531,-154.297
1573889167,-14.16,51.27,-377.441,13.184,-42.48
1573889167,13.672,37.109,-519.043,37.109,112.305
1573889167,8.789,28.809,-935.059,5.371,30.762
1573889167,-25.879,41.016,-1000,-25.879,-152.344
1573889167,-27.344,45.41,-698.242,-5.371,-96.191
1573889167,9.766,30.762,-685.059,26.367,73.242
1573889167,8.301,24.414,-992.188,5.859,31.25
1573889167,-23.926,31.25,-985.84,-24.414,-128.906
1573889167,-23.438,38.086,-746.094,-3.418,-125.488
1573889167,7.324,42.48,-546.875,34.18,38.574
1573889167,8.789,42.969,-757.812,24.414,97.656
1573889167,-12.695,41.504,-980.469,-8.301,-42.969
1573889167,-10.254,41.504,-937.012,2.441,-141.113
1573889167,16.113,43.457,-593.262,41.016,3.418
1573889167,27.344,54.199,-693.359,47.363,109.863
1573889167,11.23,70.801,-999.023,10.742,-25.879
1573889167,8.789,83.984,-913.574,-0.977,-144.043
1573889167,14.16,85.938,-880.859,23.926,-73.73
1573889167,14.648,86.914,-704.59,27.832,95.703
1573889167,6.348,85.938,-760.742,6.836,68.848
1573889167,-7.324,89.844,-951.66,-11.23,-106.445
1573889167,8.789,95.215,-538.574,17.09,-65.918
1573889167,24.414,83.496,-252.93,43.457,96.68
1573889167,11.719,66.895,-602.051,20.508,112.793
1573889167,-3.418,62.012,-943.359,-4.883,-53.711
1573889167,-5.371,62.988,-678.223,0,-112.793
1573889167,11.719,63.477,-437.988,28.32,47.852
1573889167,24.414,62.988,-785.645,32.227,104.492
1573889167,6.348,57.129,-1000,0,-67.383
1573889167,-17.578,53.711,-834.473,-11.719,-162.109
1573889167,-4.883,52.246,-364.746,19.043,0.488
1573889167,23.438,48.34,-420.41,39.062,139.16
1573889167,13.672,52.246,-920.41,9.766,23.438
1573889167,-13.672,53.223,-911.621,-17.09,-137.695
1573889167,5.859,58.105,-401.367,15.137,-50.781
1573889167,30.273,51.27,-409.668,44.922,103.516
1573889167,13.672,33.691,-911.133,9.766,39.062
1573889167,-8.301,30.273,-949.219,-17.09,-113.281
1573889167,0.977,40.527,-671.387,14.648,-99.609
1573889167,25.879,49.316,-645.996,44.922,71.289
1573889167,28.809,45.41,-931.641,25.391,94.238
1573889167,4.883,46.387,-995.117,-10.742,-74.707
1573889167,-2.93,45.41,-554.688,-0.488,-84.473
1573889167,17.09,36.133,-273.926,39.551,62.988
1573889167,25.391,36.621,-611.328,31.738,123.535
1573889167,6.348,41.016,-912.598,-7.324,-9.766
1573889167,-10.742,35.156,-737.793,-10.254,-126.953
1573889167,3.906,24.414,-386.719,26.367,-9.766
1573889167,20.02,19.043,-547.852,34.18,103.027
1573889167,5.859,23.438,-900.391,-7.812,-3.418
1573889167,-1.953,32.227,-972.656,-7.812,-177.734
1573889167,5.371,32.715,-923.828,24.414,-116.211
1573889167,13.184,34.668,-841.797,29.785,74.219
1573889167,9.766,41.504,-887.207,13.672,54.199
1573889167,-11.23,51.758,-880.371,-11.23,-73.242
1573889167,-2.93,49.316,-665.527,10.742,-89.355
1573889167,26.367,41.016,-516.113,47.363,52.246
1573889167,27.832,38.086,-626.953,37.109,108.398
1573889167,16.113,40.039,-977.051,18.066,-77.637
1573889167,12.695,41.504,-765.625,25.391,-129.883
1573889167,19.531,42.48,-283.691,44.434,33.691
1573889167,29.785,43.945,-512.207,42.969,122.07
1573889167,29.297,42.48,-959.473,27.832,0.977
1573889167,16.113,47.363,-966.309,20.996,-136.719
1573889167,14.648,42.969,-513.672,39.062,-24.902
1573889167,33.691,40.527,-348.145,55.664,137.695
1573889167,29.785,49.805,-824.219,26.367,37.109
1573889167,4.395,57.129,-916.016,0.977,-127.93
1573889167,6.348,62.012,-425.781,18.066,-60.547
1573889167,30.762,53.223,-194.336,47.852,130.371
1573889167,32.227,38.574,-694.336,33.691,110.352
1573889167,3.906,44.922,-946.777,2.441,-61.035
1573889167,-4.883,53.223,-491.211,19.043,-83.496
1573889167,18.066,43.945,-243.164,57.129,67.383
1573889167,25.879,37.109,-665.039,41.992,106.934
1573889167,-2.441,50.781,-1000,-11.719,-68.848
1573889167,-14.16,66.895,-709.473,-8.301,-125
1573889167,8.301,54.199,-259.277,34.668,30.273
1573889167,20.996,31.25,-646.484,38.574,87.891
1573889167,-1.465,25.879,-1000,3.418,-18.066
1573889167,-21.973,34.18,-795.898,-11.719,-116.211
1573889167,-6.348,42.969,-427.734,18.066,-40.527
1573889167,16.113,38.574,-488.77,47.363,107.422
1573889167,12.695,31.738,-846.68,19.043,42.48
1573889167,-8.789,26.367,-892.578,-9.766,-103.027
1573889167,-1.465,21.973,-593.262,21.484,-68.848
1573889167,29.297,7.324,-555.176,62.5,76.66
1573889167,23.926,-8.789,-879.395,43.457,82.031
1573889167,-6.348,-10.742,-907.227,-5.859,-59.082
1573889167,0,-14.16,-656.738,8.301,-94.238
1573889167,32.715,-8.789,-659.18,49.316,34.18
1573889167,31.738,-6.836,-733.887,37.109,111.816
1573889167,12.207,-10.254,-819.824,5.371,-19.043
1573889167,3.418,-2.93,-684.082,0,-112.793
1573889167,17.09,-3.906,-368.164,25.879,-6.836
1573889167,30.762,-3.906,-421.875,36.621,107.422
1573889167,13.184,-3.418,-840.332,5.859,2.441
1573889167,-5.859,-1.465,-911.621,-7.812,-154.785
1573889167,1.953,3.906,-614.258,19.043,-76.172
1573889167,17.09,7.324,-655.273,36.621,83.008
1573889167,11.23,13.184,-920.41,12.695,40.527
1573889167,-9.277,20.508,-1000,-13.184,-150.879
1573889167,-11.23,27.344,-747.07,-2.93,-145.508
1573889167,16.602,31.738,-337.402,30.762,66.406
1573889167,27.832,27.344,-585.449,26.367,111.816
1573889167,-10.742,9.766,-974.609,-14.648,-60.059
1573889167,-20.996,4.883,-692.383,-5.859,-130.371
1573889167,5.371,12.695,-255.859,26.367,38.574
1573889167,22.949,16.602,-537.109,29.297,117.676
1573889167,14.16,19.531,-933.594,5.371,-20.996
1573889167,-1.465,14.16,-752.93,1.953,-118.652
1573889167,8.301,-6.348,-368.652,35.156,-20.508
1573889167,32.227,-19.531,-414.062,57.129,110.352
1573889167,31.25,-15.137,-943.359,33.691,20.02
1573889167,3.418,-5.859,-769.531,13.184,-134.766
1573889167,16.602,-3.418,-131.348,43.945,-60.547
1573889168,44.434,-4.395,-156.738,64.941,83.008
1573889168,27.344,-6.836,-534.668,34.18,54.688
1573889168,2.93,-0.488,-566.406,-3.418,-106.445
1573889168,13.672,17.578,-157.227,17.09,-116.699
1573889168,32.715,20.02,48.34,45.898,60.547
1573889168,32.227,7.324,-355.469,27.344,80.566
1573889168,10.742,3.418,-701.66,-5.371,-51.758
1573889168,0.488,9.277,-436.523,0,-112.793
1573889168,24.902,3.418,-324.219,33.691,0.488
1573889168,25.391,-12.695,-596.191,29.785,118.164
1573889168,-4.395,-20.508,-642.09,-8.789,5.859
1573889168,-11.719,-17.578,-512.695,-13.184,-126.953
1573889168,9.766,-4.883,-233.398,21.484,-23.926
1573889168,26.367,5.371,-200.684,33.203,122.559
1573889168,12.207,2.441,-508.789,8.301,47.852
1573889168,-16.602,-12.207,-665.039,-22.461,-127.93
1573889168,-9.766,-17.578,-318.359,-0.977,-71.289
1573889168,25.879,-14.648,-65.43,43.945,124.023
1573889168,25.391,-11.719,-533.203,24.902,114.258
1573889168,-3.906,0.977,-969.727,-15.137,-76.172
1573889168,-1.953,7.324,-830.566,0.488,-117.676
1573889168,22.461,11.23,-390.137,30.762,50.781
1573889168,34.668,18.555,-373.047,36.621,117.188
1573889168,13.672,10.742,-722.656,9.766,-20.996
1573889168,-8.789,5.371,-541.016,1.953,-107.91
1573889168,15.625,5.371,-37.109,43.945,34.18
1573889168,47.852,1.465,-343.75,63.965,114.258
1573889168,29.785,17.09,-962.402,33.691,-26.855
1573889168,0,30.273,-716.797,12.207,-114.258
1573889168,9.766,32.715,-157.715,31.25,-14.648
1573889168,38.574,32.715,-350.098,52.734,116.699
1573889168,38.574,20.02,-912.598,35.645,22.949
1573889168,6.836,17.09,-886.23,2.441,-146.973
1573889168,1.465,29.297,-312.012,16.113,-69.336
1573889168,21.973,36.621,-163.086,46.875,79.59
1573889168,20.508,39.062,-715.332,33.203,61.523
1573889168,-9.277,49.316,-923.34,-6.348,-97.168
1573889168,-13.672,61.035,-513.184,1.953,-139.648
1573889168,17.09,60.547,-259.766,46.387,28.32
1573889168,20.02,54.199,-568.359,42.48,110.84
1573889168,-6.348,61.035,-913.086,-7.812,-26.367
1573889168,-13.672,71.777,-734.375,-10.742,-122.07
1573889168,10.254,71.289,-511.23,35.156,-1.953
1573889168,27.832,61.523,-841.309,41.016,79.102
1573889168,11.719,59.57,-1000,3.418,-8.301
1573889168,-6.348,67.871,-799.316,-15.137,-107.422
1573889168,22.949,73.242,-463.379,23.926,-41.504
1573889168,45.898,71.777,-505.859,53.223,98.633
1573889168,24.902,72.754,-787.598,21.484,68.359
1573889168,-2.441,83.984,-826.66,-8.789,-86.426
1573889168,1.953,99.121,-546.387,15.137,-95.703
1573889168,28.32,110.84,-424.805,51.758,55.176
1573889168,25.391,119.629,-639.16,39.062,103.027
1573889168,11.719,134.277,-894.531,12.207,-67.871
1573889168,17.09,149.902,-914.062,23.926,-142.578
1573889168,38.086,161.621,-778.32,58.105,4.395
1573889168,37.598,176.758,-705.078,55.664,83.496
1573889168,-1.953,195.801,-803.223,4.395,-24.414
1573889168,-17.578,205.566,-688.477,-9.277,-131.836
1573889168,11.719,215.332,-267.578,35.156,-20.02
1573889168,33.203,219.238,-241.211,49.316,117.188
1573889168,9.277,213.867,-737.793,16.602,9.766
1573889168,-22.949,211.914,-834.473,-7.812,-137.695
1573889168,-3.418,216.309,-278.32,29.297,-32.227
1573889168,34.668,224.609,-104.004,62.988,148.438
1573889168,21.973,230.469,-627.93,27.344,81.055
1573889168,-1.953,238.281,-980.957,-3.418,-119.141
1573889168,8.789,249.512,-675.781,25.391,-117.188
1573889168,30.762,251.465,-284.18,62.012,67.871
1573889168,34.668,238.77,-610.352,46.387,71.777
1573889168,11.23,235.84,-1000,10.254,-128.418
1573889168,3.418,247.07,-612.793,20.508,-151.855
1573889168,33.203,237.793,-157.715,61.523,22.949
1573889168,46.875,228.516,-453.125,52.246,114.746
1573889168,19.043,231.445,-940.43,6.348,-35.156
1573889168,-1.953,236.816,-676.758,-4.395,-137.695
1573889168,25.391,240.723,-164.062,35.156,-7.324
1573889168,49.805,234.375,-341.797,56.641,109.375
1573889168,28.32,221.68,-876.465,19.043,17.09
1573889168,-1.953,223.633,-983.887,-12.695,-141.602
1573889168,8.301,239.746,-501.465,15.625,-63.477
1573889168,41.016,234.863,-487.305,56.152,105.469
1573889168,28.32,216.797,-1000,25.879,45.41
1573889168,-7.812,218.75,-859.375,-19.043,-87.402
1573889168,0.977,215.82,-482.422,7.812,-83.984
1573889168,32.227,216.309,-364.746,51.27,59.082
1573889168,41.504,219.727,-589.355,44.434,95.703
1573889168,27.344,218.262,-815.43,11.23,-51.27
1573889168,13.672,217.285,-647.461,14.16,-128.906
1573889168,21.484,211.426,-387.695,41.016,-5.859
1573889168,27.832,198.242,-588.867,41.992,111.816
1573889168,15.137,187.5,-947.754,15.625,-6.348
1573889168,4.883,179.199,-920.898,12.207,-161.621
1573889168,18.066,170.898,-802.246,46.387,-76.66
1573889168,35.156,165.039,-652.344,64.453,90.332
1573889168,20.02,154.785,-810.059,39.551,29.785
1573889168,3.418,155.762,-970.215,24.414,-133.301
1573889168,18.066,157.227,-566.895,54.199,-91.797
1573889168,41.016,147.461,-395.02,79.102,60.547
1573889168,28.809,135.742,-815.918,52.734,68.359
1573889168,4.395,135.254,-1000,18.066,-94.238
1573889168,15.625,140.625,-675.293,31.25,-139.648
1573889168,39.062,137.695,-418.457,61.523,39.062
1573889168,34.668,140.625,-721.191,46.875,129.883
1573889168,4.395,140.625,-1000,1.953,-53.223
1573889168,-2.93,139.648,-788.086,4.883,-156.738
1573889168,25.879,145.508,-257.324,46.875,20.996
1573889168,32.715,151.367,-438.477,41.504,128.906
1573889168,3.906,146.973,-975.098,-6.836,1.953
1573889168,-11.23,136.719,-805.176,-17.09,-118.652
1573889168,1.953,127.441,-275.879,13.672,-24.414
1573889168,21.973,116.699,-391.113,35.156,94.727
1573889168,7.324,111.328,-923.34,9.766,16.602
1573889168,-30.762,118.652,-972.168,-24.414,-120.117
1573889168,-28.809,126.465,-566.406,-3.906,-59.082
1573889168,1.465,128.906,-488.281,33.203,105.469
1573889168,3.906,123.535,-920.898,19.531,73.242
1573889168,-34.18,138.184,-960.938,-18.066,-79.102
1573889168,-37.598,152.344,-494.629,1.953,-90.332
1573889168,-3.418,147.461,-298.34,46.875,35.156
1573889168,6.348,148.926,-667.48,35.645,89.844
1573889168,-19.043,153.32,-891.113,-7.812,-22.949
1573889168,-27.832,159.18,-611.816,-8.301,-102.539
1573889168,5.371,158.691,-300.781,39.551,4.395
1573889168,29.785,151.855,-458.008,55.664,123.047
1573889168,18.555,145.02,-789.062,20.996,43.457
1573889168,8.301,146.973,-814.941,9.766,-89.844
1573889168,31.25,156.738,-770.996,36.133,-63.965
1573889168,50.293,165.039,-812.988,52.246,78.125
1573889168,40.527,177.246,-815.918,31.25,70.312
1573889168,32.715,183.105,-803.711,13.672,-86.914
1573889168,38.574,180.176,-521.973,35.156,-93.75
1573889168,47.852,175.293,-246.094,56.152,87.402
1573889168,52.734,173.828,-496.094,42.969,115.234
1573889168,39.062,179.688,-935.547,13.184,-86.426
1573889168,29.785,186.035,-754.883,17.578,-150.879
1573889168,38.574,190.918,-242.188,48.828,38.086
1573889168,43.457,192.383,-430.176,47.363,118.652
1573889168,30.762,197.754,-932.129,14.16,-42.969
1573889168,15.137,206.543,-971.191,7.812,-165.527
1573889168,13.672,200.195,-531.738,36.133,-34.668
1573889168,19.531,186.523,-367.676,47.363,130.371
1573889168,6.348,179.688,-839.844,13.184,34.18
1573889168,-16.602,184.57,-872.559,-15.625,-119.141
1573889168,-13.184,193.848,-391.602,9.277,-65.918
1573889168,2.441,186.523,-263.672,34.668,95.215
1573889168,4.395,177.734,-727.051,13.184,65.918
1573889168,-8.301,176.27,-978.027,-7.812,-108.398
1573889168,-12.695,179.199,-539.551,7.812,-98.145
1573889168,-0.488,174.805,-259.766,34.668,72.266
1573889168,2.441,160.156,-695.801,28.809,97.168
1573889168,-11.719,166.016,-1000,0.977,-59.57
1573889168,-16.113,197.754,-702.637,2.441,-119.629
1573889168,11.719,209.473,-188.965,41.992,36.621
1573889168,25.391,207.031,-574.219,52.734,107.91
1573889168,1.465,217.285,-998.047,17.09,-16.113
1573889168,-1.953,236.816,-622.559,18.555,-109.375
1573889168,24.414,250,-233.887,59.57,-23.438
1573889168,43.457,252.441,-220.215,75.195,119.141
1573889168,36.621,254.883,-506.836,42.969,54.199
1573889168,15.625,254.883,-459.473,12.207,-100.586
1573889168,20.02,247.559,-113.77,37.109,-68.848
1573889168,45.898,234.375,-156.25,68.359,85.449
1573889168,43.945,224.609,-610.352,44.434,68.848
1573889168,18.555,231.934,-631.348,11.23,-72.754
1573889168,29.297,245.605,-259.277,36.133,-95.215
1573889168,60.547,252.93,-311.523,71.289,33.691
1573889168,63.477,253.906,-455.078,56.641,99.121
1573889168,41.504,248.535,-560.059,20.996,-42.48
1573889168,19.531,245.605,-382.812,14.16,-107.422
1573889168,31.25,236.328,-58.105,42.48,17.578
1573889168,51.758,222.656,-242.188,55.176,122.07
1573889168,37.109,225.098,-641.602,22.461,18.066
1573889168,10.254,235.352,-629.883,-2.93,-141.602
1573889168,21.484,237.305,-366.211,25.391,-71.289
1573889168,39.062,228.516,-405.273,40.527,93.262
1573889168,21.484,216.797,-761.23,8.789,44.922
1573889168,-2.93,215.82,-1000,-16.602,-136.23
1573889168,-2.93,217.285,-685.547,-1.953,-108.398
1573889168,13.672,223.145,-201.172,25.391,84.961
1573889168,20.02,216.797,-514.648,14.16,87.402
1573889168,-3.906,192.871,-940.918,-16.113,-119.141
1573889168,-18.555,180.664,-662.109,-8.789,-173.34
1573889168,1.953,182.129,-223.633,23.926,16.602
1573889168,10.742,190.918,-471.68,24.414,115.234
1573889168,-11.719,198.73,-971.191,-5.859,-31.25
1573889168,-24.902,192.383,-870.605,-5.371,-146.973
1573889168,1.465,182.129,-513.672,33.203,-25.391
1573889168,16.602,174.805,-664.551,36.621,97.656
1573889168,-7.324,165.039,-1000,-10.254,-11.719
1573889168,-13.672,164.062,-770.996,-26.855,-122.07
1573889168,12.695,163.086,-196.289,17.578,-21.973
1573889168,36.621,142.09,-232.91,44.922,125
1573889168,38.574,119.629,-768.066,23.438,64.453
1573889168,22.461,119.629,-814.453,1.953,-100.586
1573889168,23.926,131.836,-376.465,17.578,-83.496
1573889168,44.434,145.508,-240.234,46.875,83.496
1573889168,51.27,139.16,-598.633,35.645,108.398
1573889168,31.738,97.656,-980.957,1.953,-77.637
1573889168,20.996,69.336,-772.461,7.324,-129.883
1573889168,37.598,39.062,-644.531,43.457,7.812
1573889168,35.156,-22.949,-974.609,32.227,68.848
1573889168,8.301,-84.473,-994.141,-7.812,-15.137
1573889168,-0.488,-144.531,-846.68,0,-113.281
1573889168,20.02,-193.359,-652.344,33.203,-25.391
1573889168,37.109,-216.309,-748.047,38.574,98.633
1573889168,19.531,-226.074,-941.406,5.859,25.879
1573889168,-1.953,-241.699,-1000,-10.742,-145.508
1573889168,4.395,-256.348,-761.23,12.207,-72.754
1573889168,17.09,-257.324,-555.176,29.297,114.258
1573889168,9.277,-255.859,-872.07,7.812,61.035
1573889168,-13.184,-248.535,-1000,-15.625,-101.562
1573889168,-16.602,-239.258,-926.27,0,-108.887
1573889168,0.488,-234.375,-672.852,32.227,48.828
1573889168,2.93,-230.957,-761.719,21.484,79.102
1573889168,-22.461,-223.145,-1000,-24.414,-92.773
1573889168,-20.996,-196.777,-773.926,-12.695,-154.785
1573889168,12.207,-176.758,-256.836,35.156,28.32
1573889168,23.926,-182.129,-338.867,37.109,139.648
1573889168,16.113,-187.5,-864.258,12.207,-13.184
1573889168,11.23,-174.316,-770.508,7.812,-134.766
1573889168,21.484,-161.621,-238.281,25.879,-20.508
1573889168,49.316,-164.062,-407.227,45.898,112.793
1573889168,49.316,-171.387,-944.824,25.391,13.672
1573889168,20.996,-172.363,-868.164,-5.371,-127.441
1573889168,22.949,-157.715,-258.301,11.23,-43.457
1573889168,41.016,-150.391,-99.609,35.645,104.004
1573889168,31.738,-155.273,-657.227,12.695,72.754
1573889168,7.812,-151.855,-871.094,-22.949,-92.285
1573889168,5.859,-150.879,-506.348,-6.836,-114.258
1573889168,24.414,-154.785,-231.445,34.18,60.547
1573889168,20.508,-155.273,-498.047,23.926,122.559
1573889168,-2.93,-152.832,-779.297,-11.23,-27.344
1573889168,-12.207,-147.949,-494.141,-13.184,-114.258
1573889168,11.23,-143.066,-306.641,18.066,11.23
1573889168,34.18,-135.742,-765.625,31.738,110.84
1573889168,11.719,-130.859,-1000,4.395,5.859
1573889168,-14.16,-120.605,-662.598,-11.719,-104.492
1573889168,4.883,-106.934,-282.715,22.949,-20.508
1573889168,31.738,-109.375,-371.094,48.828,105.957
1573889168,20.996,-112.793,-711.426,24.414,41.992
1573889168,0.977,-96.68,-686.035,7.324,-79.102
1573889168,13.672,-82.52,-260.254,40.039,-26.855
1573889168,38.086,-89.844,-288.574,71.777,96.191
1573889168,40.039,-96.68,-675.293,49.316,110.352
1573889168,14.648,-97.168,-833.496,15.625,-59.57
1573889168,15.625,-88.867,-628.418,38.574,-111.816
1573889168,42.48,-73.73,-378.906,67.383,78.125
1573889168,49.316,-65.918,-558.594,49.316,134.766
1573889168,29.297,-67.871,-775.391,20.02,-11.23
1573889168,25.391,-71.289,-871.094,25.879,-122.559
1573889168,42.969,-73.242,-686.523,53.223,-25.879
1573889168,44.434,-87.402,-535.645,48.828,92.773
1573889168,38.086,-96.68,-939.941,23.926,-23.438
1573889168,20.508,-82.031,-880.371,11.23,-130.371
1573889168,24.414,-74.707,-391.602,26.855,-42.969
1573889169,45.898,-80.566,-323.242,48.34,104.98
1573889169,40.039,-79.59,-747.07,30.273,65.43
1573889169,17.578,-70.801,-1000,6.348,-122.559
1573889169,1.465,-72.754,-743.652,15.625,-115.234
1573889169,20.996,-79.59,-541.504,41.016,68.359
1573889169,30.273,-74.707,-807.129,30.273,80.566
1573889169,2.441,-59.57,-1000,-5.371,-101.562
1573889169,-7.324,-41.016,-671.875,-7.324,-128.906
1573889169,12.207,-40.527,-216.797,25.879,48.828
1573889169,19.531,-51.27,-562.5,29.785,105.957
1573889169,-2.441,-47.852,-1000,-15.137,-44.434
1573889169,-7.812,-33.691,-756.836,-20.02,-133.301
1573889169,16.602,-30.762,-306.152,22.949,-18.066
1573889169,32.715,-41.992,-479.004,38.086,113.281
1573889169,22.949,-48.34,-930.176,12.695,32.227
1573889169,2.93,-35.645,-916.992,-2.441,-117.676
1573889169,14.16,-28.32,-553.711,33.203,-41.016
1573889169,38.574,-44.922,-662.598,64.941,79.102
1573889169,25.391,-52.734,-1000,34.668,20.02
1573889169,-5.371,-37.109,-911.133,-2.93,-120.605
1573889169,-6.348,-30.762,-441.895,7.812,-76.66
1573889169,23.926,-24.902,-219.727,43.945,98.633
1573889169,25.391,-16.113,-576.66,35.645,96.191
1573889169,4.883,-0.977,-800.293,-2.93,-58.105
1573889169,4.883,24.414,-583.008,9.277,-119.629
1573889169,20.02,29.785,-266.113,43.457,31.738
1573889169,32.715,20.508,-465.332,44.922,140.625
1573889169,17.09,27.344,-926.27,15.137,-11.719
1573889169,8.789,43.945,-869.629,8.789,-152.832
1573889169,26.855,41.992,-662.109,41.504,-48.34
1573889169,29.785,31.738,-551.27,50.293,102.051
1573889169,20.508,27.344,-737.793,33.203,54.688
1573889169,0.488,28.809,-828.613,8.789,-95.215
1573889169,0.488,35.645,-449.219,17.09,-78.125
1573889169,23.438,47.852,-238.281,48.34,83.496
1573889169,39.551,52.734,-537.109,40.527,93.262
1573889169,22.461,45.898,-818.359,15.625,-84.961
1573889169,9.277,43.945,-508.789,24.414,-113.77
1573889169,33.203,45.41,-293.457,57.617,43.457
1573889169,40.527,39.551,-691.406,55.176,94.727
1573889169,20.02,36.621,-1000,14.16,-69.336
1573889169,4.395,51.758,-773.438,1.465,-141.602
1573889169,14.648,65.918,-221.68,25.879,23.438
1573889169,33.691,64.941,-329.102,36.621,127.441
1573889169,21.973,70.312,-831.543,10.742,6.348
1573889169,3.418,81.055,-777.832,1.953,-125
1573889169,5.859,80.078,-335.449,23.438,-32.227
1573889169,20.02,72.754,-339.355,37.598,101.074
1573889169,14.648,71.289,-768.066,12.207,47.363
1573889169,-15.625,66.895,-728.516,-22.949,-92.285
1573889169,-15.137,55.176,-406.738,1.953,-82.031
1573889169,16.113,46.875,-463.379,44.434,76.66
1573889169,15.137,39.551,-897.949,18.555,70.312
1573889169,-20.02,48.34,-939.453,-20.996,-88.867
1573889169,-31.25,62.5,-413.574,-4.395,-96.68
1573889169,-2.441,46.387,-178.223,29.297,57.129
1573889169,9.766,22.949,-504.883,23.926,109.863
1573889169,-16.602,26.367,-709.961,-8.789,-28.809
1573889169,-33.691,33.691,-395.02,-18.555,-109.375
1573889169,-18.066,33.203,-66.895,15.625,19.043
1573889169,-13.184,27.832,-369.141,32.227,108.887
1573889169,-38.574,27.832,-676.758,0.488,7.324
1573889169,-47.363,35.156,-574.707,-3.906,-113.281
1573889169,-29.297,28.809,-395.508,34.18,-35.156
1573889169,-5.859,20.02,-458.984,56.641,107.91
1573889169,-9.766,10.742,-555.664,29.297,55.664
1573889169,-28.809,-4.395,-520.508,4.883,-112.793
1573889169,-24.414,-2.441,-253.906,31.25,-91.797
1573889169,2.441,-4.395,14.16,62.988,99.121
1573889169,2.441,-24.414,-170.898,44.434,121.094
1573889169,-25.391,-32.227,-525.391,10.742,-66.895
1573889169,-30.273,-27.832,-368.652,20.02,-133.301
1573889169,-7.324,-25.879,6.836,52.246,29.297
1573889169,10.742,-26.367,-122.07,52.734,125.488
1573889169,-3.418,-23.438,-678.223,23.438,-27.344
1573889169,-17.578,-6.348,-886.719,14.16,-147.949
1573889169,-2.441,8.789,-325.195,41.992,-9.766
1573889169,18.066,-4.395,-122.07,58.594,113.77
1573889169,3.418,-18.066,-590.332,27.344,32.227
1573889169,-24.414,-16.113,-599.121,5.859,-97.168
1573889169,-11.719,-9.277,-62.012,39.551,-31.738
1573889169,14.16,-4.395,0.977,62.5,104.492
1573889169,5.859,-10.742,-530.273,30.273,64.941
1573889169,-19.531,-9.766,-742.188,-0.488,-92.285
1573889169,-32.715,-0.977,-264.16,9.766,-79.59
1573889169,-14.16,-6.836,-23.438,33.691,83.496
1573889169,-7.812,-16.113,-591.309,23.926,75.684
1573889169,-28.32,-18.555,-1000,-7.812,-105.469
1573889169,-29.297,-19.043,-733.398,-6.836,-167.969
1573889169,-11.23,-33.691,-346.191,22.949,5.859
1573889169,-0.977,-47.852,-623.047,21.484,82.031
1573889169,-11.23,-39.551,-1000,-10.254,-62.988
1573889169,-21.973,-39.551,-695.312,-11.719,-138.184
1573889169,-6.348,-57.129,-226.562,25.391,-11.23
1573889169,5.371,-70.801,-308.594,35.156,134.766
1573889169,-9.277,-75.684,-709.961,2.441,43.457
1573889169,-25.391,-78.125,-697.266,-17.09,-110.352
1573889169,-13.672,-80.566,-306.641,9.277,-48.828
1573889169,8.301,-86.426,-423.34,30.273,92.773
1573889169,0.977,-100.098,-911.621,1.953,44.922
1573889169,-22.461,-111.816,-900.391,-29.785,-90.82
1573889169,-13.672,-111.816,-587.891,-2.441,-91.797
1573889169,17.09,-106.445,-683.105,38.574,38.086
1573889169,16.113,-108.887,-878.906,27.344,94.727
1573889169,-6.348,-106.445,-963.379,2.93,-74.219
1573889169,-3.906,-103.516,-857.422,15.137,-169.434
1573889169,19.531,-100.098,-481.934,47.363,-2.441
1573889169,21.484,-109.375,-479.004,37.109,123.047
1573889169,8.789,-132.324,-841.797,8.301,5.371
1573889169,-2.441,-139.16,-812.988,3.418,-124.023
1573889169,18.066,-139.16,-562.5,34.18,-46.875
1573889169,43.945,-141.113,-626.465,51.758,112.305
1573889169,30.273,-147.461,-874.023,22.461,49.316
1573889169,14.16,-148.926,-1000,5.859,-154.297
1573889169,23.438,-131.348,-745.605,21.973,-106.445
1573889169,47.852,-113.77,-347.656,47.852,93.262
1573889169,56.152,-105.469,-651.855,53.223,66.895
1573889169,23.926,-101.074,-995.605,10.742,-120.605
1573889169,6.836,-84.961,-672.852,6.836,-118.652
1573889169,28.32,-64.453,-184.57,45.41,71.777
1573889169,48.828,-49.316,-438.965,46.387,113.77
1573889169,38.574,-14.648,-971.68,16.113,-72.266
1573889169,18.066,30.762,-776.855,7.812,-143.066
1573889169,21.973,51.758,-299.805,33.691,10.742
1573889169,40.527,74.707,-494.141,47.363,107.422
1573889169,38.574,121.094,-964.355,23.926,-11.23
1573889169,7.324,172.852,-711.914,-8.789,-138.672
1573889169,0.977,210.449,-38.086,6.836,-32.715
1573889169,33.691,235.352,-165.039,40.527,96.191
1573889169,39.062,261.23,-704.102,22.949,46.387
1573889169,2.93,280.273,-560.547,-11.23,-96.191
1573889169,2.93,298.34,-51.27,12.695,-70.312
1573889169,30.273,296.875,-39.551,45.898,72.266
1573889169,36.621,295.41,-512.695,34.18,64.941
1573889169,15.137,304.688,-788.574,0,-89.844
1573889169,8.789,314.941,-485.352,0,-109.375
1573889169,40.039,323.242,-330.078,38.574,43.457
1573889169,45.898,316.895,-678.711,29.297,95.703
1573889169,19.043,302.734,-726.562,-5.859,-40.527
1573889169,17.09,311.523,-485.352,5.371,-145.996
1573889169,32.715,317.383,-187.012,27.832,-20.508
1573889169,36.621,304.688,-184.57,20.996,138.672
1573889169,26.855,302.246,-512.207,-4.883,39.062
1573889169,17.578,306.152,-572.266,-3.906,-114.746
1573889169,33.203,305.664,-190.43,30.762,-31.738
1573889169,52.246,300.781,-41.016,44.434,129.395
1573889169,42.969,278.32,-550.293,22.949,82.52
1573889169,25.391,263.672,-1000,3.418,-121.582
1573889169,32.227,276.855,-596.68,24.414,-102.539
1573889169,48.34,292.969,-107.422,52.246,93.262
1573889169,49.316,301.27,-354.98,34.18,113.281
1573889169,34.18,304.688,-813.965,4.883,-67.383
1573889169,35.645,316.406,-861.816,20.996,-148.438
1573889169,50.781,346.191,-321.777,55.176,30.273
1573889169,43.945,365.234,-290.039,47.363,118.652
1573889169,20.02,361.816,-815.43,4.395,-30.273
1573889169,14.16,366.699,-729.98,1.465,-139.648
1573889169,40.039,380.859,-217.285,45.898,-35.156
1573889169,60.059,384.766,-400.391,64.941,97.656
1573889169,44.922,375,-921.875,30.273,0
1573889169,20.508,339.844,-884.277,1.953,-162.109
1573889169,33.691,296.387,-461.426,32.715,-76.172
1573889169,57.617,205.566,-372.559,55.176,84.473
1573889169,48.34,106.934,-807.129,28.32,47.363
1573889169,26.367,54.199,-947.754,8.301,-92.773
1573889169,30.762,21.973,-496.094,27.832,-81.055
1573889169,53.223,15.137,-292.48,49.805,74.219
1573889169,43.945,11.719,-725.098,26.855,99.609
1573889169,17.578,12.207,-952.148,-3.906,-34.18
1573889169,23.438,28.32,-556.152,13.672,-88.867
1573889169,46.387,36.621,-419.434,49.316,20.996
1573889169,50.781,47.852,-834.473,46.387,90.332
1573889169,32.227,83.008,-1000,15.137,-24.902
1573889169,12.207,125.488,-727.051,3.906,-125
1573889169,21.484,167.48,-371.582,31.738,-42.969
1573889169,43.457,190.918,-507.324,58.105,93.75
1573889169,33.203,196.289,-884.277,30.762,28.32
1573889169,9.766,211.426,-838.867,0.488,-138.672
1573889169,23.926,245.117,-415.039,35.156,-85.449
1573889169,49.316,269.531,-219.238,66.895,104.004
1573889169,38.574,266.113,-537.598,38.574,81.543
1573889169,13.672,268.066,-748.535,4.395,-82.52
1573889169,14.16,287.109,-479.98,23.926,-80.078
1573889169,34.668,294.434,-344.238,60.059,68.848
1573889169,40.527,290.527,-570.801,52.734,106.445
1573889169,19.043,297.852,-783.691,16.602,-55.664
1573889169,16.602,301.27,-826.172,22.949,-142.578
1573889169,41.504,312.012,-557.617,48.34,0.977
1573889169,52.734,334.961,-342.773,47.852,122.07
1573889169,44.922,340.82,-712.402,25.879,-4.395
1573889169,28.32,351.074,-837.402,12.695,-144.531
1573889169,41.504,369.141,-341.309,36.621,-38.086
1573889169,64.453,359.863,-153.32,55.664,113.281
1573889169,61.523,351.074,-643.555,37.109,47.852
1573889169,36.621,366.211,-836.426,13.672,-85.449
1573889169,29.297,384.277,-459.961,25.879,-76.66
1573889169,51.27,388.184,-181.152,55.664,68.359
1573889169,59.082,383.301,-544.922,51.27,85.449
1573889169,38.086,390.625,-1000,20.02,-104.492
1573889169,24.414,420.898,-591.309,16.113,-131.348
1573889169,42.969,434.082,-91.309,41.504,49.316
1573889169,58.105,422.852,-523.926,44.434,71.289
1573889169,49.316,414.062,-974.121,26.855,-79.59
1573889169,28.32,403.809,-532.227,19.531,-118.164
1573889169,25.391,391.602,-117.676,36.133,10.254
1573889169,45.898,393.066,-401.855,46.875,102.539
1573889169,38.574,392.578,-876.953,20.02,0.977
1573889169,20.02,393.555,-914.062,2.93,-146.484
1573889169,23.438,407.715,-271.484,25.879,-38.574
1573889169,39.062,401.855,-369.141,42.48,90.332
1573889169,32.715,387.695,-1000,17.09,14.16
1573889169,10.742,387.695,-829.59,-7.812,-128.418
1573889169,21.973,400.879,-342.285,18.555,-120.605
1573889169,43.945,408.691,-145.02,48.828,64.941
1573889169,37.598,408.203,-367.188,27.832,107.91
1573889169,16.602,412.598,-505.371,-6.348,-39.062
1573889169,14.16,415.527,-263.184,2.93,-95.215
1573889169,37.109,417.48,-8.301,39.551,44.434
1573889169,49.316,414.551,-317.871,46.875,115.234
1573889169,25.391,397.949,-772.949,8.301,-22.461
1573889169,1.953,390.137,-629.883,-5.859,-121.094
1573889169,25.391,385.254,-364.258,31.25,-21.484
1573889169,44.922,376.465,-200.195,43.945,123.535
1573889169,31.738,359.375,-306.152,18.555,48.34
1573889169,28.32,348.145,-445.801,11.719,-127.93
1573889169,29.297,353.027,-57.617,34.18,-70.801
1573889169,29.785,349.609,158.691,42.969,91.309
1573889169,37.109,345.215,-243.164,29.785,61.035
1573889169,26.855,353.027,-522.461,9.766,-104.98
1573889169,23.926,348.145,-305.664,22.461,-137.207
1573889169,45.898,339.844,-132.324,55.176,35.645
1573889169,48.34,352.051,-435.547,46.387,79.59
1573889169,27.344,363.77,-834.473,12.207,-80.078
1573889169,24.902,373.047,-614.746,20.02,-132.324
1573889169,40.039,375.977,-13.672,51.27,38.086
1573889169,43.457,380.371,-77.637,48.828,125.977
1573889169,26.855,392.09,-699.219,18.555,-24.414
1573889169,10.742,405.273,-638.184,5.859,-138.184
1573889169,25.879,427.246,-16.602,37.109,-26.855
1573889169,43.457,442.383,-83.008,54.199,105.957
1573889169,28.32,455.078,-586.426,15.137,26.855
1573889169,3.906,467.285,-634.766,-16.602,-143.555
1573889169,13.184,485.84,-301.758,13.672,-91.797
1573889169,32.715,505.371,-269.043,41.016,96.191
1573889169,24.414,514.16,-793.945,13.672,73.242
1573889169,-16.113,539.551,-853.027,-27.832,-83.496
1573889169,-18.555,574.707,-217.773,-11.719,-83.496
1573889169,18.555,593.262,-10.742,31.25,72.266
1573889169,26.855,619.141,-460.938,25.391,109.375
1573889169,12.695,660.156,-718.262,-15.625,-48.828
1573889169,5.859,699.219,-397.461,-14.16,-129.883
1573889169,25.391,720.703,-86.426,30.273,-0.488
1573889169,38.086,732.91,-253.418,39.062,110.84
1573889169,11.23,750.977,-545.898,-3.906,18.066
1573889169,-9.277,766.602,-529.297,-24.414,-107.91
1573889169,11.23,774.902,-440.43,10.254,-36.621
1573889170,29.785,793.945,-550.781,26.855,95.703
1573889170,13.184,822.266,-655.762,-7.324,41.016
1573889170,-20.02,840.332,-617.676,-34.18,-104.98
1573889170,-18.555,859.375,-316.895,-15.137,-71.777
1573889170,14.16,886.719,-141.602,24.902,91.797
1573889170,19.043,901.367,-476.562,17.578,76.172
1573889170,-5.859,913.574,-839.355,-21.973,-84.961
1573889170,-8.789,933.105,-578.125,-13.672,-93.262
1573889170,15.625,941.895,-180.176,25.391,57.617
1573889170,19.531,947.266,-428.711,20.508,110.352
1573889170,0,949.707,-884.277,-19.043,-24.902
1573889170,0.977,974.121,-975.586,-17.09,-153.809
1573889170,14.648,-1000,-565.918,12.207,-45.41
1573889170,36.133,999.023,-373.535,32.227,104.492
1573889170,28.32,998.535,-811.035,12.207,-15.137
1573889170,-2.441,999.512,-887.207,-14.648,-172.852
1573889170,8.301,999.512,-351.562,13.184,-60.547
1573889170,33.691,999.512,-232.91,44.922,96.191
1573889170,35.645,999.512,-762.207,22.461,13.672
1573889170,18.066,999.512,-899.414,-2.93,-130.371
1573889170,18.066,999.512,-351.074,16.113,-72.266
1573889170,43.945,999.512,-202.148,52.246,80.078
1573889170,54.688,999.512,-726.562,51.27,54.688
1573889170,21.484,999.512,-955.566,1.953,-104.004
1573889170,5.371,999.512,-489.746,-1.953,-118.164
1573889170,33.691,999.512,-36.133,46.875,54.199
1573889170,42.969,999.512,-329.59,41.504,120.605
1573889170,9.766,999.512,-845.703,-4.395,-46.387
1573889170,-9.277,999.512,-578.125,-12.207,-123.047
1573889170,9.277,999.512,-99.609,17.09,0.488
1573889170,21.973,999.512,-239.746,28.809,125.977
1573889170,8.301,999.512,-576.172,-5.859,50.293
1573889170,-7.812,999.512,-516.113,-22.949,-105.469
1573889170,1.953,999.512,-202.637,9.766,-64.453
1573889170,16.602,999.512,-233.398,27.832,111.328
1573889170,10.742,999.512,-712.402,8.301,75.684
1573889170,-5.371,999.512,-888.184,-14.16,-102.539
1573889170,5.371,999.512,-534.18,13.184,-111.816
1573889170,33.203,999.512,-456.543,55.176,59.57
1573889170,29.785,999.512,-561.523,37.598,122.07
1573889170,5.859,999.512,-615.723,-0.488,-39.551
1573889170,0.488,999.512,-472.656,7.812,-117.188
1573889170,28.32,999.512,-187.5,50.781,16.113
1573889170,39.062,999.512,-259.277,59.57,119.141
1573889170,16.113,999.512,-579.59,23.926,14.16
1573889170,5.859,999.512,-528.809,10.254,-99.609
1573889170,30.273,999.512,-264.16,49.316,-4.395
1573889170,49.805,999.512,-434.57,63.965,108.398
1573889170,28.32,999.512,-783.203,23.926,38.086
1573889170,5.859,999.512,-955.566,1.465,-123.047
1573889170,20.996,999.512,-800.293,24.902,-99.609
1573889170,34.668,999.512,-396.973,50.293,76.172
1573889170,26.855,999.512,-583.984,34.18,71.777
1573889170,0.488,999.512,-857.422,4.395,-88.867
1573889170,-8.301,999.512,-477.539,12.695,-108.887
1573889170,15.137,999.512,-76.66,44.922,69.824
1573889170,18.555,999.512,-409.668,36.621,123.047
1573889170,2.441,999.512,-900.391,1.465,-57.617
1573889170,-0.977,999.512,-775.879,5.859,-138.672
1573889170,10.742,999.512,-415.527,27.832,12.695
1573889170,30.273,999.512,-553.223,34.668,103.027
1573889170,21.973,999.512,-991.211,7.324,-20.996
1573889170,2.93,999.512,-763.672,-8.301,-122.07
1573889170,16.113,999.512,-242.188,29.297,-36.621
1573889170,29.297,999.512,-382.812,50.293,98.145
1573889170,21.973,999.512,-936.035,24.902,16.113
1573889170,4.883,999.512,-874.023,-1.465,-117.188
1573889170,9.277,999.512,-342.285,22.949,-50.781
1573889170,29.785,999.512,-276.367,50.293,88.867
1573889170,30.273,999.512,-648.438,27.344,98.633
1573889170,13.672,999.512,-950.684,-0.488,-84.961
1573889170,2.441,999.512,-753.418,12.695,-133.301
1573889170,30.273,999.512,-648.926,53.711,14.16
1573889170,41.504,999.512,-975.098,48.34,49.316
1573889170,8.789,999.512,-966.797,8.789,-57.129
1573889170,-1.465,999.512,-667.48,9.766,-135.254
1573889170,21.973,999.512,-396.973,41.992,-21.973
1573889170,32.227,999.512,-456.543,47.363,107.91
1573889170,14.16,999.512,-750,8.301,14.648
1573889170,1.465,999.512,-894.043,-11.719,-140.137
1573889170,15.137,999.512,-534.18,22.461,-60.547
1573889170,34.668,999.512,-404.785,41.504,104.004
1573889170,22.949,999.512,-829.102,10.742,56.152
1573889170,2.93,999.512,-1000,-16.602,-136.23
1573889170,3.418,999.512,-927.246,-1.953,-153.809
1573889170,27.832,999.512,-605.469,34.668,40.039
1573889170,38.086,999.512,-597.168,27.344,79.59
1573889170,12.207,999.512,-867.676,-4.883,-58.105
1573889170,9.277,999.512,-558.105,5.859,-78.613
1573889170,29.297,999.512,-172.363,45.41,47.363
1573889170,41.992,999.512,-364.258,49.805,125.977
1573889170,33.691,999.512,-796.387,17.09,-3.906
1573889170,14.16,999.512,-674.316,7.324,-118.164
1573889170,26.367,999.512,-230.469,36.621,0
1573889170,48.34,999.512,-452.637,52.734,124.023
1573889170,40.039,999.512,-918.945,25.879,2.441
1573889170,16.602,999.512,-904.785,5.371,-169.434
1573889170,21.973,999.512,-433.594,37.109,-87.402
1573889170,45.898,999.512,-237.305,62.988,99.609
1573889170,27.344,999.512,-672.852,25.879,84.961
1573889170,-1.465,999.512,-840.82,-7.812,-89.355
1573889170,6.348,999.512,-360.84,15.137,-79.102
1573889170,37.598,999.512,-145.508,53.223,90.332
1573889170,34.18,999.512,-591.797,35.645,100.586
1573889170,-0.488,999.512,-885.254,-11.719,-64.453
1573889170,-2.93,999.512,-560.547,-4.395,-126.465
1573889170,35.156,999.512,-362.793,49.316,28.809
1573889170,47.363,998.047,-771.973,47.363,106.445
1573889170,15.625,-999.512,-1000,-3.906,-47.363
1573889170,6.348,990.723,-704.102,-1.465,-145.996
1573889170,28.32,951.172,-269.043,37.109,-10.742
1573889170,53.223,920.898,-332.52,53.223,122.559
1573889170,48.828,896.973,-619.629,29.297,42.969
1573889170,20.508,852.051,-565.918,6.348,-104.98
1573889170,37.598,802.246,-258.301,42.48,-70.312
1573889170,67.871,766.602,-186.523,72.266,96.191
1573889170,49.316,743.652,-459.473,41.504,94.727
1573889170,27.344,726.074,-654.297,14.648,-82.52
1573889170,34.18,696.777,-438.965,40.527,-99.609
1573889170,63.965,666.016,-268.066,80.566,69.336
1573889170,72.266,638.672,-441.406,75.195,109.375
1573889170,46.387,598.145,-573.242,35.156,-31.738
1573889170,33.691,551.758,-607.422,30.273,-115.234
1573889170,49.805,504.395,-394.043,64.941,8.789
1573889170,56.641,455.078,-238.281,69.336,128.418
1573889170,41.016,421.875,-615.723,39.062,7.324
1573889170,31.25,410.156,-650.879,31.25,-131.836
1573889170,31.25,395.508,-170.41,48.828,-21.973
1573889170,42.48,373.047,-49.316,57.617,143.555
1573889170,40.039,356.445,-524.902,36.621,69.336
1573889170,18.555,355.469,-804.688,20.508,-106.445
1573889170,26.367,348.145,-504.883,44.922,-86.914
1573889170,47.363,321.289,-291.016,67.871,67.383
1573889170,37.109,291.016,-643.066,38.086,55.664
1573889170,26.855,258.789,-952.637,8.789,-121.582
1573889170,31.738,230.957,-550.781,32.227,-115.234
1573889170,45.41,205.078,-254.883,65.918,48.34
1573889170,55.664,189.453,-651.367,65.918,80.078
1573889170,36.133,193.359,-1000,35.645,-86.426
1573889170,20.996,204.59,-675.293,30.762,-135.742
1573889170,36.133,192.871,-208.984,62.012,14.648
1573889170,57.129,173.828,-428.711,75.684,120.117
1573889170,42.48,166.504,-933.594,45.898,-9.277
1573889170,19.043,166.016,-972.168,27.832,-160.156
1573889170,38.574,171.387,-507.324,64.941,-62.988
1573889170,73.73,172.852,-546.387,92.773,93.262
1573889170,59.57,165.527,-1000,55.176,16.113
1573889170,25.391,165.039,-847.168,23.438,-103.516
1573889170,33.691,179.199,-362.305,51.27,-52.734
1573889170,53.711,186.523,-294.922,79.59,88.379
1573889170,45.898,182.129,-616.211,52.734,99.121
1573889170,26.367,181.152,-897.949,18.555,-81.055
1573889170,25.391,189.453,-758.301,38.574,-127.441
1573889170,42.969,191.895,-419.922,69.824,31.738
1573889170,46.387,182.617,-666.504,54.688,88.867
1573889170,24.414,176.27,-1000,20.02,-61.035
1573889170,20.508,183.594,-881.836,20.02,-161.133
1573889170,33.691,193.359,-559.082,49.316,-36.621
1573889170,40.039,193.848,-498.535,58.594,101.562
1573889170,30.273,190.43,-748.535,28.809,34.18
1573889170,19.043,184.082,-876.465,9.766,-108.887
1573889170,40.039,192.383,-796.875,41.504,-63.477
1573889170,50.781,191.406,-594.238,58.594,90.82
1573889170,31.25,159.668,-732.422,23.926,87.891
1573889170,19.043,140.625,-984.375,-5.371,-108.887
1573889170,23.438,133.789,-710.449,19.043,-118.164
1573889170,45.898,122.07,-498.535,56.152,77.148
1573889170,43.945,113.77,-821.777,34.668,99.609
1573889170,23.926,111.328,-1000,4.883,-85.938
1573889170,21.484,109.375,-809.082,21.973,-158.203
1573889170,29.785,95.703,-318.359,51.758,40.039
1573889170,37.598,81.543,-432.129,58.105,130.859
1573889170,20.508,70.801,-944.336,24.414,-24.414
1573889170,1.465,72.266,-803.711,9.277,-130.859
1573889170,18.066,72.266,-266.602,43.457,-0.488
1573889170,42.48,58.105,-360.352,65.918,128.418
1573889170,27.344,53.711,-917.969,33.203,17.578
1573889170,2.441,56.641,-832.52,-0.488,-112.305
1573889170,17.578,46.875,-419.434,33.691,-46.875
1573889170,41.992,32.227,-509.277,63.965,93.262
1573889170,29.785,20.508,-908.691,28.809,60.547
1573889170,5.371,32.227,-930.664,0,-105.957
1573889170,14.16,46.387,-459.473,32.227,-114.258
1573889170,41.992,52.246,-243.164,68.359,58.105
1573889170,49.805,61.035,-530.273,57.617,123.047
1573889170,20.02,48.34,-729.492,17.578,-36.621
1573889170,7.812,42.969,-444.824,20.02,-111.816
1573889170,43.457,42.969,-165.527,66.406,27.832
1573889170,54.688,33.691,-410.156,65.43,115.234
1573889170,28.32,34.18,-744.141,23.926,20.508
1573889170,21.484,44.434,-696.777,19.531,-95.703
1573889170,32.715,62.012,-546.387,52.246,-27.344
1573889170,40.039,75.195,-642.09,64.453,111.328
1573889170,26.367,105.957,-667.969,37.109,71.289
1573889170,11.719,135.254,-656.25,15.625,-98.633
1573889170,20.996,135.742,-425.293,44.434,-79.59
1573889170,38.574,142.578,-209.473,70.801,91.797
1573889170,31.738,144.043,-453.125,43.457,91.797
1573889170,8.301,139.648,-715.332,11.23,-73.242
1573889170,0,134.277,-446.289,20.508,-86.426
1573889170,20.508,125,-110.352,52.246,77.148
1573889170,26.855,112.793,-372.07,46.387,124.023
1573889170,9.277,103.516,-904.785,10.254,-55.176
1573889170,-2.441,107.91,-854.004,7.324,-156.25
1573889170,12.207,110.84,-325.195,38.086,7.812
1573889170,34.668,112.305,-324.219,41.992,139.16
1573889170,20.996,114.746,-784.668,13.184,7.812
1573889170,-5.371,122.07,-1000,-1.953,-177.246
1573889170,-1.465,142.578,-562.988,20.996,-69.336
1573889170,20.02,155.273,-331.543,44.922,126.953
1573889170,13.672,158.203,-831.055,14.16,46.875
1573889170,-10.254,180.664,-939.453,-15.137,-132.324
1573889170,-3.906,201.172,-386.23,13.672,-67.383
1573889170,22.461,195.801,-138.672,44.434,99.121
1573889170,26.855,183.594,-660.156,31.738,85.938
1573889170,4.883,184.57,-1000,2.441,-78.125
1573889170,2.441,194.824,-629.395,8.301,-110.84
1573889170,35.156,206.543,-181.152,50.293,55.176
1573889170,41.504,207.52,-584.473,43.457,119.141
1573889170,12.695,217.773,-1000,-3.906,-64.453
1573889170,0,243.652,-748.535,-3.418,-163.086
1573889170,18.066,260.742,-239.746,34.668,9.277
1573889170,38.574,276.367,-418.945,50.293,123.047
1573889170,24.902,287.109,-881.836,21.484,-1.953
1573889170,6.348,297.363,-872.07,4.883,-158.203
1573889170,17.09,321.777,-406.25,30.273,-57.617
1573889170,41.504,340.332,-395.996,57.617,111.816
1573889170,29.785,353.027,-866.211,34.18,60.059
1573889170,-12.695,361.328,-838.379,-9.766,-96.191
1573889170,-7.324,355.957,-453.613,15.137,-94.238
1573889170,22.461,368.652,-547.363,46.387,60.547
1573889170,19.531,375.977,-685.059,21.973,126.953
1573889170,-4.395,371.582,-678.711,-5.371,-27.832
1573889170,-19.531,378.906,-534.18,0.977,-107.422
1573889170,4.883,383.301,-215.332,37.109,54.199
1573889170,16.113,388.184,-350.586,29.297,126.953
1573889170,-11.23,401.855,-741.211,-12.207,-12.207
1573889170,-19.531,415.527,-614.258,-7.812,-95.215
1573889170,1.953,399.902,-313.477,30.273,9.766
1573889170,15.137,387.207,-482.422,41.504,109.863
1573889170,6.348,383.789,-876.953,14.16,10.742
1573889170,-1.465,367.188,-1000,1.953,-151.367
1573889170,12.695,370.605,-721.68,33.691,-96.191
1573889170,33.203,365.723,-333.008,60.547,99.609
1573889170,22.461,326.172,-631.348,38.574,71.777
1573889170,-0.488,311.523,-854.004,7.324,-95.703
1573889170,2.441,317.383,-438.477,25.391,-97.168
1573889170,30.762,299.316,-125.488,61.035,56.641
1573889170,43.457,274.414,-545.41,58.594,74.707
1573889170,19.531,259.766,-937.988,26.855,-79.102
1573889170,12.207,257.812,-718.262,31.25,-123.047
1573889170,37.109,256.836,-368.164,63.477,23.438
1573889170,51.758,229.004,-557.129,66.406,94.727
1573889170,25.391,199.219,-1000,27.344,-48.34
1573889170,-2.93,194.824,-759.277,7.324,-129.883
1573889170,14.648,187.5,-163.086,47.363,3.906
1573889171,42.969,156.25,-372.559,70.312,102.539
1573889171,29.785,125,-904.785,32.227,32.227
1573889171,14.648,117.676,-796.387,18.066,-93.262
1573889171,29.297,112.305,-380.371,53.711,-71.777
1573889171,34.18,98.145,-305.176,68.359,96.68
1573889171,34.18,71.777,-659.668,45.898,108.398
1573889171,19.043,51.27,-952.148,14.648,-79.102
1573889171,9.277,59.57,-727.539,26.855,-127.93
1573889171,32.715,62.988,-554.688,62.5,40.039
1573889171,42.48,55.176,-784.668,50.293,109.863
1573889171,9.277,45.41,-700.195,6.348,-28.32
1573889171,0.488,32.715,-401.855,13.672,-104.492
1573889171,24.902,15.137,-64.453,60.059,37.109
1573889171,32.227,-18.066,-134.277,63.477,117.188
1573889171,9.277,-37.109,-469.727,22.461,-4.883
1573889171,-0.977,-32.715,-392.578,5.859,-120.605
1573889171,20.508,-40.527,-44.434,42.48,-42.969
1573889171,48.34,-64.453,75.684,73.73,120.117
1573889171,43.457,-93.75,-397.461,43.457,64.453
1573889171,16.602,-106.445,-738.281,16.113,-134.277
1573889171,24.902,-105.957,-570.801,45.41,-122.07
1573889171,47.852,-113.77,-232.422,68.848,65.43
1573889171,49.805,-125.488,-272.461,58.105,82.52
1573889171,32.715,-130.371,-617.676,30.273,-86.914
1573889171,30.762,-129.395,-273.926,31.738,-99.609
1573889171,55.664,-142.578,98.145,68.848,54.688
1573889171,59.57,-175.293,-286.621,60.547,96.68
1573889171,42.48,-195.312,-729.004,25.391,-62.012
1573889171,31.738,-184.082,-501.465,32.227,-135.742
1573889171,34.668,-176.27,74.707,59.082,25.391
1573889171,41.504,-194.824,-151.367,63.477,136.719
1573889171,35.156,-213.379,-840.332,39.062,-3.418
1573889171,21.484,-214.844,-848.633,25.391,-155.273
1573889171,18.066,-208.496,-188.965,47.363,-36.621
1573889171,28.32,-218.262,0,56.152,133.789
1573889171,34.18,-231.934,-561.035,35.156,65.918
1573889171,18.066,-227.051,-693.848,24.902,-93.262
1573889171,-1.465,-231.934,-153.809,32.227,-57.617
1573889171,13.184,-254.883,-51.758,51.758,81.055
1573889171,20.02,-268.066,-618.652,42.48,64.941
1573889171,3.906,-257.324,-970.215,15.625,-100.586
1573889171,6.836,-229.004,-650.879,34.18,-145.02
1573889171,22.949,-217.773,-352.539,64.453,28.809
1573889171,25.391,-217.773,-752.441,54.688,83.496
1573889171,11.23,-212.891,-997.07,18.066,-51.27
1573889171,-1.465,-205.566,-585.938,13.184,-121.094
1573889171,18.555,-189.453,-213.867,50.781,2.93
1573889171,35.645,-179.199,-396.973,58.105,149.902
1573889171,9.277,-177.246,-650.879,20.508,59.57
1573889171,-10.254,-163.574,-558.105,5.371,-103.516
1573889171,17.09,-147.949,-220.703,46.387,-41.992
1573889171,43.457,-147.949,-186.523,72.266,107.422
1573889171,18.555,-145.996,-588.379,32.715,51.758
1573889171,-7.812,-131.348,-751.953,-4.395,-104.492
1573889171,7.324,-116.211,-536.133,26.855,-109.863
1573889171,32.227,-111.328,-465.82,65.918,37.598
1573889171,15.137,-107.422,-732.91,41.504,98.633
1573889171,-8.301,-91.797,-875.488,5.859,-44.434
1573889171,1.465,-89.355,-814.941,23.926,-131.348
1573889171,20.996,-80.078,-566.406,51.758,21.484
1573889171,24.902,-60.059,-447.266,41.992,122.559
1573889171,11.719,-64.941,-795.41,17.09,-9.766
1573889171,-4.395,-72.754,-735.84,10.742,-125
1573889171,9.277,-64.941,-294.434,33.691,-23.438
1573889171,31.738,-64.453,-263.672,53.223,119.141
1573889171,21.484,-68.359,-707.52,28.32,51.27
1573889171,12.207,-61.035,-913.086,13.672,-107.422
1573889171,23.926,-50.293,-584.473,38.574,-75.684
1573889171,38.086,-44.922,-326.66,50.293,89.844
1573889171,40.527,-32.715,-656.738,37.109,89.844
1573889171,20.02,-10.254,-1000,12.695,-114.258
1573889171,15.625,11.23,-504.395,24.902,-111.328
1573889171,35.645,18.066,-27.832,49.805,68.359
1573889171,37.598,6.348,-433.105,30.762,111.328
1573889171,20.996,12.695,-778.809,2.93,-20.996
1573889171,2.93,36.621,-417.969,9.766,-108.398
1573889171,20.508,49.805,25.879,47.363,30.762
1573889171,38.574,47.363,-215.332,56.641,131.348
1573889171,24.902,54.688,-788.086,23.926,6.348
1573889171,6.348,61.523,-783.691,11.23,-128.418
1573889171,17.09,58.594,-258.789,44.922,-33.203
1573889171,39.062,58.105,-415.527,68.848,89.355
1573889171,27.344,61.035,-962.891,38.086,13.184
1573889171,3.906,73.73,-777.832,14.16,-115.234
1573889171,7.324,88.867,-307.617,35.645,-71.289
1573889171,30.762,108.398,-156.25,53.711,80.566
1573889171,26.367,111.328,-470.703,33.203,74.707
1573889171,0,102.051,-601.074,0.488,-73.73
1573889171,0,102.539,-327.637,14.16,-113.281
1573889171,20.02,112.305,-116.211,52.246,37.598
1573889171,26.367,125.488,-449.707,48.828,101.562
1573889171,6.836,129.883,-826.66,5.371,-25.879
1573889171,-6.348,125.977,-587.891,-0.488,-100.586
1573889171,6.836,121.094,-370.605,34.668,-3.906
1573889171,15.137,114.746,-362.793,36.133,120.605
1573889171,3.418,93.262,-638.672,5.371,23.438
1573889171,-3.906,69.824,-841.309,-2.441,-138.184
1573889171,5.859,48.34,-533.203,22.949,-50.293
1573889171,21.973,35.156,-382.324,36.133,113.77
1573889171,15.137,36.621,-717.285,12.207,53.711
1573889171,-12.207,27.832,-865.723,-7.812,-124.512
1573889171,-13.184,24.414,-443.848,13.184,-87.402
1573889171,15.625,21.973,-272.461,45.41,94.238
1573889171,20.508,12.695,-757.324,33.691,89.844
1573889171,4.395,11.719,-1000,6.836,-80.078
1573889171,8.301,11.23,-778.32,22.949,-123.047
1573889171,25.391,-2.441,-266.113,58.594,56.641
1573889171,35.156,-26.367,-376.953,62.5,134.277
1573889171,20.02,-37.109,-902.344,27.344,-36.133
1573889171,3.418,-36.621,-832.52,15.625,-164.551
1573889171,20.996,-32.715,-276.367,51.758,-7.812
1573889171,35.645,-33.691,-358.887,62.988,123.047
1573889171,15.137,-43.457,-903.32,24.414,17.578
1573889171,3.418,-53.711,-953.613,7.324,-143.555
1573889171,7.812,-54.199,-580.566,31.25,-77.637
1573889171,18.555,-55.176,-576.66,41.016,101.074
1573889171,21.484,-68.359,-963.379,11.719,42.48
1573889171,0.488,-66.895,-930.176,-17.09,-105.469
1573889171,-2.441,-76.172,-447.754,1.465,-77.148
1573889171,25.879,-96.191,-265.137,39.551,93.262
1573889171,31.738,-113.77,-744.629,33.691,90.82
1573889171,-9.277,-141.602,-974.609,-11.719,-69.336
1573889171,-17.09,-157.227,-612.305,0.977,-106.445
1573889171,11.23,-157.715,-337.891,51.758,35.156
1573889171,17.578,-169.434,-585.449,45.41,118.652
1573889171,-5.371,-186.523,-947.754,1.465,-44.922
1573889171,-20.996,-201.66,-888.184,-5.859,-137.695
1573889171,-0.977,-220.703,-752.441,28.809,-19.531
1573889171,13.672,-226.074,-925.781,36.133,85.449
1573889171,-3.418,-226.074,-996.094,0,6.348
1573889171,-15.625,-230.957,-876.953,-13.184,-138.672
1573889171,-4.395,-221.191,-524.414,16.602,-55.176
1573889171,23.926,-210.449,-372.07,49.316,96.191
1573889171,28.32,-222.168,-646.484,29.785,82.031
1573889171,7.324,-232.91,-862.793,-1.465,-83.008
1573889171,7.812,-231.934,-587.402,19.043,-100.098
1573889171,25.391,-242.188,-198.73,48.828,90.82
1573889171,26.367,-257.812,-457.52,37.598,129.395
1573889171,9.766,-248.535,-948.242,7.812,-86.426
1573889171,3.418,-232.422,-968.75,7.324,-151.855
1573889171,9.277,-233.887,-554.688,29.785,12.695
1573889171,23.438,-238.281,-476.562,37.109,123.047
1573889171,14.16,-238.77,-941.895,8.301,-11.23
1573889171,-15.137,-237.793,-786.621,-13.184,-128.906
1573889171,-7.324,-237.305,-145.508,11.23,19.043
1573889171,15.625,-247.559,-62.988,30.273,166.016
1573889171,8.301,-265.625,-620.117,-0.977,77.148
1573889171,-21.484,-270.996,-784.668,-31.25,-85.938
1573889171,-18.066,-272.949,-305.176,-3.906,-61.523
1573889171,14.648,-292.48,-229.98,31.738,87.891
1573889171,12.207,-312.5,-745.117,11.719,86.426
1573889171,-14.648,-319.824,-994.141,-19.531,-84.473
1573889171,-20.508,-320.801,-601.562,-6.836,-121.582
1573889171,-2.441,-323.73,-186.035,24.902,50.781
1573889171,11.719,-336.914,-581.543,26.367,101.074
1573889171,-10.254,-350.098,-1000,-7.812,-54.199
1573889171,-21.973,-356.445,-698.242,-10.254,-98.633
1573889171,-3.906,-373.535,-306.152,25.879,15.137
1573889171,3.906,-383.789,-500,27.832,100.098
1573889171,-7.324,-382.812,-803.223,-7.812,22.461
1573889171,-12.695,-380.859,-601.562,-13.184,-97.656
1573889171,8.301,-376.953,-125.488,29.297,-6.348
1573889171,27.344,-383.789,-265.137,50.293,115.723
1573889171,18.066,-385.254,-816.406,22.949,33.203
1573889171,-3.418,-375,-723.633,-2.441,-107.91
1573889171,-1.465,-375.977,-230.957,18.066,-82.52
1573889171,21.973,-393.066,-361.816,50.293,42.48
1573889171,22.461,-407.715,-574.219,35.156,75.684
1573889171,0.977,-403.32,-475.586,-4.883,-58.594
1573889171,-10.254,-389.16,-239.258,-10.254,-121.582
1573889171,8.789,-392.578,-7.324,24.414,37.598
1573889171,24.414,-401.855,-125.977,28.32,119.629
1573889171,7.324,-403.809,-354.492,-7.324,-8.301
1573889171,1.465,-396.484,-247.07,-2.93,-112.793
1573889171,13.672,-383.301,-50.293,29.297,-23.438
1573889171,18.066,-372.07,-260.742,29.297,90.82
1573889171,5.859,-362.305,-486.816,2.93,19.043
1573889171,-6.348,-376.465,-688.965,-6.348,-164.062
1573889171,7.324,-375,-520.02,23.926,-108.398
1573889171,30.273,-355.957,0,50.293,115.723
1573889171,25.879,-349.609,-320.801,33.203,60.059
1573889171,-1.465,-338.867,-643.066,3.906,-120.117
1573889171,0,-320.312,-134.277,21.484,-65.43
1573889171,33.203,-300.781,177.246,62.988,83.008
1573889171,34.668,-272.949,-214.355,53.223,108.398
1573889171,8.789,-240.723,-608.887,16.602,-36.133
1573889171,6.836,-220.215,-489.258,24.414,-126.953
1573889171,20.996,-201.66,-109.375,55.664,19.043
1573889171,30.762,-187.5,-259.766,55.176,105.469
1573889171,17.578,-197.754,-864.258,20.508,-43.457
1573889171,-4.883,-188.477,-656.25,11.719,-145.508
1573889171,6.836,-156.738,56.641,44.434,-5.859
1573889171,28.32,-149.902,-125.488,58.105,105.957
1573889171,22.461,-146.973,-633.301,29.785,32.227
1573889171,5.371,-120.605,-560.547,12.207,-119.141
1573889171,17.09,-103.027,-214.355,44.922,-105.957
1573889171,36.133,-96.191,-192.383,67.383,68.359
1573889171,24.902,-72.266,-584.961,33.203,64.941
1573889171,-3.906,-19.531,-800.781,-8.301,-89.355
1573889171,-4.883,33.203,-462.891,7.812,-84.961
1573889171,21.484,59.57,-343.75,48.828,64.453
1573889171,21.484,70.312,-784.18,34.668,70.801
1573889171,-12.695,78.125,-740.234,-8.789,-56.641
1573889171,-21.973,86.426,-355.469,-4.883,-98.633
1573889171,1.465,97.656,-128.906,30.762,22.949
1573889171,9.277,122.07,-236.816,26.855,118.652
1573889171,-7.324,136.719,-476.562,-4.883,30.273
1573889171,-20.996,145.02,-482.422,-3.418,-121.582
1573889171,-17.09,164.062,-232.422,35.156,-44.434
1573889171,-8.301,182.617,-153.32,52.734,128.418
1573889171,-8.789,187.988,-650.879,25.391,58.105
1573889171,-31.25,195.312,-918.457,-5.371,-109.863
1573889171,-18.066,214.844,-753.906,21.484,-92.285
1573889171,6.836,219.727,-509.766,49.316,89.844
1573889171,-6.836,223.145,-668.457,25.879,84.961
1573889171,-25.879,228.027,-896.484,-1.953,-81.055
1573889171,-22.461,231.445,-513.672,15.137,-94.727
1573889171,-2.93,245.117,-135.254,42.48,49.805
1573889171,-3.906,251.953,-373.047,19.043,111.816
1573889171,-14.648,257.324,-745.117,-17.578,-12.207
1573889171,-8.789,263.672,-560.059,-6.348,-101.074
1573889171,5.371,257.812,-55.664,29.785,35.645
1573889171,4.395,250,-311.035,30.273,151.367
1573889171,-5.859,259.766,-903.809,-1.465,0
1573889171,-16.113,266.113,-873.535,-12.207,-165.527
1573889171,-10.742,253.906,-322.754,12.207,-54.199
1573889171,4.883,237.793,-176.27,24.414,108.398
1573889171,0,233.887,-621.094,-0.977,66.895
1573889171,-18.555,226.074,-749.023,-20.996,-81.055
1573889171,-14.16,213.867,-250.488,6.348,-48.828
1573889171,18.555,218.262,-35.156,44.434,100.098
1573889171,18.555,226.074,-471.68,30.762,107.91
1573889171,-9.277,228.516,-674.805,-3.906,-46.875
1573889171,-1.953,223.145,-322.754,14.16,-106.445
1573889171,24.414,212.891,-184.082,58.105,42.969
1573889171,33.691,199.707,-591.309,51.27,101.562
1573889171,27.344,185.059,-833.496,24.414,-55.176
1573889171,6.836,169.922,-499.023,16.602,-128.418
1573889171,10.742,149.902,-118.164,38.086,19.043
1573889171,30.762,124.023,-573.73,54.688,107.422
1573889171,6.348,117.188,-927.734,15.625,15.625
1573889171,-15.625,127.93,-613.281,-5.371,-105.469
1573889171,4.883,122.07,-324.707,31.738,-59.57
1573889171,24.902,93.262,-409.668,54.199,84.961
1573889171,12.207,70.312,-662.598,26.367,63.965
1573889171,-14.648,64.941,-672.363,-8.301,-82.52
1573889171,-12.695,71.777,-469.238,7.812,-91.309
1573889171,7.812,65.918,-372.07,37.598,82.52
1573889171,0,41.504,-563.965,17.578,119.141
1573889171,-19.043,29.297,-703.613,-12.695,-42.48
1573889171,-8.789,23.438,-703.125,4.883,-114.258
1573889171,6.348,13.184,-610.84,34.18,17.578
1573889171,2.93,12.695,-489.258,21.973,125.977
1573889171,-9.277,15.137,-757.324,-9.766,-3.418
1573889171,-19.531,16.113,-756.348,-11.23,-134.766
1573889171,1.465,11.23,-321.777,29.297,-26.855
1573889172,20.996,-9.277,-265.137,42.48,132.324
1573889172,8.301,-29.785,-759.766,6.348,31.25
1573889172,-12.695,-36.621,-965.82,-12.207,-157.715
1573889172,6.348,-25.391,-588.379,25.391,-68.848
1573889172,40.527,-32.715,-498.047,65.43,96.68
1573889172,26.367,-62.012,-845.215,38.574,35.645
1573889172,0,-73.242,-995.117,2.441,-130.859
1573889172,1.953,-65.918,-649.414,16.602,-120.117
1573889172,25.391,-55.664,-216.309,50.781,73.73
1573889172,28.32,-54.688,-571.289,42.969,115.723
1573889172,4.395,-60.547,-957.031,7.812,-41.504
1573889172,-9.766,-71.777,-552.734,7.812,-84.473
1573889172,3.906,-83.496,-188.477,41.504,30.273
1573889172,18.555,-80.566,-497.559,41.504,116.699
1573889172,-4.395,-80.566,-964.844,-2.441,-15.137
1573889172,-23.438,-85.449,-910.156,-18.066,-154.785
1573889172,1.953,-76.172,-557.617,21.973,-34.18
1573889172,32.715,-84.961,-671.875,42.48,93.75
1573889172,19.043,-90.82,-1000,6.348,-6.836
1573889172,-13.672,-76.66,-863.77,-17.09,-139.16
1573889172,-0.977,-74.219,-350.586,11.23,-53.223
1573889172,13.672,-79.59,-240.234,33.691,119.629
1573889172,0,-81.055,-669.434,17.578,87.891
1573889172,-18.555,-83.496,-804.199,-9.766,-67.871
1573889172,-27.832,-81.055,-424.316,-2.441,-60.059
1573889172,-1.953,-79.102,-244.629,31.738,79.102
1573889172,16.602,-90.332,-690.918,33.203,91.309
1573889172,-15.137,-103.027,-982.422,-9.277,-51.27
1573889172,-26.855,-115.234,-682.129,-13.672,-108.398
1573889172,5.371,-129.395,-663.574,24.902,-14.16
1573889172,21.484,-129.395,-861.816,28.32,79.59
1573889172,12.207,-116.211,-970.703,6.348,-25.879
1573889172,-8.301,-114.746,-861.328,-1.953,-134.766
1573889172,0,-132.812,-414.551,23.438,-25.391
1573889172,21.973,-154.785,-252.93,43.457,133.301
1573889172,9.277,-177.734,-562.5,16.602,105.469
1573889172,-7.324,-189.453,-824.219,-4.395,-84.961
1573889172,0,-185.547,-501.953,21.484,-78.125
1573889172,17.09,-197.754,-374.512,49.805,74.219
1573889172,17.578,-224.609,-807.129,32.715,93.262
1573889172,-1.953,-240.723,-1000,-3.906,-96.191
1573889172,-10.742,-240.234,-789.062,-2.441,-156.25
1573889172,7.324,-230.469,-299.805,25.879,46.875
1573889172,26.367,-239.258,-424.316,28.809,104.98
1573889172,7.812,-251.953,-921.875,-3.906,-51.27
1573889172,-16.602,-256.348,-838.867,-9.766,-151.367
1573889172,3.418,-250.488,-235.84,29.785,6.348
1573889172,22.461,-254.395,-239.746,34.668,147.461
1573889172,0,-274.902,-815.918,-6.348,17.578
1573889172,-18.555,-280.762,-795.41,-16.113,-129.395
1573889172,3.418,-280.762,-390.137,21.484,-34.18
1573889172,37.109,-284.18,-466.797,49.805,118.652
1573889172,29.297,-288.086,-930.664,22.949,58.594
1573889172,-6.836,-298.34,-868.652,-11.23,-69.336
1573889172,-6.836,-303.711,-323.242,9.277,-66.406
1573889172,25.391,-306.641,-231.445,50.781,78.613
1573889172,31.738,-321.289,-666.016,45.41,100.098
1573889172,8.789,-329.102,-849.121,10.254,-63.965
1573889172,-2.93,-331.055,-454.59,12.207,-92.285
1573889172,20.02,-346.191,-254.883,47.852,25.879
1573889172,37.598,-370.605,-557.617,54.199,88.867
1573889172,14.16,-381.836,-749.512,15.625,-13.184
1573889172,2.441,-389.648,-712.891,8.789,-159.18
1573889172,30.762,-397.461,-635.742,46.875,-82.52
1573889172,43.457,-389.648,-670.41,56.152,83.008
1573889172,18.066,-375.488,-626.953,23.438,35.156
1573889172,3.906,-371.094,-421.387,6.836,-115.234
1573889172,12.207,-368.652,-17.578,28.809,-45.41
1573889172,30.762,-364.258,135.254,46.387,122.07
1573889172,28.32,-365.723,-149.902,25.391,93.75
1573889172,8.789,-370.117,-346.68,3.418,-80.078
1573889172,6.348,-372.559,-85.938,19.043,-100.586
1573889172,20.996,-374.512,242.676,45.898,78.613
1573889172,27.832,-375,-28.809,37.598,126.465
1573889172,14.648,-380.371,-590.332,17.09,-52.734
1573889172,-0.977,-375.488,-444.824,21.484,-120.117
1573889172,11.719,-367.188,78.125,46.387,37.598
1573889172,29.297,-369.629,22.949,49.805,128.418
1573889172,13.672,-372.559,-485.84,20.996,-5.859
1573889172,3.418,-366.699,-772.949,13.672,-162.598
1573889172,11.23,-345.703,-236.816,34.18,-41.992
1573889172,33.691,-339.844,21.973,53.711,111.816
1573889172,26.367,-350.098,-555.664,25.879,16.113
1573889172,0.977,-347.656,-683.105,-7.812,-140.625
1573889172,9.766,-340.332,-141.113,21.484,-91.797
1573889172,34.668,-337.402,19.531,58.594,68.359
1573889172,35.645,-341.309,-596.68,44.922,56.641
1573889172,8.301,-347.656,-937.5,8.789,-106.445
1573889172,-3.418,-349.121,-488.77,16.113,-125
1573889172,13.184,-347.656,-59.082,45.898,70.312
1573889172,32.227,-349.609,-354.492,45.898,112.305
1573889172,15.137,-356.934,-710.938,20.996,-35.156
1573889172,-7.812,-347.168,-322.754,6.836,-84.473
1573889172,16.602,-333.008,-7.812,38.574,20.02
1573889172,32.227,-331.543,-311.523,50.781,103.516
1573889172,5.859,-323.73,-757.324,11.23,-15.625
1573889172,-13.184,-308.105,-581.055,-5.371,-111.328
1573889172,-4.395,-307.129,-180.176,18.555,-22.949
1573889172,17.578,-318.359,-388.184,42.48,106.445
1573889172,10.254,-326.172,-821.289,17.09,82.52
1573889172,-16.113,-323.73,-747.559,-9.766,-69.336
1573889172,-2.93,-316.406,-381.348,20.996,-74.707
1573889172,20.508,-327.637,-455.566,48.828,47.852
1573889172,20.996,-327.148,-772.461,34.18,72.266
1573889172,4.395,-309.57,-805.176,10.254,-81.055
1573889172,1.953,-301.758,-573.73,20.996,-123.047
1573889172,27.832,-318.359,-561.523,54.199,31.738
1573889172,44.434,-345.703,-689.453,57.617,96.68
1573889172,17.578,-354.492,-820.801,20.508,-33.203
1573889172,1.953,-346.191,-667.48,18.066,-101.074
1573889172,22.949,-349.609,-400.391,55.664,23.926
1573889172,28.809,-357.422,-617.676,55.176,116.699
1573889172,14.648,-352.051,-941.895,22.461,15.137
1573889172,10.254,-334.961,-1000,11.23,-140.625
1573889172,16.113,-324.219,-757.812,30.762,-68.359
1573889172,20.996,-318.359,-400.391,48.34,123.535
1573889172,19.531,-302.246,-704.59,25.879,61.035
1573889172,-3.418,-281.738,-965.332,-10.254,-128.418
1573889172,-9.277,-266.113,-546.875,2.441,-97.656
1573889172,18.555,-261.719,-226.074,32.715,71.777
1573889172,22.949,-267.578,-570.312,20.508,100.098
1573889172,-2.441,-273.926,-877.93,-11.23,-43.457
1573889172,-6.348,-279.785,-661.621,-1.953,-104.492
1573889172,9.277,-286.621,-407.715,29.785,33.203
1573889172,19.043,-295.41,-574.707,29.297,117.676
1573889172,7.324,-296.875,-975.098,-1.465,-47.363
1573889172,-10.742,-288.574,-703.613,-8.301,-137.207
1573889172,4.395,-287.598,-81.055,28.32,14.16
1573889172,22.949,-284.668,-302.246,43.945,104.004
1573889172,15.625,-268.555,-861.816,15.625,-0.488
1573889172,0,-266.602,-694.336,-1.953,-126.465
1573889172,8.301,-276.855,-202.637,28.809,-35.156
1573889172,28.809,-291.992,-211.914,54.688,146.484
1573889172,21.484,-315.43,-594.727,36.133,104.492
1573889172,0.977,-328.125,-826.66,8.301,-94.238
1573889172,1.465,-324.219,-530.762,13.672,-102.539
1573889172,27.344,-311.035,-423.34,47.852,55.664
1573889172,26.855,-303.711,-868.164,38.574,74.707
1573889172,-4.395,-301.27,-787.598,1.953,-36.621
1573889172,-8.301,-284.18,-374.512,10.254,-107.422
1573889172,10.742,-269.043,-158.691,34.18,16.113
1573889172,24.414,-270.996,-332.52,29.297,120.117
1573889172,13.672,-273.926,-606.934,10.742,0.977
1573889172,-5.371,-286.133,-469.238,3.418,-102.539
1573889172,-0.488,-291.992,-152.344,26.367,-1.953
1573889172,12.695,-293.945,-123.047,37.109,151.855
1573889172,2.441,-297.852,-645.996,5.371,52.246
1573889172,-19.043,-288.086,-930.176,-14.16,-124.512
1573889172,-7.324,-282.227,-750,16.113,-85.938
1573889172,12.207,-289.062,-479.492,45.41,88.867
1573889172,-2.441,-303.711,-470.703,23.926,112.793
1573889172,-21.973,-302.246,-785.156,-5.371,-82.52
1573889172,-11.719,-288.086,-564.941,9.277,-126.953
1573889172,15.625,-285.645,-141.113,44.434,54.199
1573889172,28.32,-284.18,-332.031,41.504,125
1573889172,22.949,-280.273,-779.785,15.625,-35.645
1573889172,16.113,-280.762,-667.48,16.113,-144.043
1573889172,29.297,-282.227,-202.148,42.969,-2.441
1573889172,48.34,-296.387,-423.828,53.223,136.23
1573889172,37.598,-301.27,-908.203,19.043,13.184
1573889172,21.484,-287.598,-959.473,5.859,-166.504
1573889172,33.691,-262.207,-528.32,42.969,-57.129
1573889172,43.945,-240.723,-198.242,55.664,144.531
1573889172,18.066,-236.816,-636.719,15.137,75.684
1573889172,-8.301,-223.633,-813.477,-8.789,-109.863
1573889172,-0.488,-200.684,-322.754,14.648,-74.707
1573889172,24.414,-204.102,-116.211,41.504,112.305
1573889172,18.555,-220.703,-635.254,26.367,83.984
1573889172,-11.719,-227.051,-915.527,-14.16,-93.262
1573889172,-17.09,-220.703,-488.281,-7.324,-107.91
1573889172,15.137,-215.332,-311.035,40.039,68.359
1573889172,34.668,-234.375,-752.93,39.062,110.352
1573889172,4.395,-250,-1000,-11.23,-74.707
1573889172,-8.301,-234.863,-671.875,-14.16,-134.277
1573889172,22.949,-227.051,-296.387,29.297,5.371
1573889172,40.527,-233.398,-565.43,36.133,109.863
1573889172,32.227,-237.305,-861.328,9.766,12.695
1573889172,14.648,-237.793,-743.652,0.488,-140.137
1573889172,20.996,-231.934,-386.719,30.762,-49.805
1573889172,43.945,-240.234,-391.602,56.152,99.609
1573889172,34.18,-251.953,-769.043,30.273,42.48
1573889172,13.184,-253.906,-781.25,1.953,-99.121
1573889172,22.949,-253.906,-659.18,30.273,-98.145
1573889172,44.434,-255.859,-641.113,66.895,71.777
1573889172,35.156,-267.09,-678.223,33.203,96.68
1573889172,0.488,-259.766,-824.707,-13.672,-69.336
1573889172,-8.301,-238.281,-622.07,-2.441,-119.141
1573889172,17.09,-228.516,-280.273,31.25,45.41
1573889172,34.668,-221.191,-375.977,33.691,135.254
1573889172,15.625,-217.773,-826.172,0.488,-4.395
1573889172,-1.465,-217.773,-820.312,-7.812,-128.906
1573889172,16.113,-208.008,-333.984,25.879,-11.719
1573889172,34.18,-204.59,-279.785,41.504,130.859
1573889172,19.531,-201.172,-702.148,12.207,41.016
1573889172,-5.859,-186.523,-906.25,-12.695,-128.418
1573889172,-1.465,-181.641,-624.023,9.766,-86.914
1573889172,17.09,-199.219,-383.301,34.18,90.332
1573889172,15.137,-215.332,-698.242,16.113,49.316
1573889172,-7.324,-216.797,-1000,-21.973,-138.184
1573889172,-17.578,-205.078,-567.383,-14.648,-101.562
1573889172,7.812,-192.871,-89.844,27.832,91.797
1573889172,22.461,-201.66,-493.652,23.438,105.957
1573889172,3.906,-211.426,-875,-8.301,-56.152
1573889172,-6.836,-201.66,-496.094,-6.348,-109.375
1573889172,19.043,-200.195,-233.887,31.25,23.438
1573889172,35.645,-207.52,-480.957,40.039,130.371
1573889172,15.137,-209.961,-899.414,3.418,5.859
1573889172,1.953,-217.285,-854.492,-3.906,-123.047
1573889172,16.113,-221.68,-348.633,27.344,-6.348
1573889172,36.621,-229.492,-519.531,43.457,88.867
1573889172,24.414,-227.051,-1000,9.766,-18.555
1573889172,-6.348,-209.961,-837.891,-18.066,-138.672
1573889172,7.324,-210.449,-320.801,19.531,-61.523
1573889172,33.203,-210.449,-251.953,45.41,108.398
1573889172,20.508,-194.336,-629.395,15.137,89.355
1573889172,-5.371,-186.035,-709.473,-13.672,-64.941
1573889172,-1.465,-193.359,-424.805,4.395,-101.562
1573889172,13.672,-196.289,-324.707,35.156,56.152
1573889172,8.789,-190.918,-686.035,24.902,93.262
1573889172,-21.484,-187.5,-973.633,-16.113,-66.406
1573889172,-27.832,-186.035,-651.367,-18.066,-105.957
1573889172,2.441,-186.523,-458.496,21.973,0.977
1573889172,16.113,-182.129,-443.848,30.762,105.469
1573889172,11.23,-182.129,-468.262,2.441,2.93
1573889172,-7.812,-184.57,-420.41,-8.789,-136.23
1573889172,4.395,-176.27,19.531,23.926,-28.809
1573889172,33.203,-174.805,197.754,46.875,130.859
1573889172,31.738,-181.641,-215.332,24.414,42.969
1573889172,13.672,-188.477,-428.711,3.418,-128.906
1573889172,23.926,-186.523,-2.441,28.809,-70.312
1573889172,57.617,-189.941,103.027,62.988,74.219
1573889172,48.34,-206.543,-416.016,44.434,53.223
1573889172,25.391,-201.172,-679.688,16.602,-104.004
1573889172,25.879,-190.43,-375.488,31.25,-133.301
1573889172,37.109,-187.5,53.223,55.176,33.203
1573889172,44.922,-187.012,-9.766,52.246,110.84
1573889172,33.203,-194.336,-678.711,25.391,-60.059
1573889172,19.531,-187.5,-724.609,16.602,-150.879
1573889172,31.738,-166.504,94.238,47.363,30.762
1573889172,37.598,-168.457,61.035,51.27,126.465
1573889172,13.672,-176.27,-506.348,11.23,6.836
1573889172,-4.883,-164.551,-364.746,-0.488,-97.168
1573889172,0,-160.156,5.371,24.414,-26.855
1573889172,20.508,-158.203,-205.078,41.016,95.215
1573889172,11.719,-167.48,-825.684,10.742,9.277
1573889172,-16.602,-174.805,-827.148,-24.902,-137.695
1573889172,-3.906,-157.227,-108.887,3.418,-70.312
1573889172,28.32,-145.508,-5.859,45.898,78.613
1573889172,24.902,-150.391,-444.336,27.832,101.074
1573889172,-1.953,-152.344,-523.438,-11.23,-34.18
1573889172,-1.953,-153.32,-167.969,0.488,-85.449
1573889172,20.508,-162.598,16.113,29.297,48.828
1573889172,31.25,-165.527,-358.887,24.414,100.586
1573889172,17.09,-160.156,-658.691,1.465,-19.531
1573889172,2.441,-154.297,-609.375,1.953,-133.301
1573889172,16.113,-158.203,-573.73,32.227,-51.758
1573889173,31.25,-171.875,-693.359,39.062,112.793
1573889173,20.508,-180.664,-780.762,17.09,34.668
1573889173,5.859,-180.664,-663.574,5.371,-134.766
1573889173,21.973,-180.176,-318.848,36.621,-63.477
1573889173,41.016,-187.012,-214.355,62.5,99.609
1573889173,26.855,-187.012,-515.625,32.715,69.336
1573889173,1.465,-187.012,-741.699,4.395,-69.824
1573889173,12.207,-185.059,-503.906,27.832,-88.867
1573889173,36.621,-175.781,-230.957,58.105,54.688
1573889173,24.902,-176.758,-470.215,34.668,107.422
1573889173,-3.906,-186.035,-920.41,-4.395,-60.059
1573889173,-11.23,-178.223,-831.543,5.859,-142.09
1573889173,8.789,-164.551,-317.871,41.016,40.039
1573889173,16.602,-166.016,-390.625,34.18,139.648
1573889173,5.859,-168.945,-860.352,1.953,-12.207
1573889173,-4.883,-171.387,-967.285,-1.465,-137.695
1573889173,10.254,-172.852,-499.512,31.738,-9.277
1573889173,35.645,-175.781,-314.453,51.27,137.695
1573889173,20.02,-176.758,-814.941,19.531,33.691
1573889173,2.93,-169.434,-871.094,-1.465,-104.492
1573889173,17.09,-166.992,-430.664,28.809,-42.48
1573889173,36.621,-168.945,-371.094,54.688,92.285
1573889173,34.18,-165.527,-780.273,29.297,51.27
1573889173,18.066,-153.32,-971.68,-0.488,-117.676
1573889173,21.973,-139.16,-525.879,25.879,-109.863
1573889173,38.086,-144.531,-147.949,60.547,62.012
1573889173,37.598,-162.109,-587.402,46.875,95.215
1573889173,16.113,-154.297,-957.031,11.23,-59.082
1573889173,11.719,-143.555,-530.762,18.555,-121.582
1573889173,34.18,-155.762,-104.98,57.617,35.156
1573889173,40.039,-161.621,-407.715,56.152,108.398
1573889173,12.207,-157.227,-836.426,11.23,-27.344
1573889173,-10.254,-153.32,-581.543,-7.324,-108.887
1573889173,11.23,-152.832,-148.926,24.902,-4.395
1573889173,38.574,-145.508,-347.168,39.062,119.629
1573889173,22.949,-139.648,-892.09,7.324,12.207
1573889173,-4.883,-145.02,-849.609,-21.973,-144.043
1573889173,0.488,-146.484,-351.562,-1.465,-70.312
1573889173,23.438,-151.855,-525.879,29.297,64.941
1573889173,13.672,-146.484,-836.914,6.836,69.336
1573889173,-9.277,-133.789,-671.387,-20.996,-51.758
1573889173,0.488,-125.488,-372.559,0.488,-75.195
1573889173,20.996,-126.953,-238.281,33.691,36.621
1573889173,13.672,-138.672,-438.477,18.066,86.426
1573889173,-4.883,-151.855,-631.348,-12.207,-6.836
1573889173,0.977,-146.484,-557.129,1.465,-113.77
1573889173,34.18,-129.883,-427.246,47.363,-28.809
1573889173,49.316,-126.465,-532.227,52.246,117.188
1573889173,24.902,-124.512,-742.188,9.766,44.434
1573889173,3.418,-127.93,-911.133,-4.883,-156.738
1573889173,14.648,-138.672,-748.535,28.32,-101.562
1573889173,27.832,-144.043,-321.777,47.363,115.723
1573889173,21.484,-141.602,-542.969,19.043,75.195
1573889173,6.836,-127.441,-775.391,0.977,-102.051
1573889173,12.695,-114.258,-305.664,29.785,-56.641
1573889173,32.227,-118.652,9.277,51.758,110.352
1573889173,30.273,-127.441,-462.891,30.273,87.891
1573889173,11.23,-127.441,-821.289,6.836,-66.895
1573889173,10.742,-115.723,-601.562,14.648,-100.098
1573889173,33.691,-104.98,-357.91,44.922,40.039
1573889173,37.109,-109.863,-582.031,40.527,87.402
1573889173,13.672,-121.582,-1000,-2.441,-88.867
1573889173,0.977,-115.234,-760.254,-8.789,-164.551
1573889173,19.531,-113.77,-214.355,30.273,-0.488
1573889173,38.086,-125.488,-486.816,44.922,104.492
1573889173,21.973,-129.395,-915.039,7.324,12.695
1573889173,6.836,-109.863,-705.078,-4.395,-112.305
1573889173,14.648,-90.82,-155.762,28.32,-11.23
1573889173,25.391,-104.98,-144.531,42.969,139.16
1573889173,25.879,-117.676,-724.609,20.508,62.988
1573889173,14.648,-115.234,-1000,0,-125
1573889173,13.672,-117.676,-652.832,22.949,-107.91
1573889173,36.621,-129.883,-582.031,56.152,54.199
1573889173,36.133,-136.719,-983.887,35.156,36.133
1573889173,14.648,-120.605,-921.387,-4.395,-84.961
1573889173,16.602,-109.375,-498.047,11.719,-103.516
1573889173,37.109,-124.512,-236.328,51.27,36.621
1573889173,45.41,-122.559,-447.266,42.969,115.723
1573889173,25.879,-104.98,-835.449,0,-27.832
1573889173,15.137,-103.516,-800.293,-5.859,-136.23
1573889173,40.039,-113.281,-404.297,41.504,-34.18
1573889173,54.688,-119.141,-363.281,56.641,106.445
1573889173,29.297,-122.559,-782.715,12.695,28.809
1573889173,5.371,-125,-979.004,-3.418,-147.461
1573889173,22.461,-112.793,-837.891,33.203,-97.656
1573889173,41.504,-103.027,-588.867,52.246,86.426
1573889173,23.438,-109.863,-610.84,23.926,74.219
1573889173,-2.93,-119.629,-846.68,-4.883,-93.262
1573889173,-1.953,-121.094,-556.641,11.719,-102.539
1573889173,22.461,-112.793,-164.551,43.457,59.082
1573889173,31.738,-106.445,-446.777,34.18,90.82
1573889173,13.184,-115.723,-854.004,-1.465,-61.035
1573889173,1.465,-119.141,-669.434,-1.953,-117.188
1573889173,20.996,-112.305,-329.102,30.762,7.324
1573889173,29.785,-108.398,-573.73,33.203,101.074
1573889173,9.277,-104.492,-961.914,-0.488,-41.504
1573889173,-8.789,-98.633,-871.582,-15.137,-199.707
1573889173,6.348,-97.168,-328.125,17.09,-45.41
1573889173,28.32,-110.84,-198.73,37.109,116.211
1573889173,12.695,-119.141,-749.512,7.324,29.297
1573889173,-7.324,-109.863,-816.895,-15.137,-114.746
1573889173,-1.953,-109.863,-278.32,8.301,-56.152
1573889173,22.461,-110.352,-145.02,36.621,108.398
1573889173,28.32,-87.891,-641.113,22.949,91.309
1573889173,0.977,-82.031,-874.512,-10.254,-85.938
1573889173,0.977,-90.332,-379.883,4.883,-87.402
1573889173,32.715,-91.797,-234.863,46.387,69.824
1573889173,37.109,-99.609,-777.344,35.645,71.777
1573889173,16.602,-103.027,-1000,-2.93,-85.938
1573889173,9.277,-91.309,-577.637,-0.488,-110.84
1573889173,26.367,-75.684,-173.34,36.133,38.574
1573889173,32.715,-73.242,-391.602,38.574,142.578
1573889173,18.555,-87.891,-740.723,6.836,24.414
1573889173,9.766,-97.656,-682.129,-8.301,-125.488
1573889173,12.207,-93.262,-292.969,8.789,-18.066
1573889173,26.367,-94.238,-262.207,25.879,143.066
1573889173,20.02,-100.098,-607.422,0.977,89.355
1573889173,-6.836,-97.656,-648.926,-29.297,-65.918
1573889173,-1.465,-90.332,-540.039,-4.883,-72.266
1573889173,33.203,-84.961,-577.637,39.551,72.266
1573889173,30.762,-80.078,-566.895,23.926,113.281
1573889173,0.977,-82.52,-720.215,-14.16,-48.34
1573889173,0.488,-87.891,-629.395,4.883,-111.328
1573889173,23.438,-88.379,-248.047,39.551,59.57
1573889173,28.809,-96.191,-286.621,27.832,122.559
1573889173,8.789,-108.887,-669.434,-3.906,-53.711
1573889173,-0.488,-102.051,-509.766,1.465,-130.371
1573889173,20.996,-91.797,-38.086,39.062,0.488
1573889173,37.109,-102.051,-42.48,39.062,116.211
1573889173,23.926,-116.699,-437.5,3.906,29.297
1573889173,-0.977,-127.441,-554.199,-14.648,-103.027
1573889173,1.953,-119.141,-260.254,5.859,-49.805
1573889173,22.949,-105.469,0.977,25.879,120.605
1573889173,23.438,-109.375,-328.125,4.395,75.195
1573889173,-4.883,-109.375,-870.117,-30.762,-134.766
1573889173,-8.789,-99.121,-385.254,-19.531,-99.121
1573889173,28.32,-92.773,156.738,23.438,110.352
1573889173,36.133,-96.191,-296.387,16.113,109.375
1573889173,7.324,-97.168,-607.91,-22.461,-69.336
1573889173,-0.488,-81.543,-173.828,-18.066,-105.957
1573889173,19.531,-72.754,202.148,19.043,44.434
1573889173,23.926,-83.008,-116.211,15.137,119.141
1573889173,13.184,-100.586,-662.109,-8.301,-24.902
1573889173,7.812,-105.469,-578.613,-5.859,-128.906
1573889173,19.043,-94.238,-119.141,20.02,-14.16
1573889173,29.785,-94.238,-230.469,30.273,93.75
1573889173,22.949,-100.098,-684.082,10.254,-6.348
1573889173,7.812,-94.727,-513.672,-0.488,-120.117
1573889173,16.113,-86.426,19.531,29.785,-32.715
1573889173,34.18,-80.566,-112.793,52.246,98.145
1573889173,19.043,-85.449,-695.312,20.02,53.711
1573889173,-4.883,-89.844,-793.945,-6.348,-109.863
1573889173,4.395,-97.656,-285.645,18.066,-98.145
1573889173,28.809,-99.121,-242.676,44.434,67.383
1573889173,23.438,-93.75,-707.031,18.555,104.492
1573889173,8.789,-82.52,-905.273,-12.207,-54.199
1573889173,7.812,-68.359,-680.664,3.906,-140.625
1573889173,25.879,-74.219,-522.949,39.551,-11.23
1573889173,36.133,-78.613,-620.117,40.527,88.379
1573889173,1.465,-74.219,-696.289,-5.859,-18.066
1573889173,-29.297,-82.52,-673.34,-27.344,-144.531
1573889173,-15.137,-84.473,-261.719,10.254,-17.578
1573889173,3.906,-81.055,-73.73,29.785,149.902
1573889173,-7.324,-85.938,-490.234,-5.371,55.664
1573889173,-30.273,-87.402,-614.746,-30.273,-85.938
1573889173,-19.043,-93.262,-312.012,1.953,-42.969
1573889173,11.23,-102.051,-328.125,33.691,82.031
1573889173,12.695,-101.074,-723.633,10.254,78.125
1573889173,8.301,-97.168,-985.352,-7.324,-101.562
1573889173,15.625,-101.562,-837.402,19.531,-143.555
1573889173,31.25,-109.375,-394.531,47.852,36.621
1573889173,44.434,-113.281,-489.746,40.527,90.332
1573889173,21.973,-107.422,-923.34,-6.348,-66.406
1573889173,10.254,-100.098,-717.773,-6.348,-143.066
1573889173,30.762,-105.957,-262.207,39.062,-4.395
1573889173,48.828,-125.488,-429.199,50.781,100.586
1573889173,31.25,-140.625,-902.832,13.672,-12.207
1573889173,6.348,-134.766,-827.148,-8.301,-121.094
1573889173,21.484,-121.094,-401.367,24.902,-5.859
1573889173,46.387,-122.559,-532.715,49.316,120.117
1573889173,42.48,-128.418,-966.797,24.902,-7.812
1573889173,10.254,-113.77,-887.695,-4.395,-157.227
1573889173,8.301,-87.891,-303.223,18.066,-60.059
1573889173,36.621,-75.684,-183.105,48.828,90.82
1573889173,33.691,-81.543,-691.895,27.832,71.777
1573889173,11.23,-85.938,-824.219,-5.371,-84.961
1573889173,9.277,-79.59,-422.852,10.254,-119.629
1573889173,21.973,-77.148,-206.543,35.645,29.297
1573889173,22.949,-75.195,-442.383,21.484,120.117
1573889173,3.906,-71.777,-706.055,-8.789,-21.484
1573889173,-7.324,-75.195,-656.738,-1.465,-141.113
1573889173,11.719,-77.148,-557.129,33.691,-31.25
1573889173,22.949,-83.008,-748.047,38.086,93.262
1573889173,7.812,-74.707,-838.379,6.836,10.742
1573889173,-3.418,-66.406,-677.246,-1.465,-114.746
1573889173,1.465,-70.312,-342.773,22.949,-51.758
1573889173,20.508,-71.777,-233.887,42.969,94.727
1573889173,22.949,-82.031,-485.84,31.25,66.895
1573889173,9.277,-85.938,-613.77,15.137,-92.773
1573889173,15.625,-71.777,-301.758,39.062,-78.125
1573889173,32.227,-62.5,-29.297,63.965,94.727
1573889173,33.691,-66.406,-291.992,51.758,119.141
1573889173,31.25,-72.266,-737.793,33.691,-56.152
1573889173,33.691,-69.824,-846.68,38.086,-131.836
1573889173,28.809,-62.988,-465.332,45.41,20.508
1573889173,27.344,-66.895,-326.172,37.109,111.816
1573889173,23.926,-73.242,-780.273,18.066,-41.016
1573889173,17.09,-67.871,-666.016,18.066,-130.371
1573889173,22.949,-64.941,-167.969,46.387,5.859
1573889173,38.086,-72.266,-269.531,57.617,137.207
1573889173,24.414,-79.59,-754.883,19.531,28.809
1573889173,-8.301,-69.824,-768.555,-6.348,-112.793
1573889173,-2.441,-61.035,-197.266,22.461,-24.414
1573889173,34.668,-69.824,-127.441,54.688,117.188
1573889173,31.25,-84.473,-727.051,30.273,42.969
1573889173,-5.371,-89.844,-938.477,-8.301,-118.164
1573889173,-10.254,-83.008,-389.16,8.789,-62.988
1573889173,12.695,-91.309,-34.668,41.992,113.77
1573889173,21.973,-94.727,-558.594,29.785,116.211
1573889173,-8.301,-84.473,-1000,-16.113,-71.289
1573889173,-29.785,-75.195,-617.188,-22.461,-126.953
1573889173,-2.441,-72.754,-213.379,25.391,27.344
1573889173,20.02,-71.289,-473.145,34.668,114.258
1573889173,3.906,-60.547,-935.059,-1.953,-20.996
1573889173,-12.207,-50.781,-741.211,-7.324,-124.512
1573889173,20.996,-47.852,-192.871,38.574,11.719
1573889173,39.062,-57.617,-366.699,62.012,142.09
1573889173,9.277,-74.219,-927.734,27.344,35.645
1573889173,-2.441,-77.148,-861.328,3.906,-114.746
1573889173,10.742,-78.613,-383.789,30.762,-51.758
1573889173,31.25,-83.496,-623.047,55.176,66.406
1573889173,20.02,-75.195,-1000,24.902,43.945
1573889173,-6.836,-67.871,-828.125,-4.395,-52.734
1573889173,2.93,-62.5,-521.484,19.043,-94.727
1573889173,21.973,-56.641,-339.355,44.434,43.945
1573889173,17.09,-62.988,-509.766,39.551,100.586
1573889173,4.395,-76.66,-835.938,17.578,-63.965
1573889173,-3.906,-81.543,-693.848,11.719,-138.184
1573889173,8.789,-79.102,-444.336,37.109,2.441
1573889173,28.809,-79.102,-622.559,46.875,114.746
1573889173,14.16,-70.312,-916.016,15.137,-4.395
1573889173,-6.836,-58.105,-945.312,-2.93,-144.043
1573889173,3.906,-48.828,-591.309,24.414,-52.246
1573889173,22.461,-33.691,-236.816,46.387,130.859
1573889173,6.836,-30.273,-522.949,17.578,76.172
1573889173,-17.578,-35.156,-933.594,-4.395,-139.16
1573889173,-12.207,-23.926,-649.414,13.672,-106.445
1573889173,9.277,-13.184,-148.438,36.621,114.258
1573889173,16.113,-16.602,-458.984,20.996,114.258
1573889173,-2.93,-15.625,-810.059,-17.578,-61.035
1573889173,-4.395,1.953,-537.598,-2.93,-82.52
1573889173,21.973,16.113,-262.207,41.016,77.148
1573889173,40.527,17.09,-567.871,39.551,130.371
1573889173,25.879,12.207,-1000,8.789,-59.082
1573889173,9.277,17.09,-722.656,3.906,-160.156
1573889173,22.949,31.738,-139.16,36.621,-5.859
1573889174,33.203,33.203,-294.434,44.922,118.164
1573889174,11.23,24.414,-792.969,9.277,7.812
1573889174,-7.812,23.926,-669.434,-2.93,-130.859
1573889174,9.766,24.414,-133.301,34.668,-22.461
1573889174,32.227,20.508,-162.109,58.105,138.184
1573889174,15.625,10.254,-661.133,25.391,75.195
1573889174,-4.395,6.836,-865.723,0,-95.703
1573889174,9.766,11.23,-501.953,19.043,-83.984
1573889174,35.645,7.324,-385.254,47.852,73.73
1573889174,33.203,-2.441,-876.953,33.691,91.797
1573889174,-0.977,-9.766,-985.352,-9.277,-66.406
1573889174,-7.324,-9.766,-613.281,-2.441,-107.91
1573889174,12.207,-13.672,-303.223,30.762,37.109
1573889174,14.648,-19.043,-461.426,23.438,125.488
1573889174,-5.859,-23.438,-676.758,-15.137,10.254
1573889174,-14.648,-32.715,-563.477,-14.648,-112.793
1573889174,3.418,-43.457,-287.109,22.461,-11.719
1573889174,24.414,-52.246,-393.555,32.715,97.168
1573889174,9.277,-49.805,-849.609,4.395,-1.953
1573889174,-10.254,-44.434,-886.719,-10.742,-115.234
1573889174,7.324,-42.969,-708.008,18.555,-64.453
1573889174,26.367,-33.203,-518.066,39.551,100.586
1573889174,23.926,-27.832,-507.324,13.184,97.656
1573889174,5.371,-28.32,-742.188,-9.766,-88.867
1573889174,4.883,-27.344,-453.125,12.695,-93.262
1573889174,32.715,-35.645,-174.805,46.875,70.312
1573889174,35.645,-42.969,-431.152,36.621,96.191
1573889174,2.441,-42.48,-722.656,-2.93,-59.082
1573889174,-3.906,-31.738,-403.809,8.301,-101.562
1573889174,21.484,-26.367,16.602,47.852,39.551
1573889174,33.203,-25.391,-351.562,47.852,97.168
1573889174,19.531,-21.973,-926.27,15.137,-54.199
1573889174,7.324,-15.137,-829.59,7.324,-165.527
1573889174,18.555,-9.766,-73.73,38.086,-2.441
1573889174,30.762,-11.719,127.441,52.734,148.438
1573889174,18.066,-13.672,-402.344,23.926,46.875
1573889174,3.906,-17.578,-481.934,7.812,-110.84
1573889174,13.184,-15.625,60.547,38.574,-50.293
1573889174,36.133,-14.16,252.93,60.059,122.559
1573889174,34.18,-17.578,-312.012,37.598,89.844
1573889174,3.418,-11.719,-638.672,3.906,-92.773
1573889174,-1.953,-3.418,-130.859,13.672,-98.145
1573889174,22.461,-17.09,89.355,46.387,66.895
1573889174,28.32,-30.762,-580.566,36.621,95.703
1573889174,6.836,-25.391,-879.395,-5.371,-58.105
1573889174,-10.254,-16.602,-277.344,-12.695,-112.305
1573889174,9.277,-13.184,79.59,29.785,24.414
1573889174,31.25,-25.391,-191.406,37.109,113.281
1573889174,10.742,-28.809,-470.215,-6.348,18.555
1573889174,-5.859,-25.879,-336.426,-11.23,-102.051
1573889174,18.066,-40.039,-24.902,32.227,-16.113
1573889174,44.922,-48.828,-116.211,55.664,122.07
1573889174,31.738,-48.34,-505.371,26.367,47.363
1573889174,3.418,-41.504,-574.219,-0.488,-104.98
1573889174,15.625,-31.25,-350.586,28.32,-76.66
1573889174,38.086,-26.855,-393.066,62.5,67.871
1573889174,28.32,-35.645,-739.746,39.062,71.777
1573889174,-3.906,-43.945,-782.715,-5.371,-75.195
1573889174,6.348,-36.621,-616.699,14.648,-122.07
1573889174,32.715,-37.598,-518.555,56.152,13.672
1573889174,26.855,-44.922,-476.074,44.434,89.355
1573889174,8.301,-38.086,-770.508,8.301,-62.5
1573889174,-1.465,-21.484,-620.605,8.301,-131.348
1573889174,24.414,-1.465,-186.523,49.805,3.418
1573889174,46.875,9.766,-199.219,62.012,124.023
1573889174,26.855,10.742,-567.383,31.25,32.715
1573889174,4.883,8.301,-720.215,14.648,-122.07
1573889174,13.184,5.859,-438.965,39.062,-55.664
1573889174,35.156,8.789,-416.016,63.477,99.609
1573889174,34.668,10.742,-832.52,36.133,27.344
1573889174,12.207,14.16,-1000,4.883,-169.434
1573889174,9.766,22.461,-578.613,29.297,-130.371
1573889174,28.809,16.113,-109.375,55.664,94.238
1573889174,30.762,2.93,-497.07,41.992,113.281
1573889174,12.695,7.324,-923.828,17.09,-79.59
1573889174,4.395,20.02,-528.32,17.09,-116.699
1573889174,27.344,24.902,-99.609,50.293,66.895
1573889174,32.715,18.066,-462.891,48.34,118.652
1573889174,6.348,10.742,-1000,13.184,-57.617
1573889174,-5.859,18.066,-856.445,10.742,-128.418
1573889174,13.184,22.949,-297.363,41.504,21.973
1573889174,35.645,6.348,-478.516,55.176,109.863
1573889174,20.996,-1.465,-1000,22.949,2.93
1573889174,-2.441,0,-902.832,4.395,-114.258
1573889174,2.93,-23.438,-406.738,32.227,-42.48
1573889174,25.391,-40.039,-300.293,55.176,118.164
1573889174,22.461,-40.039,-690.918,31.738,79.102
1573889174,2.93,-30.273,-753.418,5.371,-88.379
1573889174,7.812,-19.043,-338.379,25.879,-67.871
1573889174,31.738,-20.02,-232.91,57.129,67.871
1573889174,35.645,-16.602,-737.305,42.48,56.641
1573889174,10.742,-1.953,-979.492,3.418,-73.73
1573889174,7.324,6.348,-621.582,13.672,-122.07
1573889174,34.18,-2.441,-512.695,52.734,14.16
1573889174,40.527,-16.113,-710.449,49.805,88.379
1573889174,20.996,-26.367,-759.766,17.578,-25.391
1573889174,11.719,-41.016,-613.77,12.207,-116.699
1573889174,32.227,-50.781,-349.609,46.387,-14.648
1573889174,46.875,-48.34,-268.555,55.664,136.23
1573889174,35.645,-40.039,-528.809,24.902,60.547
1573889174,18.066,-33.203,-641.602,7.812,-98.633
1573889174,11.719,-39.551,-271.973,17.578,-54.688
1573889174,24.414,-45.41,-243.164,34.18,91.309
1573889174,14.648,-47.852,-638.184,15.137,85.938
1573889174,-2.441,-62.5,-923.34,-6.836,-104.492
1573889174,8.789,-57.129,-763.184,15.137,-133.301
1573889174,14.16,-32.227,-207.031,31.25,72.266
1573889174,9.766,-25.391,-326.66,15.137,108.398
1573889174,-3.418,-22.949,-709.473,-7.812,-41.992
1573889174,1.953,-21.484,-433.105,10.254,-99.121
1573889174,31.738,-20.02,-4.883,56.152,20.996
1573889174,28.809,-9.766,-238.77,44.922,100.098
1573889174,4.395,-0.488,-730.469,4.883,14.16
1573889174,-7.324,1.465,-656.25,1.953,-118.652
1573889174,10.254,-3.418,-317.383,33.203,-45.898
1573889174,37.109,-11.719,-400.391,53.223,130.859
1573889174,23.926,-19.531,-870.605,18.066,42.48
1573889174,-12.207,-19.531,-866.699,-18.066,-121.094
1573889174,-1.465,-16.602,-254.883,16.113,-59.57
1573889174,25.879,-19.043,-174.805,40.527,88.379
1573889174,22.461,-23.438,-714.355,8.789,58.594
1573889174,-0.488,-28.809,-813.965,-17.09,-78.613
1573889174,-3.906,-27.344,-376.465,8.301,-88.867
1573889174,21.973,-31.25,-250.977,45.41,29.297
1573889174,24.414,-32.227,-606.934,36.133,79.59
1573889174,-0.977,-20.02,-844.238,-6.348,-45.41
1573889174,-8.789,-12.207,-678.711,-5.859,-129.883
1573889174,24.902,-12.695,-571.289,43.945,-26.367
1573889174,33.203,-27.832,-865.234,43.457,96.68
1573889174,6.836,-41.504,-964.844,1.465,13.184
1573889174,-0.488,-35.156,-746.582,-7.324,-147.461
1573889174,20.996,-17.578,-469.238,28.809,-87.891
1573889174,41.504,-11.719,-353.027,55.664,97.656
1573889174,26.367,-15.625,-631.348,22.461,48.34
1573889174,2.441,-9.277,-778.809,-6.348,-119.629
1573889174,3.906,-9.277,-423.34,18.555,-63.477
1573889174,30.762,-12.695,-193.848,53.223,104.98
1573889174,36.133,-12.695,-578.125,46.387,92.285
1573889174,21.484,-7.812,-963.379,13.672,-87.891
1573889174,19.531,7.324,-992.188,17.09,-179.688
1573889174,34.18,15.625,-666.504,46.387,-12.207
1573889174,35.645,8.789,-532.715,42.48,114.258
1573889174,12.695,1.465,-892.578,7.812,-39.551
1573889174,1.953,1.953,-778.809,0,-151.367
1573889174,21.973,4.395,-228.516,37.598,0.977
1573889174,31.25,3.418,-184.57,48.828,134.277
1573889174,15.625,-5.859,-679.688,18.555,40.527
1573889174,-1.953,-13.184,-787.598,4.395,-116.211
1573889174,0,-10.254,-243.652,19.531,-38.574
1573889174,20.996,-16.113,-126.953,35.156,121.582
1573889174,20.508,-26.855,-724.121,14.648,41.016
1573889174,-2.441,-20.02,-1000,-11.23,-131.836
1573889174,-5.371,-11.23,-550.781,1.953,-107.422
1573889174,16.113,-2.93,-99.609,33.203,95.703
1573889174,23.926,-4.883,-548.828,27.344,87.402
1573889174,0,-6.348,-1000,-7.324,-98.145
1573889174,-10.254,2.93,-524.414,-1.953,-94.238
1573889174,14.648,2.93,-58.594,30.273,51.758
1573889174,26.367,-0.977,-374.023,32.715,109.863
1573889174,10.254,5.859,-782.715,0.488,-18.066
1573889174,0.488,16.602,-565.918,-6.348,-111.328
1573889174,14.648,26.367,-157.227,30.273,1.953
1573889174,30.273,25.879,-358.887,45.898,125.488
1573889174,21.973,18.066,-899.414,13.672,20.996
1573889174,0,32.227,-878.906,-17.09,-126.465
1573889174,10.742,48.34,-336.426,10.254,-41.992
1573889174,37.109,44.434,-455.566,43.457,109.863
1573889174,32.715,39.551,-853.027,20.02,72.754
1573889174,12.695,39.551,-724.609,-5.859,-73.242
1573889174,9.277,27.344,-469.238,11.719,-86.914
1573889174,23.438,12.695,-361.328,38.086,59.082
1573889174,20.508,5.859,-517.09,22.949,109.375
1573889174,-4.395,3.906,-732.91,-17.578,-37.598
1573889174,-15.137,6.836,-519.531,-19.043,-97.168
1573889174,7.812,6.348,-272.949,13.672,35.156
1573889174,32.227,6.348,-475.586,25.391,130.859
1573889174,11.23,6.348,-759.766,-5.371,4.883
1573889174,-13.672,-2.441,-867.676,-19.531,-158.203
1573889174,2.93,0,-617.188,16.602,-59.082
1573889174,22.461,9.277,-304.199,39.062,104.004
1573889174,9.277,2.441,-533.691,11.719,45.898
1573889174,-17.09,-3.906,-704.102,-20.508,-94.238
1573889174,1.953,10.254,-326.172,14.648,-62.012
1573889174,32.227,20.02,31.738,59.082,107.422
1573889174,18.555,10.254,-390.137,28.809,109.375
1573889174,-8.789,11.719,-673.34,-4.395,-48.34
1573889174,0.977,18.066,-381.348,18.555,-89.844
1573889174,21.484,27.832,-143.555,47.363,55.176
1573889174,24.414,28.809,-232.91,38.086,136.23
1573889174,22.461,18.066,-794.922,13.184,-34.668
1573889174,13.672,25.879,-562.988,13.184,-120.605
1573889174,21.973,25.879,119.141,45.41,27.344
1573889174,30.762,10.742,-49.805,48.828,138.672
1573889174,13.184,7.324,-508.301,6.836,11.719
1573889174,-5.371,11.719,-374.023,-9.277,-125.977
1573889174,7.812,16.113,130.859,30.273,-33.203
1573889174,28.809,10.254,23.926,46.875,84.473
1573889174,13.672,7.324,-445.312,6.348,23.926
1573889174,-9.277,7.812,-617.676,-18.066,-137.207
1573889174,-0.488,6.836,-231.445,5.859,-71.777
1573889174,24.902,-0.488,-148.438,36.621,89.844
1573889174,24.414,-14.16,-680.664,18.066,57.129
1573889174,-6.348,-24.414,-652.832,-23.438,-80.566
1573889174,-14.16,-23.438,-149.414,-10.742,-99.609
1573889174,20.02,-20.996,72.266,38.086,49.316
1573889174,34.668,-32.227,-233.398,40.527,101.074
1573889174,4.883,-42.969,-545.41,-0.977,-40.527
1573889174,-7.324,-41.992,-430.176,-2.441,-140.137
1573889174,17.09,-34.668,-128.906,42.48,-12.695
1573889174,37.598,-28.809,-164.551,56.152,121.582
1573889174,32.715,-20.996,-655.273,29.297,11.23
1573889174,14.648,-14.648,-820.801,16.113,-137.695
1573889174,21.973,-22.949,-414.551,39.062,-44.434
1573889174,39.062,-32.715,-284.18,58.105,116.211
1573889174,34.668,-42.969,-595.215,35.645,54.688
1573889174,26.367,-48.828,-825.195,12.695,-129.883
1573889174,28.32,-41.992,-758.789,33.203,-133.301
1573889174,39.551,-33.203,-366.699,56.641,74.219
1573889174,38.574,-33.203,-440.43,36.133,106.445
1573889174,17.09,-28.809,-843.262,4.883,-82.031
1573889174,6.348,-20.996,-555.664,13.184,-112.793
1573889174,23.438,-24.414,-41.992,46.387,62.5
1573889174,34.668,-24.414,-327.148,42.48,148.438
1573889174,21.484,-18.555,-922.363,3.906,-27.832
1573889174,8.789,-16.602,-854.98,-2.441,-161.133
1573889174,15.625,-18.066,-266.113,28.32,-2.93
1573889174,31.25,-26.367,-131.836,37.598,151.367
1573889174,18.555,-33.203,-692.871,4.883,53.711
1573889174,-0.977,-37.598,-825.195,-7.812,-85.938
1573889174,11.719,-33.691,-249.512,21.484,-11.719
1573889174,36.621,-35.156,-151.367,43.945,119.141
1573889174,35.156,-51.758,-712.891,23.438,66.406
1573889174,4.883,-58.105,-897.949,-8.789,-88.867
1573889174,-1.953,-47.852,-460.449,7.812,-93.75
1573889174,25.879,-48.34,-336.914,47.852,76.66
1573889174,40.039,-50.781,-804.199,45.41,89.844
1573889174,23.438,-31.738,-985.352,10.742,-73.242
1573889174,9.766,-18.555,-524.902,11.23,-104.492
1573889174,27.344,-20.508,-183.594,50.293,28.32
1573889174,40.039,-30.762,-449.707,53.711,112.305
1573889174,20.996,-34.668,-730.469,16.113,6.836
1573889174,7.812,-22.461,-491.211,4.883,-78.125
1573889174,30.762,-10.742,-177.246,40.039,25.879
1573889174,38.574,-17.09,-262.207,51.27,148.438
1573889174,14.648,-30.762,-502.441,9.766,89.355
1573889174,2.441,-36.133,-608.887,-8.301,-82.031
1573889174,9.766,-41.016,-484.863,15.625,-43.945
1573889174,26.367,-43.945,-511.719,34.668,108.887
1573889174,10.742,-43.457,-666.016,8.789,80.078
1573889174,-19.531,-36.621,-711.426,-18.066,-90.332
1573889174,-14.648,-26.855,-482.91,2.93,-101.562
1573889174,6.348,-26.367,-185.059,30.762,74.707
1573889174,10.254,-25.879,-247.559,21.484,136.23
1573889174,-12.207,-18.555,-585.449,-10.254,-24.902
1573889174,-23.438,-11.719,-511.719,-9.766,-125
1573889174,-3.906,-5.371,-47.363,24.902,38.086
1573889175,14.16,-3.418,-122.07,32.227,152.344
1573889175,-1.465,-5.371,-691.406,1.465,-4.395
1573889175,-9.766,3.906,-708.008,-1.465,-131.836
1573889175,21.973,20.508,-333.008,45.41,-26.855
1573889175,51.27,27.344,-215.332,69.336,126.953
1573889175,41.992,29.785,-450.684,35.156,92.285
1573889175,20.508,45.41,-828.125,8.789,-91.797
1573889175,27.344,54.199,-474.609,29.297,-89.355
1573889175,51.758,33.203,-25.879,62.5,69.336
1573889175,55.664,18.555,-481.445,48.828,62.012
1573889175,23.438,23.438,-758.789,10.254,-77.148
1573889175,13.672,33.203,-327.148,22.949,-110.84
1573889175,42.48,39.551,53.223,64.453,51.27
1573889175,46.387,36.621,-308.105,55.664,104.004
1573889175,22.461,34.18,-858.398,10.742,-48.828
1573889175,11.719,37.109,-691.895,4.395,-125
1573889175,28.809,37.598,-268.066,40.039,-0.488
1573889175,33.691,19.043,-503.906,42.48,74.219
1573889175,-3.906,-8.301,-1000,-2.93,-65.43
1573889175,-35.645,-9.766,-795.898,-30.273,-161.621
1573889175,-24.414,0.488,-255.371,-3.418,-61.035
1573889175,-5.859,4.883,-237.305,19.043,96.191
1573889175,-22.461,6.348,-656.25,-17.09,45.41
1573889175,-42.969,10.742,-769.531,-47.363,-137.207
1573889175,-31.738,16.113,-382.324,-17.09,-105.469
1573889175,-8.301,2.93,-209.961,20.02,74.707
1573889175,2.93,-10.742,-639.16,12.695,88.867
1573889175,-7.324,-11.23,-984.375,-15.137,-76.172
1573889175,-7.812,-10.742,-783.203,-2.93,-143.066
1573889175,14.16,-4.395,-686.523,24.902,-2.441
1573889175,17.09,0,-788.574,13.672,88.867
1573889175,-3.418,0.977,-786.133,-15.625,-34.18
1573889175,-0.977,13.184,-705.566,-5.859,-151.367
1573889175,20.996,26.855,-367.676,30.273,-32.227
1573889175,35.645,30.273,-295.41,37.109,105.469
1573889175,27.344,24.902,-621.582,10.742,28.32
1573889175,7.812,13.184,-738.77,-1.953,-123.047
1573889175,19.043,1.465,-422.852,26.367,-75.195
1573889175,44.922,-5.371,-352.539,55.664,92.285
1573889175,40.527,-11.23,-781.738,36.621,57.129
1573889175,16.113,-18.555,-1000,2.441,-126.465
1573889175,12.695,-4.395,-730.957,15.137,-138.184
1573889175,32.227,4.395,-229.492,49.805,57.129
1573889175,32.715,-7.812,-466.309,37.109,109.375
1573889175,3.906,-16.602,-992.676,-10.254,-73.242
1573889175,-11.23,-13.672,-771.973,-12.207,-139.648
1573889175,0,-9.766,-157.715,19.043,41.992
1573889175,5.859,-14.16,-260.254,22.949,126.953
1573889175,-9.277,-5.371,-772.949,-4.883,0.488
1573889175,-17.09,11.719,-628.418,-11.23,-105.469
1573889175,3.418,11.719,-275.391,29.785,-17.09
1573889175,29.297,4.395,-445.801,55.176,114.746
1573889175,20.02,2.93,-920.898,21.973,-1.465
1573889175,3.906,-2.93,-856.934,-5.371,-138.672
1573889175,16.602,-6.836,-253.418,30.762,-56.152
1573889175,43.945,-18.555,-171.875,64.941,92.773
1573889175,43.945,-38.086,-675.781,40.039,66.406
1573889175,5.859,-55.664,-761.719,-1.465,-81.543
1573889175,3.906,-63.965,-426.27,15.137,-93.262
1573889175,41.016,-58.105,-270.996,57.617,80.566
1573889175,50.781,-53.223,-427.246,45.898,148.926
1573889175,22.949,-64.453,-674.805,2.93,-30.762
1573889175,7.324,-77.148,-600.098,-7.324,-130.859
1573889175,26.367,-77.637,-507.812,23.438,-14.648
1573889175,42.969,-80.566,-791.992,32.227,78.125
1573889175,17.09,-87.402,-903.32,-5.371,-18.066
1573889175,-2.93,-78.613,-608.398,-19.531,-117.188
1573889175,13.672,-69.824,-196.777,14.648,3.418
1573889175,35.156,-73.242,-254.395,34.668,112.793
1573889175,27.832,-74.707,-597.168,10.742,40.527
1573889175,2.441,-71.777,-641.113,-13.672,-89.355
1573889175,-0.488,-71.289,-320.312,-0.977,-54.199
1573889175,18.066,-76.172,-137.207,23.438,106.445
1573889175,19.043,-81.543,-540.039,14.648,92.773
1573889175,1.465,-77.637,-936.523,-6.348,-90.332
1573889175,0.977,-68.359,-906.738,4.883,-132.812
1573889175,12.207,-64.941,-541.992,22.949,31.738
1573889175,13.672,-82.031,-431.641,12.695,96.68
1573889175,0.977,-94.238,-783.203,-11.719,-49.805
1573889175,-1.953,-89.355,-619.141,-6.836,-123.535
1573889175,19.043,-77.637,-61.523,29.297,15.625
1573889175,27.832,-71.289,0.977,33.691,150.391
1573889175,12.695,-85.449,-436.523,-3.418,54.688
1573889175,-5.371,-100.098,-497.559,-15.625,-101.562
1573889175,4.883,-95.215,-85.449,16.113,-58.105
1573889175,21.973,-86.914,11.719,37.598,97.656
1573889175,11.23,-89.355,-569.336,14.648,44.434
1573889175,0,-88.379,-941.406,-10.254,-127.441
1573889175,-0.488,-79.59,-358.887,8.301,-72.266
1573889175,19.531,-81.543,133.301,38.574,95.703
1573889175,33.203,-95.703,-286.133,24.414,98.145
1573889175,10.254,-96.68,-600.098,-10.742,-50.781
1573889175,1.953,-86.914,-121.582,-0.977,-91.797
1573889175,26.367,-81.055,246.582,40.527,58.105
1573889175,36.133,-83.496,-89.355,41.016,115.723
1573889175,19.043,-89.355,-524.902,12.207,-36.133
1573889175,5.859,-92.285,-315.918,11.23,-134.277
1573889175,17.578,-101.562,-26.367,46.387,-26.367
1573889175,35.645,-113.77,-257.324,66.406,121.582
1573889175,32.227,-112.793,-695.312,38.086,37.109
1573889175,12.695,-99.609,-552.246,9.277,-104.492
1573889175,22.461,-96.191,-70.801,30.273,-34.18
1573889175,50.293,-102.051,-315.43,56.641,89.844
1573889175,32.227,-102.051,-639.16,27.344,71.777
1573889175,5.371,-93.262,-451.66,-4.883,-48.34
1573889175,17.09,-84.473,-179.199,19.531,-62.5
1573889175,36.133,-79.102,-92.773,47.852,71.777
1573889175,25.879,-79.59,-294.922,25.391,115.723
1573889175,-4.395,-89.844,-562.5,-20.996,-45.41
1573889175,-12.207,-90.332,-523.438,-14.648,-140.137
1573889175,12.207,-70.801,-371.094,27.344,-4.883
1573889175,12.695,-59.57,-506.836,23.438,114.258
1573889175,-15.137,-56.641,-784.18,-15.625,-18.066
1573889175,-22.949,-56.152,-761.23,-22.461,-133.789
1573889175,-6.348,-62.5,-547.852,14.16,-23.438
1573889175,10.254,-64.453,-300.781,29.785,119.629
1573889175,3.906,-61.035,-648.438,2.441,31.738
1573889175,-18.555,-57.617,-880.371,-25.879,-133.301
1573889175,-15.137,-54.688,-345.215,-7.324,-59.082
1573889175,16.113,-53.711,-81.543,29.297,100.098
1573889175,18.555,-59.082,-479.98,16.602,71.777
1573889175,4.395,-54.199,-751.953,-8.301,-95.215
1573889175,11.23,-39.062,-511.719,13.184,-106.445
1573889175,26.855,-35.156,-250.488,46.387,66.895
1573889175,34.18,-39.551,-476.562,41.992,99.121
1573889175,22.949,-34.18,-959.473,16.113,-67.383
1573889175,-0.977,-23.926,-734.863,5.859,-133.789
1573889175,14.16,-16.602,-134.766,41.504,28.809
1573889175,35.156,-14.16,-340.82,54.688,131.836
1573889175,11.719,-10.254,-855.469,8.301,6.348
1573889175,-4.395,-8.301,-678.711,-15.137,-107.91
1573889175,17.578,-12.207,-307.129,25.391,-15.625
1573889175,29.785,-12.207,-362.793,45.41,134.766
1573889175,14.648,-11.23,-722.168,11.23,71.289
1573889175,-3.906,-8.301,-914.551,-9.766,-113.77
1573889175,-0.977,-4.395,-638.184,11.719,-97.656
1573889175,19.531,-3.418,-533.691,41.504,78.613
1573889175,13.184,-9.277,-937.5,17.578,67.383
1573889175,-20.508,-10.254,-925.781,-24.902,-86.426
1573889175,-27.832,-9.766,-436.035,-13.184,-93.262
1573889175,-7.812,-15.625,-182.617,20.02,61.523
1573889175,0,-20.02,-460.449,21.973,112.793
1573889175,-11.719,-20.508,-718.75,-7.812,-33.691
1573889175,-10.742,-3.418,-474.609,-3.418,-101.074
1573889175,9.277,13.184,-164.551,40.527,12.207
1573889175,27.344,8.301,-363.77,51.27,104.98
1573889175,21.484,9.277,-826.172,22.949,1.465
1573889175,14.16,21.484,-843.262,17.09,-141.602
1573889175,32.715,24.902,-637.207,50.781,-66.406
1573889175,50.781,18.555,-512.207,67.871,88.379
1573889175,42.969,18.555,-526.855,39.551,45.898
1573889175,21.973,24.902,-700.684,11.23,-121.094
1573889175,36.133,33.691,-383.789,35.645,-98.633
1573889175,64.453,38.086,6.348,71.777,78.125
1573889175,53.711,29.785,-235.352,46.875,99.609
1573889175,27.344,20.508,-674.316,15.625,-88.379
1573889175,20.508,23.438,-400.879,26.855,-109.375
1573889175,36.133,30.762,104.492,54.199,66.895
1573889175,47.363,31.25,-299.316,54.688,97.656
1573889175,37.109,34.668,-913.574,23.438,-72.266
1573889175,15.625,40.039,-816.895,11.23,-169.922
1573889175,13.184,42.48,-104.004,34.668,19.531
1573889175,29.785,38.574,63.477,49.316,162.109
1573889175,20.02,36.133,-495.117,18.555,38.574
1573889175,-3.906,37.109,-596.191,-8.301,-122.07
1573889175,-0.977,20.508,-83.008,16.602,-44.434
1573889175,21.973,-2.441,-19.043,42.969,107.422
1573889175,13.672,-20.02,-592.773,22.949,50.781
1573889175,-21.484,-28.32,-730.469,-7.324,-79.102
1573889175,-14.16,-33.691,-295.41,10.254,-73.73
1573889175,15.137,-46.875,-287.598,47.852,56.641
1573889175,11.719,-62.5,-790.527,25.391,85.449
1573889175,-5.859,-61.035,-950.195,-11.719,-57.617
1573889175,-8.789,-60.059,-474.121,-2.441,-92.773
1573889175,9.277,-76.172,-254.883,27.344,22.461
1573889175,23.438,-86.426,-570.312,30.762,108.398
1573889175,6.836,-77.148,-767.09,-3.418,8.789
1573889175,-1.465,-59.082,-616.211,-3.906,-126.953
1573889175,23.926,-53.223,-292.969,36.621,-16.113
1573889175,41.992,-59.082,-353.027,56.641,121.094
1573889175,28.809,-60.547,-719.727,30.273,20.508
1573889175,7.812,-49.805,-752.441,7.324,-139.648
1573889175,25.879,-39.551,-604.98,47.852,-97.168
1573889175,46.875,-42.48,-702.148,72.754,70.312
1573889175,29.297,-40.039,-804.199,38.086,76.66
1573889175,12.695,-26.367,-761.719,10.254,-79.102
1573889175,11.23,-23.438,-567.383,29.785,-97.656
1573889175,31.738,-28.809,-358.887,60.547,63.965
1573889175,45.898,-30.273,-593.75,47.852,65.43
1573889175,19.531,-33.691,-1000,9.277,-114.746
1573889175,7.324,-26.367,-762.207,11.23,-152.344
1573889175,33.203,-11.23,-288.574,44.434,12.207
1573889175,37.598,-9.766,-353.027,38.086,110.84
1573889175,10.742,-9.766,-747.559,1.953,-6.348
1573889175,-4.395,-13.672,-839.355,-4.883,-145.02
1573889175,13.184,-13.672,-587.891,28.809,-67.871
1573889175,21.484,-10.742,-508.789,38.086,87.402
1573889175,9.766,-8.301,-791.992,8.301,22.461
1573889175,-4.395,0,-1000,-11.719,-167.969
1573889175,1.465,12.207,-605.957,15.137,-105.957
1573889175,30.273,19.043,-142.578,48.828,105.469
1573889175,26.855,15.137,-596.68,22.461,69.824
1573889175,-1.465,12.695,-949.707,-16.602,-106.934
1573889175,-3.418,24.414,-590.332,-1.953,-119.629
1573889175,15.137,33.691,-301.27,33.691,42.969
1573889175,28.809,26.855,-562.988,33.691,94.238
1573889175,19.531,23.926,-1000,8.301,-65.43
1573889175,4.883,38.574,-794.922,0,-139.648
1573889175,6.348,43.945,-202.148,16.602,6.836
1573889175,26.367,36.133,-429.199,31.25,99.121
1573889175,17.09,36.621,-1000,5.859,-44.922
1573889175,-14.16,37.109,-756.836,-15.137,-150.879
1573889175,-1.953,33.691,-171.387,12.695,-35.645
1573889175,22.461,31.738,-246.094,36.621,94.238
1573889175,8.301,28.32,-620.605,6.836,55.176
1573889175,-21.484,29.785,-612.305,-22.461,-95.215
1573889175,-17.578,33.691,-265.625,1.465,-84.473
1573889175,18.066,23.926,-204.102,37.598,83.984
1573889175,22.949,20.996,-637.207,31.738,109.375
1573889175,-9.277,24.902,-943.848,-6.836,-63.477
1573889175,-8.789,30.273,-736.816,-3.418,-139.16
1573889175,18.066,36.133,-713.379,27.832,-11.23
1573889175,24.414,34.18,-840.82,20.02,95.703
1573889175,1.953,36.133,-670.898,-12.695,11.719
1573889175,-7.324,44.434,-432.617,-11.719,-71.289
1573889175,20.996,52.246,-166.992,30.273,18.555
1573889175,38.086,55.664,-165.527,39.062,135.254
1573889175,21.973,52.734,-541.504,12.695,36.133
1573889175,4.883,45.41,-725.098,5.859,-139.16
1573889175,10.254,46.875,-308.105,22.461,-47.852
1573889175,25.391,51.27,-235.352,39.062,109.863
1573889175,10.742,54.688,-686.035,15.625,60.547
1573889175,-7.324,65.43,-880.371,-7.324,-92.773
1573889175,-1.953,65.918,-588.867,15.625,-82.031
1573889175,10.254,66.406,19.531,37.109,113.77
1573889175,6.348,69.824,-71.777,20.508,133.301
1573889175,-15.625,75.195,-448.73,-15.137,-35.156
1573889175,-18.555,85.938,-182.129,-5.371,-91.797
1573889175,4.395,95.215,262.695,32.227,46.875
1573889175,13.184,102.539,10.254,26.855,99.609
1573889175,-13.184,103.516,-394.531,-14.16,-4.395
1573889175,-24.902,99.609,-227.051,-17.09,-108.398
1573889175,-2.441,100.586,117.676,21.973,-13.184
1573889175,13.672,92.773,-51.758,37.109,108.398
1573889175,0.488,77.637,-752.93,3.906,-8.301
1573889175,-9.277,76.172,-727.051,-14.648,-138.672
1573889175,7.324,80.078,-55.664,24.414,-87.402
1573889175,27.832,70.801,-28.809,53.711,81.055
1573889175,28.809,58.594,-423.34,27.344,59.082
1573889175,8.789,65.43,-526.855,0.488,-125.977
1573889175,10.742,71.777,11.719,17.578,-69.336
1573889175,40.039,67.383,229.98,49.805,97.656
1573889175,40.527,62.988,-216.309,41.504,100.586
1573889175,20.02,62.012,-438.477,13.672,-27.344
1573889175,18.555,61.035,-246.582,20.996,-85.449
1573889175,35.156,53.223,-207.031,55.664,17.578
1573889176,40.527,57.129,-613.77,55.176,82.031
1573889176,17.09,65.918,-758.301,16.113,-36.133
1573889176,3.906,73.73,-458.008,6.348,-154.297
1573889176,20.508,86.914,-81.055,37.598,-30.762
1573889176,40.527,89.355,-134.766,53.223,93.75
1573889176,31.738,81.055,-583.496,24.902,8.301
1573889176,4.395,76.66,-635.254,1.953,-119.629
1573889176,9.766,81.543,-206.543,28.809,-63.965
1573889176,30.273,82.52,-44.434,54.688,100.098
1573889176,27.344,78.125,-358.398,33.203,86.426
1573889176,9.766,80.566,-710.938,10.254,-85.938
1573889176,9.277,89.844,-761.23,20.508,-119.141
1573889176,32.715,98.145,-526.855,52.246,20.508
