timestamps,TP9,AF7,AF8,TP10,Right AUX
1573889820.614,20.508,42.969,-137.695,3.418,51.758
1573889820.618,11.719,35.645,-494.141,-7.812,-98.145
1573889820.622,20.996,37.109,134.277,17.090,7.812
1573889820.626,42.969,41.992,601.562,41.992,170.410
1573889820.630,36.621,41.504,50.781,26.367,101.562
1573889820.633,20.508,38.574,-685.547,7.324,-98.633
1573889820.637,24.902,36.621,-379.395,18.555,-63.965
1573889820.641,39.551,31.738,397.461,40.039,137.207
1573889820.645,39.062,24.414,104.492,31.738,123.047
1573889820.649,21.973,20.020,-844.238,3.418,-51.758
1573889820.653,11.719,26.367,-533.691,3.418,-57.617
1573889820.657,32.227,39.551,458.984,37.109,107.910
1573889820.661,43.457,45.410,362.793,41.016,183.594
1573889820.665,27.344,35.156,-494.629,13.672,7.812
1573889820.669,17.090,28.320,-504.395,10.254,-106.934
1573889820.673,28.809,29.785,362.305,32.715,59.570
1573889820.676,41.992,23.926,551.270,44.922,200.684
1573889820.680,41.016,25.391,-213.379,31.250,84.961
1573889820.684,23.438,32.715,-648.438,6.836,-80.078
1573889820.688,19.531,22.461,44.434,14.648,-15.625
1573889820.692,35.645,21.973,383.301,32.227,145.020
1573889820.696,30.273,33.691,-261.719,12.207,105.469
1573889820.700,10.254,33.691,-533.691,-10.742,-79.590
1573889820.704,21.973,34.180,-18.555,8.301,-63.965
1573889820.708,41.016,38.086,560.547,32.227,129.883
1573889820.712,38.086,33.203,316.406,18.066,148.926
1573889820.715,25.391,30.273,-281.738,-2.930,-41.016
1573889820.719,22.949,35.645,-272.461,6.348,-119.629
1573889820.723,38.086,38.574,324.707,38.574,50.781
1573889820.727,45.410,36.621,299.805,40.527,148.438
1573889820.731,30.273,33.203,-406.738,12.695,-5.371
1573889820.735,23.926,22.949,-434.570,8.301,-102.051
1573889820.739,42.969,18.066,-44.922,33.691,-6.836
1573889820.743,56.152,24.414,277.832,47.852,141.602
1573889820.747,45.898,28.320,129.395,27.344,96.680
1573889820.751,26.855,26.367,-375.488,9.277,-96.191
1573889820.755,31.738,29.785,77.637,27.344,-24.902
1573889820.758,49.316,32.715,782.715,45.898,184.082
1573889820.762,44.922,25.391,355.469,36.133,127.441
1573889820.766,29.785,23.438,-386.230,12.207,-78.125
1573889820.770,27.832,24.902,-204.102,19.043,-93.262
1573889820.774,43.457,28.809,381.836,43.457,93.750
1573889820.778,49.316,32.227,248.535,40.527,164.062
1573889820.782,31.738,24.414,-621.582,12.695,-25.879
1573889820.786,18.066,16.602,-727.539,1.953,-114.746
1573889820.790,29.785,24.414,351.074,28.320,64.941
1573889820.794,40.039,41.016,607.422,35.156,159.668
1573889820.798,26.855,39.062,-193.359,7.324,8.789
1573889820.801,19.531,27.344,-464.355,-0.488,-136.719
1573889820.805,35.156,31.738,223.145,30.273,-43.457
1573889820.809,48.828,39.551,583.008,48.828,129.395
1573889820.813,40.527,45.410,15.137,26.367,90.332
1573889820.817,26.367,42.480,-401.855,7.324,-76.660
1573889820.821,34.180,34.180,-88.379,28.320,-80.078
1573889820.825,48.340,36.621,327.637,46.387,103.516
1573889820.829,43.945,40.039,-211.426,26.367,92.285
1573889820.833,31.738,38.086,-866.211,4.395,-98.145
1573889820.837,37.109,35.645,-347.168,23.438,-100.586
1573889820.840,49.805,38.574,379.883,48.340,70.312
1573889820.844,50.781,38.574,351.562,42.480,163.574
1573889820.848,37.109,36.621,-141.113,17.578,36.133
1573889820.852,27.344,39.551,-196.777,12.207,-88.379
1573889820.856,41.504,41.992,393.066,39.551,53.711
1573889820.860,53.711,44.434,522.461,47.852,183.105
1573889820.864,39.551,46.387,-80.566,26.367,49.316
1573889820.868,28.320,45.898,-511.719,16.113,-112.305
1573889820.872,38.086,40.527,-255.859,33.203,-53.223
1573889820.876,46.387,35.156,128.906,43.457,149.902
1573889820.880,36.621,44.434,-34.180,26.855,108.887
1573889820.883,22.461,58.594,-395.508,7.812,-77.637
1573889820.887,30.273,59.570,-63.965,24.414,-50.781
1573889820.891,37.598,52.246,470.703,43.457,138.184
1573889820.895,29.785,48.828,298.340,25.391,158.203
1573889820.899,19.043,52.246,-388.184,2.441,-72.266
1573889820.903,20.996,48.828,-395.996,8.789,-142.578
1573889820.907,41.016,44.434,371.094,36.133,71.289
1573889820.911,49.316,52.246,495.117,42.969,176.758
1573889820.915,38.574,59.082,-342.285,24.414,26.367
1573889820.919,31.738,60.059,-607.422,16.113,-90.820
1573889820.923,40.527,55.176,213.867,37.109,27.832
1573889820.926,54.688,50.781,599.121,50.293,174.316
1573889820.930,43.945,46.387,-113.770,24.902,50.293
1573889820.934,29.297,47.852,-867.188,9.766,-125.488
1573889820.938,38.574,49.316,-232.422,33.203,-37.109
1573889820.942,51.758,44.922,587.891,53.711,151.855
1573889820.946,45.898,44.922,-10.742,34.668,81.543
1573889820.950,24.902,43.457,-720.215,11.719,-106.934
1573889820.954,23.438,41.504,-262.207,27.344,-111.816
1573889820.958,37.598,37.598,516.602,46.875,91.309
1573889820.962,30.762,36.621,105.469,30.273,136.719
1573889820.965,7.324,38.574,-863.281,-6.348,-80.078
1573889820.969,12.207,34.180,-458.496,1.465,-100.586
1573889820.973,31.738,28.809,491.211,29.785,85.938
1573889820.977,33.203,28.809,434.082,28.320,187.500
1573889820.981,23.926,32.715,-408.203,10.254,18.555
1573889820.985,18.555,37.598,-571.289,5.371,-156.738
1573889820.989,32.715,38.574,223.145,27.344,-6.348
1573889820.993,45.898,42.480,571.777,42.480,188.965
1573889820.997,28.320,41.992,-22.461,20.508,83.008
1573889821.001,19.043,40.039,-404.785,7.324,-96.680
1573889821.005,35.645,38.574,-58.105,34.180,-52.734
1573889821.008,53.711,31.738,260.742,55.176,117.188
1573889821.012,49.805,27.832,-70.801,39.062,130.859
1573889821.016,34.668,29.785,-455.566,19.043,-31.738
1573889821.020,39.062,32.715,-163.574,30.273,-74.219
1573889821.024,54.688,39.062,246.094,53.711,99.121
1573889821.028,53.223,42.480,239.746,49.805,170.898
1573889821.032,31.250,31.250,-241.211,19.043,-16.602
1573889821.036,28.320,23.926,-322.754,20.020,-105.957
1573889821.040,46.387,26.855,318.848,48.340,51.270
1573889821.044,52.246,27.832,533.203,51.270,171.875
1573889821.048,39.551,26.367,-129.883,25.879,21.484
1573889821.051,34.180,30.273,-516.602,18.555,-133.301
1573889821.055,53.711,34.668,-41.504,44.922,-21.973
1573889821.059,63.477,30.762,341.309,53.223,164.551
1573889821.063,51.758,26.367,-80.078,28.809,120.605
1573889821.067,34.668,14.160,-701.660,3.418,-43.457
1573889821.071,36.621,12.207,-289.551,12.207,-20.508
1573889821.075,53.711,24.414,600.586,40.039,151.367
1573889821.079,52.246,30.762,363.770,32.227,133.789
1573889821.083,30.273,27.832,-525.879,3.418,-51.270
1573889821.087,29.297,27.832,-360.352,13.672,-66.895
1573889821.090,53.223,27.832,591.309,49.805,108.887
1573889821.094,60.547,27.832,534.668,51.270,173.340
1573889821.098,45.898,39.551,-262.207,28.320,-4.395
1573889821.102,39.062,36.621,-505.859,26.855,-141.602
1573889821.106,51.758,31.738,122.559,50.781,-5.859
1573889821.110,58.594,32.715,513.672,54.688,170.410
1573889821.114,41.992,30.273,-371.094,27.344,32.715
1573889821.118,28.809,37.598,-777.832,17.578,-137.207
1573889821.122,40.527,43.945,139.648,37.598,-48.340
1573889821.126,55.176,33.203,650.391,52.246,140.625
1573889821.130,49.316,21.484,132.812,35.645,85.449
1573889821.133,25.391,19.043,-272.461,11.230,-88.379
1573889821.137,29.297,23.438,217.285,27.344,-51.270
1573889821.141,55.176,29.785,729.980,56.152,112.305
1573889821.145,51.270,35.156,443.359,39.551,127.441
1573889821.149,30.273,42.480,-253.418,12.695,-35.156
1573889821.153,29.785,39.062,-130.371,22.461,-93.750
1573889821.157,43.945,37.109,469.238,47.363,53.711
1573889821.161,46.387,34.180,382.324,42.969,173.340
1573889821.165,24.414,23.438,-5.859,10.742,26.855
1573889821.169,12.695,24.902,-76.660,2.930,-133.301
1573889821.173,35.156,38.574,435.059,30.762,-1.953
1573889821.176,42.480,36.621,778.320,39.062,191.406
1573889821.180,25.879,23.926,281.738,13.184,62.500
1573889821.184,16.113,24.414,-209.473,1.953,-138.184
1573889821.188,31.250,32.227,284.668,29.785,-41.016
1573889821.192,54.199,36.621,755.859,51.758,139.648
1573889821.196,52.734,30.762,261.230,35.645,119.629
1573889821.200,28.809,27.344,-347.168,13.672,-46.875
1573889821.204,29.297,24.902,-312.012,25.391,-100.098
1573889821.208,49.805,24.414,430.176,47.852,106.445
1573889821.212,46.875,35.645,693.848,42.969,195.801
1573889821.215,32.715,35.156,-31.738,22.949,17.090
1573889821.219,29.785,27.832,-107.422,24.902,-69.824
1573889821.223,40.527,27.344,636.230,46.387,67.383
1573889821.227,45.410,24.902,799.805,49.805,200.195
1573889821.231,31.250,24.414,-15.137,25.391,65.918
1573889821.235,16.602,29.297,-305.176,15.137,-70.312
1573889821.239,23.438,34.668,438.477,35.156,29.785
1573889821.243,32.227,36.133,604.004,44.434,155.762
1573889821.247,23.926,35.156,-337.402,24.414,21.973
1573889821.251,9.766,31.738,-915.039,2.441,-180.664
1573889821.255,11.230,29.785,-130.859,18.066,-90.820
1573889821.258,25.879,31.250,591.797,42.969,110.352
1573889821.262,21.484,25.391,129.883,26.367,88.379
1573889821.266,4.883,21.973,-491.699,0.977,-86.914
1573889821.270,7.812,36.133,-83.496,13.672,-86.914
1573889821.274,30.762,40.527,632.324,40.527,108.887
1573889821.278,34.180,28.809,364.746,35.645,135.742
1573889821.282,11.719,24.414,-267.090,5.371,3.418
1573889821.286,10.742,22.461,-290.527,5.859,-83.496
1573889821.290,30.762,24.902,161.621,39.062,20.996
1573889821.294,36.133,32.227,233.887,44.922,156.250
1573889821.298,11.719,25.879,-352.051,14.160,37.598
1573889821.301,-0.977,25.391,-487.305,-0.977,-99.609
1573889821.305,24.902,38.574,107.910,34.180,-15.137
1573889821.309,44.434,33.203,207.520,54.199,153.809
1573889821.313,26.855,26.855,-284.668,28.809,79.102
1573889821.317,10.742,24.902,-532.715,10.742,-97.656
1573889821.321,21.973,22.461,-183.594,29.785,-54.199
1573889821.325,39.062,26.855,338.379,56.641,123.535
1573889821.329,35.156,28.320,148.438,45.410,124.512
1573889821.333,18.066,30.273,-446.777,20.020,-76.172
1573889821.337,15.137,32.227,-525.391,24.414,-118.652
1573889821.340,25.879,34.180,56.152,41.504,90.820
1573889821.344,27.832,38.574,244.141,39.062,175.781
1573889821.348,11.230,36.621,-367.676,12.695,-20.996
1573889821.352,0.000,28.809,-562.500,3.418,-133.301
1573889821.356,12.207,26.367,81.055,26.855,13.184
1573889821.360,27.832,18.555,511.230,37.109,161.133
1573889821.364,15.625,13.672,-66.895,13.672,58.105
1573889821.368,2.441,22.949,-476.074,4.883,-87.402
1573889821.372,15.625,18.555,71.289,25.391,-26.367
1573889821.376,29.785,12.695,648.438,38.086,169.922
1573889821.380,29.297,19.043,231.934,25.391,145.996
1573889821.383,15.625,17.578,-562.988,9.277,-89.355
1573889821.387,17.578,18.555,-384.766,17.578,-108.887
1573889821.391,31.250,28.809,319.336,36.133,84.961
1573889821.395,34.180,29.297,200.684,31.250,124.512
1573889821.399,24.902,23.926,-725.586,9.766,-74.219
1573889821.403,21.484,18.066,-583.984,14.648,-110.352
1573889821.407,34.180,11.719,444.824,40.039,79.590
1573889821.411,31.250,12.207,469.727,33.691,160.156
1573889821.415,15.137,20.020,-282.715,7.812,3.418
1573889821.419,9.766,28.320,-263.672,4.395,-85.449
1573889821.423,25.879,28.809,458.984,33.203,28.320
1573889821.426,38.086,23.926,613.281,46.875,152.344
1573889821.430,18.555,21.484,-192.871,12.207,25.391
1573889821.434,5.371,24.902,-693.359,-3.418,-147.461
1573889821.438,18.066,34.180,-13.672,24.902,-51.758
1573889821.442,32.715,33.203,374.512,39.551,109.863
1573889821.446,26.855,24.414,-187.012,15.137,90.332
1573889821.450,13.672,31.250,-492.188,-6.836,-90.332
1573889821.454,11.719,34.668,-32.715,0.000,-91.797
1573889821.458,19.531,31.738,577.637,19.531,123.535
1573889821.462,20.020,35.645,440.918,15.137,180.176
1573889821.465,9.277,34.668,-130.371,-8.301,-0.488
1573889821.469,12.207,35.645,-201.172,1.953,-114.258
1573889821.473,33.203,39.551,408.691,33.203,51.758
1573889821.477,42.969,37.598,475.586,37.598,195.801
1573889821.481,28.809,38.574,-210.449,13.672,58.105
1573889821.485,22.461,35.156,-410.645,12.695,-108.887
1573889821.489,41.504,29.297,-88.867,42.480,-15.137
1573889821.493,44.922,26.367,331.055,48.828,192.383
1573889821.497,33.203,28.809,135.254,30.762,100.586
1573889821.501,25.391,27.344,-518.555,17.090,-136.719
1573889821.505,29.297,25.391,-116.699,28.320,-62.988
1573889821.508,38.574,29.297,670.410,47.363,159.668
1573889821.512,26.855,27.344,300.781,31.738,145.996
1573889821.516,13.184,24.902,-474.609,4.883,-41.504
1573889821.520,14.648,21.484,-191.895,12.695,-57.617
1573889821.524,23.438,21.484,430.176,33.691,118.164
1573889821.528,25.879,25.879,327.637,24.902,176.270
1573889821.532,11.719,19.531,-512.207,-3.906,-21.973
1573889821.536,2.441,24.902,-809.082,-8.789,-135.742
1573889821.540,14.648,38.086,229.492,15.625,51.758
1573889821.544,20.996,31.250,670.898,21.973,205.566
1573889821.548,0.977,24.414,-110.352,-5.371,57.617
1573889821.551,-7.324,31.738,-524.902,-12.695,-131.836
1573889821.555,12.207,28.320,121.094,16.113,-53.711
1573889821.559,20.996,26.855,575.195,27.344,143.066
1573889821.563,15.137,34.668,-15.625,8.789,79.590
1573889821.567,5.859,28.809,-528.809,-5.859,-102.051
1573889821.571,16.113,30.273,-191.895,18.066,-81.055
1573889821.575,31.738,37.109,241.211,38.574,85.938
1573889821.579,22.461,39.551,-251.465,17.578,92.773
1573889821.583,4.395,42.480,-815.430,-1.953,-85.938
1573889821.587,7.324,39.062,-289.062,14.648,-116.699
1573889821.590,27.832,41.016,382.812,41.016,56.641
1573889821.594,30.762,46.387,296.387,38.086,141.602
1573889821.598,20.020,38.086,-278.320,18.555,-17.090
1573889821.602,18.555,32.227,-347.168,18.555,-137.695
1573889821.606,28.809,29.785,184.082,38.574,-8.789
1573889821.610,32.227,25.879,466.797,41.504,171.875
1573889821.614,18.066,32.227,20.020,18.555,114.258
1573889821.618,9.766,34.668,-519.531,9.766,-80.078
1573889821.622,16.602,28.320,-274.414,20.508,-50.293
1573889821.626,23.926,32.227,32.715,25.879,113.770
1573889821.630,13.672,36.133,-117.676,7.812,89.844
1573889821.633,-3.418,30.273,-437.012,-16.602,-84.473
1573889821.637,4.395,35.645,-113.770,-2.930,-63.965
1573889821.641,20.996,37.598,542.969,21.484,129.395
1573889821.645,16.113,25.391,418.945,12.695,155.273
1573889821.649,5.859,24.902,-191.406,-5.859,22.461
1573889821.653,10.742,26.367,-181.641,1.465,-33.203
1573889821.657,28.809,20.020,480.469,34.668,91.309
1573889821.661,41.016,27.832,617.188,45.410,191.406
1573889821.665,35.156,41.016,-184.082,30.762,42.480
1573889821.669,27.832,40.527,-832.520,25.879,-121.094
1573889821.673,39.551,33.203,-166.504,43.457,-13.184
1573889821.676,48.828,34.180,582.031,55.664,163.574
1573889821.680,38.086,32.715,-37.598,32.715,61.035
1573889821.684,22.949,31.250,-595.703,11.230,-94.727
1573889821.688,31.250,33.203,75.684,34.668,-20.508
1573889821.692,47.852,34.180,708.496,58.594,144.531
1573889821.696,38.086,30.762,190.918,36.621,106.934
1573889821.700,16.113,23.438,-496.094,3.418,-70.801
1573889821.704,19.531,30.762,-160.156,14.160,-81.543
1573889821.708,34.180,34.668,517.578,39.551,75.195
1573889821.712,29.785,24.902,117.188,28.809,136.230
1573889821.715,10.742,22.949,-721.680,1.465,-4.395
1573889821.719,4.395,28.320,-467.285,1.465,-106.445
1573889821.723,14.160,26.855,429.199,23.926,59.570
1573889821.727,21.484,22.949,376.465,23.438,172.852
1573889821.731,11.230,28.809,-405.273,1.465,27.344
1573889821.735,-2.441,32.227,-398.438,-6.348,-99.609
1573889821.739,9.277,31.250,194.824,10.254,9.766
1573889821.743,25.879,34.180,478.027,24.414,170.410
1573889821.747,19.043,38.086,8.301,8.301,76.172
1573889821.751,7.812,37.598,-370.117,-5.371,-76.660
1573889821.755,17.578,30.762,66.895,10.254,-30.273
1573889821.758,34.180,23.926,486.816,29.785,138.672
1573889821.762,35.156,30.273,78.613,21.973,142.578
1573889821.766,21.973,33.691,-452.637,0.488,-29.785
1573889821.770,27.344,36.133,-232.422,12.695,-95.703
1573889821.774,47.852,37.109,375.488,42.969,71.777
1573889821.778,49.316,33.203,430.176,42.969,152.832
1573889821.782,37.598,27.832,-178.711,18.066,-40.527
1573889821.786,39.551,22.949,-359.863,20.508,-145.996
1573889821.790,56.152,29.785,66.895,46.387,13.672
1573889821.794,59.082,33.691,431.641,49.316,179.199
1573889821.798,35.645,21.973,9.766,20.020,59.570
1573889821.801,28.320,24.902,-369.629,7.324,-115.234
1573889821.805,41.504,29.297,87.402,31.738,-45.410
1573889821.809,53.711,26.367,562.988,47.852,148.438
1573889821.813,49.805,22.949,258.301,31.738,105.469
1573889821.817,35.156,19.043,-390.625,11.719,-75.195
1573889821.821,36.621,26.855,-221.680,18.555,-71.777
1573889821.825,45.898,27.344,607.910,35.645,98.633
1573889821.829,44.922,24.414,518.066,31.738,129.395
1573889821.833,26.367,28.809,-182.617,7.812,-63.477
1573889821.837,20.996,23.926,-21.484,6.836,-112.305
1573889821.840,35.156,21.973,811.523,32.227,75.684
1573889821.844,33.203,20.996,781.250,29.785,152.344
1573889821.848,16.602,11.719,-60.059,3.418,-5.859
1573889821.852,10.254,16.602,-236.816,0.488,-85.449
1573889821.856,27.832,28.809,418.457,29.297,29.785
1573889821.860,44.434,29.785,625.977,40.527,148.438
1573889821.864,33.203,23.926,-203.613,19.043,53.223
1573889821.868,28.320,28.809,-498.047,8.301,-96.680
1573889821.872,47.852,42.969,386.230,39.062,-33.203
1573889821.876,58.594,30.762,851.562,59.570,145.020
1573889821.880,48.828,20.020,282.715,35.156,89.844
1573889821.883,34.668,25.879,-238.281,14.160,-106.445
1573889821.887,41.016,27.832,143.555,30.273,-89.844
1573889821.891,55.176,29.297,736.816,52.734,120.117
1573889821.895,49.805,22.949,524.902,41.992,163.086
1573889821.899,27.832,17.578,-268.555,13.184,-21.484
1573889821.903,18.066,22.461,-238.770,7.812,-87.402
1573889821.907,30.273,33.691,363.281,30.273,74.219
1573889821.911,39.062,32.715,260.742,34.668,189.453
1573889821.915,23.438,22.949,-174.805,6.348,33.203
1573889821.919,7.812,24.414,-266.602,-1.465,-110.840
1573889821.923,15.137,22.461,361.816,19.043,57.617
1573889821.926,28.809,26.367,704.590,30.762,214.844
1573889821.930,19.531,34.668,149.902,12.695,81.543
1573889821.934,7.812,29.297,-390.625,-6.348,-115.723
1573889821.938,20.020,23.438,-5.371,10.254,-50.293
1573889821.942,35.645,23.926,566.895,30.762,144.043
1573889821.946,31.738,26.855,122.070,12.695,116.699
1573889821.950,19.043,32.715,-624.023,-8.789,-62.500
1573889821.954,22.461,32.227,-667.480,4.883,-104.004
1573889821.958,32.715,25.879,37.109,23.438,70.801
1573889821.962,32.715,31.250,333.984,18.066,163.086
1573889821.965,25.391,38.574,-468.750,2.930,-43.457
1573889821.969,24.414,39.551,-640.137,9.766,-154.785
1573889821.973,37.109,29.785,315.430,33.691,63.477
1573889821.977,43.457,24.414,637.207,36.621,216.797
1573889821.981,31.250,28.809,-205.566,14.160,39.062
1573889821.985,21.484,34.668,-593.750,7.812,-112.793
1573889821.989,35.156,32.227,162.598,34.180,13.184
1573889821.993,45.898,28.320,453.613,52.734,166.504
1573889821.997,40.527,22.461,-328.125,33.203,95.215
1573889822.001,26.367,13.184,-945.801,11.719,-116.211
1573889822.005,23.438,17.578,-257.324,25.391,-75.195
1573889822.008,38.086,21.973,570.801,43.457,144.531
1573889822.012,37.598,27.832,181.641,31.250,131.348
1573889822.016,17.578,31.250,-505.859,5.859,-70.801
1573889822.020,14.160,22.949,-242.676,11.719,-78.125
1573889822.024,25.879,18.066,400.391,35.156,104.004
1573889822.028,20.996,23.926,335.938,31.250,168.457
1573889822.032,7.812,19.531,-322.266,5.371,-7.812
1573889822.036,7.812,18.555,-426.270,9.277,-118.652
1573889822.040,24.414,23.438,163.086,39.551,32.715
1573889822.044,37.109,21.484,163.574,40.527,183.594
1573889822.048,28.320,18.066,-431.152,15.625,57.129
1573889822.051,22.461,21.484,-448.730,7.812,-111.816
1573889822.055,34.668,28.809,109.863,30.762,-30.762
1573889822.059,43.457,21.484,505.371,43.457,150.879
1573889822.063,30.273,17.578,191.406,23.438,120.605
1573889822.067,13.672,31.738,-344.727,6.836,-94.727
1573889822.071,29.297,36.621,-97.656,30.762,-94.727
1573889822.075,41.992,27.344,547.363,52.246,129.883
1573889822.079,30.762,28.320,348.633,38.574,167.480
1573889822.083,17.090,26.367,-288.086,16.602,-29.297
1573889822.087,15.625,18.066,-358.887,20.508,-83.984
1573889822.090,28.320,23.438,192.383,43.945,92.285
1573889822.094,31.738,31.738,506.348,41.992,187.012
1573889822.098,13.672,20.996,-123.535,15.137,-3.906
1573889822.102,5.371,12.695,-475.586,8.789,-154.297
1573889822.106,31.738,27.832,173.340,37.598,-4.395
1573889822.110,39.551,28.320,692.383,45.410,188.477
1573889822.114,30.273,20.996,114.746,26.367,78.125
1573889822.118,20.996,26.367,-499.023,12.207,-122.559
1573889822.122,26.367,28.809,29.297,29.297,-40.527
1573889822.126,42.969,14.648,636.719,53.223,135.742
1573889822.130,35.645,0.000,191.895,36.133,103.027
1573889822.133,24.902,12.695,-598.145,16.113,-89.355
1573889822.137,33.203,26.367,-472.168,31.738,-128.418
1573889822.141,56.641,30.762,236.816,60.059,69.824
1573889822.145,60.547,43.457,96.191,54.688,115.723
1573889822.149,41.992,40.039,-764.160,24.902,-42.969
1573889822.153,33.203,20.996,-657.715,21.484,-121.094
1573889822.157,44.434,21.973,395.508,47.852,41.992
1573889822.161,55.176,27.344,515.137,52.734,174.805
1573889822.165,44.922,26.855,-298.340,26.367,-9.766
1573889822.169,37.598,38.086,-424.316,20.020,-138.672
1573889822.173,45.898,47.363,332.031,40.527,13.672
1573889822.176,45.410,39.062,642.578,47.363,184.082
1573889822.180,30.273,26.367,-106.445,19.043,78.613
1573889822.184,11.230,19.531,-675.781,-7.324,-96.191
1573889822.188,9.766,20.996,-99.609,4.395,-41.016
1573889822.192,27.344,22.461,277.832,25.879,103.027
1573889822.196,24.414,26.367,-277.344,15.625,82.520
1573889822.200,-2.441,28.809,-555.176,-11.230,-70.801
1573889822.204,-1.465,29.297,-87.402,-3.418,-62.500
1573889822.208,16.602,24.902,536.133,21.484,131.348
1573889822.212,19.043,23.438,407.227,20.508,174.316
1573889822.215,-0.488,31.250,-220.703,-6.836,-10.742
1573889822.219,-6.836,29.297,-326.172,-6.836,-117.676
1573889822.223,14.648,26.367,267.090,26.367,29.785
1573889822.227,25.391,24.414,371.582,33.691,177.246
1573889822.231,4.883,20.020,-248.535,4.395,83.496
1573889822.235,-4.883,21.484,-484.375,-6.348,-87.891
1573889822.239,20.508,27.344,-256.836,25.879,-51.270
1573889822.243,35.645,31.250,181.152,43.457,127.441
1573889822.247,24.414,29.785,36.133,26.855,111.816
1573889822.251,15.625,26.855,-612.793,15.137,-61.035
1573889822.255,27.832,32.227,-239.746,34.180,-66.895
1573889822.258,47.363,37.109,581.543,57.617,133.789
1573889822.262,41.504,24.414,401.855,41.504,166.016
1573889822.266,25.391,14.648,-368.164,13.672,-29.785
1573889822.270,29.785,18.066,-318.848,19.531,-104.980
1573889822.274,44.434,23.438,297.363,45.410,67.871
1573889822.278,48.340,32.715,291.992,42.480,160.156
1573889822.282,33.203,31.250,-493.652,5.371,-18.555
1573889822.286,28.320,29.297,-836.914,-1.465,-157.715
1573889822.290,44.434,34.668,143.066,27.832,17.578
1573889822.294,50.781,33.691,647.949,34.668,192.871
1573889822.298,29.785,30.762,-47.852,4.395,84.961
1573889822.301,15.625,32.227,-460.938,-7.812,-83.496
1573889822.305,26.367,35.156,62.988,17.578,-31.250
1573889822.309,32.715,33.203,533.203,31.738,153.809
1573889822.313,23.926,27.344,53.223,11.230,94.238
1573889822.317,7.812,25.391,-519.043,-9.766,-103.516
1573889822.321,9.766,25.391,-178.711,7.812,-57.617
1573889822.325,28.809,30.762,370.117,31.738,142.090
1573889822.329,28.809,34.180,54.199,20.508,136.230
1573889822.333,14.160,32.227,-527.832,4.883,-56.152
1573889822.337,22.461,41.016,-262.695,20.020,-121.582
1573889822.340,41.504,39.062,372.070,41.992,38.574
1573889822.344,45.898,34.180,99.609,38.086,131.836
1573889822.348,34.668,38.574,-493.164,16.602,-3.418
1573889822.352,27.832,30.762,-352.539,16.602,-105.469
1573889822.356,43.457,28.809,195.312,44.434,-7.812
1573889822.360,54.688,26.367,339.355,53.711,132.812
1573889822.364,45.410,23.438,-138.672,33.691,88.379
1573889822.368,35.645,35.645,-554.199,25.879,-90.820
1573889822.372,43.457,38.574,-315.430,39.551,-71.777
1573889822.376,52.246,31.738,68.359,48.340,112.793
1573889822.380,41.016,26.855,4.883,32.227,114.746
1573889822.383,20.996,25.879,-303.711,10.742,-35.156
1573889822.387,22.461,32.227,-113.281,15.625,-67.871
1573889822.391,35.156,29.297,495.605,29.297,97.168
1573889822.395,28.809,24.414,426.758,18.555,143.066
1573889822.399,13.672,23.926,-291.504,-6.836,-42.969
1573889822.403,13.184,28.809,-344.727,-0.488,-112.305
1573889822.407,27.344,27.832,413.086,20.020,70.801
1573889822.411,35.645,24.414,653.809,17.090,198.730
1573889822.415,21.484,24.902,-84.473,-2.441,82.031
1573889822.419,12.207,23.926,-773.438,-10.742,-87.402
1573889822.423,24.902,30.273,-174.805,10.254,-24.902
1573889822.426,41.992,34.180,631.836,26.855,152.832
1573889822.430,38.574,29.297,52.734,14.648,50.781
1573889822.434,29.785,28.320,-529.297,4.395,-136.719
1573889822.438,45.898,32.715,106.445,32.715,-69.824
1573889822.442,63.965,36.621,769.043,60.059,115.723
1573889822.446,52.246,33.203,428.711,44.922,144.531
1573889822.450,38.086,37.109,-247.070,24.414,-50.781
1573889822.454,42.969,39.062,-22.461,32.715,-128.418
1573889822.458,54.199,20.996,722.656,57.129,89.844
1573889822.462,59.570,18.066,435.059,57.617,173.340
1573889822.465,48.340,22.949,-362.305,33.691,5.859
1573889822.469,44.922,30.762,-129.883,36.133,-99.121
1573889822.473,64.453,33.203,674.805,66.406,62.500
1573889822.477,65.918,27.344,620.605,68.848,166.992
1573889822.481,45.410,30.273,-50.781,38.086,21.484
1573889822.485,33.691,33.691,-142.090,21.973,-114.746
1573889822.489,39.062,29.785,477.539,35.156,-27.344
1573889822.493,47.363,22.949,846.680,47.852,156.738
1573889822.497,33.691,19.531,333.984,26.367,91.797
1573889822.501,23.438,31.250,-141.113,8.301,-93.750
1573889822.505,39.062,40.527,204.102,27.344,-82.520
1573889822.508,47.363,36.621,661.133,40.527,108.398
1573889822.512,41.016,33.203,343.262,25.391,154.297
1573889822.516,25.879,29.785,-149.902,4.395,-8.301
1573889822.520,30.762,30.762,-9.766,15.625,-88.867
1573889822.524,53.223,30.762,453.613,42.969,56.152
1573889822.528,53.223,31.250,567.871,39.551,170.898
1573889822.532,37.598,37.109,44.434,13.672,69.824
1573889822.536,32.715,39.062,-233.887,13.672,-64.453
1573889822.540,44.434,40.039,164.551,40.039,8.301
1573889822.544,54.688,42.480,569.336,51.270,170.898
1573889822.548,44.434,36.621,118.164,33.203,53.711
1573889822.551,25.391,26.367,-389.160,19.043,-125.977
1573889822.555,34.180,23.438,-8.301,39.551,-56.152
1573889822.559,50.293,31.250,452.637,54.199,142.578
1573889822.563,44.434,39.062,147.949,38.086,120.605
1573889822.567,38.574,40.039,-589.355,21.973,-78.613
1573889822.571,43.945,41.992,-507.324,33.203,-90.820
1573889822.575,54.199,38.086,456.055,54.688,108.398
1573889822.579,50.293,32.227,435.059,43.945,152.344
1573889822.583,36.621,30.762,-337.891,22.461,-20.996
1573889822.587,34.180,26.367,-340.820,25.391,-85.938
1573889822.590,47.852,24.414,332.520,48.828,58.594
1573889822.594,59.570,33.203,452.148,53.711,150.391
1573889822.598,43.945,28.809,-272.461,26.367,9.766
1573889822.602,32.715,20.996,-640.137,16.113,-150.391
1573889822.606,42.480,24.414,-30.762,40.039,-31.738
1573889822.610,48.828,27.832,472.656,50.781,164.062
1573889822.614,37.109,21.484,-383.301,26.367,51.270
1573889822.618,22.461,28.320,-818.848,9.766,-85.938
1573889822.622,32.227,41.992,46.387,30.762,-24.902
1573889822.626,48.828,29.785,529.785,49.805,142.090
1573889822.630,43.457,10.742,37.109,30.762,120.117
1573889822.633,27.344,13.184,-530.762,8.301,-80.566
1573889822.637,34.668,26.367,-189.941,26.367,-91.309
1573889822.641,48.340,26.367,427.734,46.875,104.492
1573889822.645,53.711,25.879,191.895,41.504,159.668
1573889822.649,47.852,30.762,-556.641,24.414,-23.926
1573889822.653,37.109,29.785,-536.621,20.020,-103.516
1573889822.657,43.457,20.508,18.555,37.109,40.527
1573889822.661,42.480,14.160,-33.203,32.227,134.277
1573889822.665,21.484,20.508,-329.102,7.324,33.691
1573889822.669,12.695,26.367,-474.121,0.977,-120.605
1573889822.673,26.855,28.320,-28.809,21.484,-44.434
1573889822.676,34.668,28.809,529.297,35.156,164.551
1573889822.680,20.508,20.508,230.957,12.695,132.324
1573889822.684,12.207,17.578,-257.324,2.930,-42.480
1573889822.688,26.367,25.391,45.410,25.391,-38.086
1573889822.692,31.250,27.832,632.324,32.227,139.160
1573889822.696,23.926,26.855,237.793,15.137,142.090
1573889822.700,11.230,29.785,-592.773,-5.859,-79.102
1573889822.704,12.207,36.133,-667.480,2.930,-133.789
1573889822.708,28.320,29.785,-34.180,29.297,51.758
1573889822.712,31.738,23.438,385.742,27.832,159.668
1573889822.715,23.438,24.902,-173.828,8.789,24.414
1573889822.719,22.949,29.785,-289.551,12.695,-66.406
1573889822.723,36.621,30.762,529.297,39.551,60.059
1573889822.727,45.410,29.785,756.836,46.387,167.480
1573889822.731,36.133,34.668,10.254,23.438,53.223
1573889822.735,28.320,39.551,-334.961,15.625,-68.359
1573889822.739,42.480,33.203,327.148,38.086,8.301
1573889822.743,56.641,24.902,640.137,52.246,145.996
1573889822.747,55.664,22.949,-91.797,41.016,96.191
1573889822.751,42.969,24.414,-812.500,19.531,-75.684
1573889822.755,43.945,29.297,-165.039,27.344,-51.758
1573889822.758,57.617,35.645,653.320,56.152,139.648
1573889822.762,49.805,32.715,299.805,42.480,140.625
1573889822.766,34.180,30.273,-382.324,15.625,-61.035
1573889822.770,33.691,42.969,-139.160,26.367,-101.074
1573889822.774,52.734,42.969,563.477,52.246,66.406
1573889822.778,45.898,27.344,457.520,38.574,150.879
1573889822.782,15.137,21.484,-193.359,-1.953,21.973
1573889822.786,14.648,21.973,-335.938,-3.906,-130.371
1573889822.790,35.156,30.273,154.785,26.367,-27.344
1573889822.794,44.922,39.062,79.102,29.785,118.652
1573889822.798,31.738,41.016,-500.000,0.000,16.113
1573889822.801,20.996,31.738,-514.160,-11.230,-137.207
1573889822.805,31.738,22.461,6.348,16.113,-77.148
1573889822.809,39.551,28.809,456.543,31.250,113.281
1573889822.813,26.855,28.320,73.242,9.766,98.145
1573889822.817,13.184,16.113,-494.629,-6.348,-67.871
1573889822.821,24.902,20.020,-209.473,17.090,-97.656
1573889822.825,43.457,31.250,413.086,40.039,80.566
1573889822.829,38.086,24.902,339.844,26.367,140.625
1573889822.833,25.391,18.066,-268.066,8.789,-33.691
1573889822.837,32.227,23.926,-447.754,17.578,-103.516
1573889822.840,50.781,24.902,79.102,46.387,64.453
1573889822.844,54.199,27.832,403.320,49.805,163.574
1573889822.848,39.062,33.203,-115.723,21.973,32.715
1573889822.852,30.762,29.785,-524.414,12.207,-110.352
1573889822.856,46.387,32.227,20.996,38.574,-12.207
1573889822.860,50.293,23.926,630.371,47.363,187.988
1573889822.864,34.180,11.719,117.188,20.508,105.957
1573889822.868,21.484,14.648,-494.141,2.930,-79.102
1573889822.872,28.809,18.066,-131.348,18.555,-39.062
1573889822.876,36.133,19.531,520.020,30.762,142.578
1573889822.880,25.391,14.160,189.941,16.113,138.672
1573889822.883,11.719,20.020,-589.844,-4.883,-15.625
1573889822.887,15.137,28.320,-392.090,0.977,-30.273
1573889822.891,30.762,28.320,427.734,23.926,113.770
1573889822.895,34.668,25.879,340.820,17.578,137.207
1573889822.899,20.020,10.254,-670.898,-11.719,-52.734
1573889822.903,12.695,8.789,-622.070,-10.742,-118.652
1573889822.907,26.367,14.648,349.609,23.438,39.551
1573889822.911,29.785,13.672,468.262,30.762,162.109
1573889822.915,15.137,14.648,-246.582,7.812,29.297
1573889822.919,6.836,18.555,-434.570,5.371,-104.492
1573889822.923,19.043,25.879,231.934,30.273,-2.441
1573889822.926,30.762,32.227,564.453,44.434,160.645
1573889822.930,23.438,29.297,-166.992,27.832,71.777
1573889822.934,13.672,12.695,-739.746,5.371,-107.910
1573889822.938,25.879,11.230,-110.840,22.949,-69.336
1573889822.942,44.922,23.438,350.586,47.852,101.074
1573889822.946,40.039,20.508,-219.238,28.320,96.191
1573889822.950,24.414,15.625,-609.375,6.836,-90.332
1573889822.954,29.785,23.926,-270.020,20.996,-143.066
1573889822.958,42.480,33.691,387.695,44.434,64.453
1573889822.962,38.574,28.320,345.703,37.598,146.973
1573889822.965,21.484,16.602,-260.254,8.301,-16.602
1573889822.969,14.648,10.742,-369.141,-0.488,-129.395
1573889822.973,25.879,13.184,231.934,23.926,12.207
1573889822.977,36.133,12.695,379.395,36.133,155.273
1573889822.981,26.855,9.277,-367.676,12.207,14.160
1573889822.985,14.648,13.184,-774.902,-1.465,-164.062
1573889822.989,31.250,28.320,-421.387,24.414,-96.191
1573889822.993,45.410,30.762,172.363,41.016,116.211
1573889822.997,26.855,7.812,131.348,7.812,98.633
1573889823.001,5.859,-2.930,-430.176,-20.996,-76.172
1573889823.005,7.812,0.977,-170.898,-6.836,-66.406
1573889823.008,24.414,6.348,549.805,15.625,108.887
1573889823.012,28.809,15.137,357.422,12.695,128.418
1573889823.016,17.578,24.414,-407.715,-4.395,-45.410
1573889823.020,19.043,21.973,-297.852,5.371,-80.566
1573889823.024,39.551,11.719,374.512,38.574,83.984
1573889823.028,45.898,18.555,354.980,41.504,172.852
1573889823.032,28.320,20.020,-425.293,11.719,40.039
1573889823.036,21.484,12.207,-746.094,5.371,-84.473
1573889823.040,35.156,14.648,104.980,28.320,26.367
1573889823.044,51.758,15.625,546.875,40.527,183.594
1573889823.048,48.340,21.484,-85.938,25.391,63.477
1573889823.051,41.016,31.250,-478.516,20.020,-112.793
1573889823.055,50.293,29.785,176.270,39.062,-36.621
1573889823.059,65.430,19.531,663.086,58.105,132.324
1573889823.063,53.223,11.230,184.570,36.621,111.816
1573889823.067,25.391,10.742,-377.441,1.465,-76.172
1573889823.071,25.391,16.602,-228.027,17.578,-122.559
1573889823.075,51.758,23.926,355.469,53.223,75.684
1573889823.079,49.316,21.484,15.625,39.551,114.746
1573889823.083,27.832,20.508,-556.641,7.812,-28.809
1573889823.087,25.879,20.996,-97.168,11.230,-90.332
1573889823.090,38.574,21.973,577.637,29.297,52.246
1573889823.094,44.434,20.996,594.238,29.297,175.781
1573889823.098,27.344,15.137,8.301,4.395,51.270
1573889823.102,19.531,18.555,-97.168,-1.953,-90.332
1573889823.106,38.574,23.438,470.215,26.855,-18.066
1573889823.110,49.316,23.926,793.457,41.504,157.227
1573889823.114,39.551,25.879,396.973,21.973,110.352
1573889823.118,26.855,21.973,-155.762,8.789,-78.125
1573889823.122,38.574,20.996,30.762,33.203,-58.594
1573889823.126,57.129,18.555,452.637,58.105,118.652
1573889823.130,53.223,19.531,376.465,45.898,120.117
1573889823.133,37.109,21.484,-25.879,20.508,-50.293
1573889823.137,33.203,14.160,114.258,24.414,-82.520
1573889823.141,51.270,20.020,778.320,53.711,103.027
1573889823.145,57.129,31.250,796.875,54.688,175.293
1573889823.149,45.898,28.320,104.004,31.250,5.859
1573889823.153,38.086,20.020,-125.488,26.367,-110.352
1573889823.157,46.387,17.090,532.227,47.852,45.898
1573889823.161,56.152,15.625,902.344,53.711,216.309
1573889823.165,43.945,16.602,122.559,27.832,68.359
1573889823.169,30.762,23.438,-673.340,14.648,-136.719
1573889823.173,41.504,19.043,-93.262,33.691,-36.133
1573889823.176,54.688,17.578,768.555,50.293,173.828
1573889823.180,44.922,22.949,291.016,30.273,117.676
1573889823.184,27.832,22.461,-312.988,5.859,-49.805
1573889823.188,31.250,20.020,171.875,22.461,-31.250
1573889823.192,44.434,16.113,800.293,44.922,139.648
1573889823.196,40.527,17.090,416.016,33.691,148.438
1573889823.200,27.344,19.043,-313.965,13.672,-30.273
1573889823.204,23.438,21.484,-101.562,20.508,-86.914
1573889823.208,37.109,27.832,488.281,43.945,52.246
1573889823.212,41.992,24.902,272.461,43.945,145.508
1573889823.215,23.926,12.207,-533.203,14.160,-19.043
1573889823.219,18.066,15.137,-551.758,10.254,-118.164
1573889823.223,39.062,23.926,410.645,42.480,59.570
1573889823.227,51.270,20.996,475.098,52.734,179.199
1573889823.231,37.109,14.160,-439.941,25.391,27.344
1573889823.235,24.414,13.184,-558.105,13.672,-128.418
1573889823.239,35.156,21.973,109.375,38.574,-50.293
1573889823.243,52.246,25.391,512.695,56.152,130.859
1573889823.247,50.781,20.508,139.160,40.527,124.512
1573889823.251,35.645,13.672,-326.660,15.625,-52.246
1573889823.255,38.086,13.672,-46.387,25.879,-74.707
1573889823.258,56.641,24.414,433.105,56.641,112.305
1573889823.262,53.711,24.414,85.938,47.852,137.207
1573889823.266,30.273,12.207,-622.070,13.184,-46.387
1573889823.270,26.855,17.090,-537.109,12.207,-109.863
1573889823.274,41.016,20.020,-41.504,32.227,49.805
1573889823.278,43.945,11.230,69.336,30.273,146.973
1573889823.282,26.367,12.695,-242.676,0.977,28.320
1573889823.286,15.137,9.766,-456.055,-8.789,-89.355
1573889823.290,30.762,8.789,98.633,21.973,13.184
1573889823.294,41.016,18.555,602.051,36.133,199.219
1573889823.298,26.855,17.090,65.430,13.672,89.844
1573889823.301,13.184,12.207,-529.297,-0.488,-106.934
1573889823.305,23.438,17.090,-223.145,20.020,-62.012
1573889823.309,36.133,19.043,301.270,40.039,136.719
1573889823.313,27.344,14.648,119.141,21.484,122.559
1573889823.317,16.602,15.625,-669.434,-2.930,-110.840
1573889823.321,24.414,26.367,-679.199,15.625,-140.625
1573889823.325,35.156,26.367,180.664,37.598,69.824
1573889823.329,32.715,19.043,260.254,30.762,138.672
1573889823.333,18.555,14.648,-387.695,10.254,-39.551
1573889823.337,11.230,5.859,-396.973,9.766,-148.438
1573889823.340,29.785,6.836,396.484,37.598,15.625
1573889823.344,46.875,22.949,585.938,44.922,161.133
1573889823.348,33.203,30.273,-140.625,20.508,15.137
1573889823.352,20.996,22.461,-526.855,8.789,-128.906
1573889823.356,34.180,28.809,90.820,27.832,-3.906
1573889823.360,50.293,41.992,678.711,43.945,193.848
1573889823.364,45.410,32.715,-175.781,26.855,64.941
1573889823.368,28.809,19.043,-795.898,3.418,-145.996
1573889823.372,31.250,24.902,130.859,18.066,-32.715
1573889823.376,42.969,25.879,761.719,35.156,176.270
1573889823.380,40.527,24.902,130.371,23.438,113.281
1573889823.383,25.391,36.133,-504.883,3.906,-98.633
1573889823.387,27.344,42.480,-100.098,15.137,-104.492
1573889823.391,41.992,32.227,496.582,39.062,65.918
1573889823.395,46.387,23.926,410.156,36.621,149.414
1573889823.399,32.227,28.809,-276.855,11.230,4.395
1573889823.403,21.484,35.156,-452.637,9.766,-120.605
1573889823.407,36.621,29.785,141.113,36.133,18.555
1573889823.411,49.316,22.949,253.418,36.621,181.152
1573889823.415,36.621,27.832,-109.375,11.719,76.172
1573889823.419,32.227,32.715,-321.777,11.719,-122.559
1573889823.423,45.410,26.855,155.762,36.621,-27.832
1573889823.426,54.199,24.414,610.352,49.316,168.457
1573889823.430,44.434,30.273,222.656,29.297,112.793
1573889823.434,30.273,27.832,-353.027,10.254,-83.496
1573889823.438,37.598,26.855,-149.902,23.926,-88.867
1573889823.442,51.758,37.598,496.094,43.457,124.023
1573889823.446,48.828,36.621,207.031,30.762,145.996
1573889823.450,30.762,25.391,-549.316,5.371,-48.828
1573889823.454,27.344,20.996,-654.785,10.254,-112.305
1573889823.458,39.551,14.648,37.109,34.180,63.965
1573889823.462,42.480,13.672,431.152,38.574,162.598
1573889823.465,32.715,23.438,-277.832,18.066,-4.883
1573889823.469,24.902,34.668,-487.305,15.137,-113.770
1573889823.473,36.621,32.715,305.176,40.039,22.949
1573889823.477,46.875,21.973,589.355,47.852,148.926
1573889823.481,27.832,16.602,-110.352,21.484,59.570
1573889823.485,18.066,20.020,-480.957,10.254,-68.848
1573889823.489,30.762,23.926,127.441,33.691,-20.508
1573889823.493,36.621,20.508,470.703,47.852,119.141
1573889823.497,29.785,26.367,-230.469,31.738,94.727
1573889823.501,21.484,33.691,-904.297,15.137,-63.477
1573889823.505,24.902,29.297,-298.828,27.832,-70.312
1573889823.508,37.109,25.391,615.723,44.434,137.695
1573889823.512,34.668,15.625,293.945,32.227,156.738
1573889823.516,20.020,10.742,-509.277,8.301,-69.824
1573889823.520,18.066,10.254,-361.328,11.230,-145.996
1573889823.524,33.203,14.160,394.531,41.016,49.316
1573889823.528,40.039,23.926,435.547,43.457,172.852
1573889823.532,27.832,21.973,-255.859,11.719,16.602
1573889823.536,24.414,13.672,-426.270,4.395,-129.883
1573889823.540,44.434,20.996,113.281,35.156,-10.254
1573889823.544,58.105,25.391,119.141,42.480,144.531
1573889823.548,41.504,14.160,-494.141,12.207,64.941
1573889823.551,23.438,11.719,-623.535,0.488,-87.891
1573889823.555,34.180,22.949,-90.820,25.879,-65.430
1573889823.559,47.363,26.367,446.289,49.316,136.719
1573889823.563,34.668,20.508,220.215,30.762,142.578
1573889823.567,15.625,14.160,-337.891,4.883,-52.734
1573889823.571,17.578,9.277,-209.961,18.066,-94.727
1573889823.575,35.645,10.254,374.512,40.527,82.031
1573889823.579,51.270,19.043,342.285,45.898,145.508
1573889823.583,31.738,23.438,-303.711,21.973,-42.480
1573889823.587,11.719,24.902,-603.027,4.883,-146.484
1573889823.590,23.926,15.625,-95.215,26.855,23.926
1573889823.594,32.715,3.418,374.023,33.203,175.781
1573889823.598,21.484,1.953,-177.734,9.766,16.113
1573889823.602,19.531,7.324,-655.762,7.324,-135.254
1573889823.606,32.715,13.184,-146.484,31.738,-15.625
1573889823.610,43.945,11.230,521.484,49.316,181.641
1573889823.614,36.133,9.277,166.016,28.320,130.371
1573889823.618,16.602,11.230,-435.059,3.906,-53.223
1573889823.622,24.414,8.789,-11.230,26.855,-21.484
1573889823.626,43.945,6.836,645.020,52.246,157.715
1573889823.630,38.574,2.441,301.270,39.062,145.996
1573889823.633,21.484,0.977,-543.457,11.719,-60.059
1573889823.637,30.273,6.836,-486.328,20.508,-93.262
1573889823.641,44.434,12.695,329.590,42.969,100.098
1573889823.645,46.875,19.531,416.992,37.598,184.570
1573889823.649,35.645,17.578,-481.934,11.230,5.371
1573889823.653,24.902,3.906,-600.586,8.301,-130.371
1573889823.657,39.062,-0.977,281.250,36.133,8.301
1573889823.661,39.062,4.883,430.176,39.062,153.320
1573889823.665,19.531,4.395,-390.137,8.789,44.922
1573889823.669,13.672,6.836,-630.859,-1.465,-128.418
1573889823.673,20.508,2.930,80.566,16.113,-55.664
1573889823.676,23.438,-4.883,503.906,21.484,148.926
1573889823.680,16.113,-2.441,-90.820,6.836,100.586
1573889823.684,2.441,1.465,-747.559,-10.742,-112.305
1573889823.688,2.441,-0.977,-330.078,0.977,-121.094
1573889823.692,17.578,-6.348,222.656,22.461,72.266
1573889823.696,14.160,-7.812,-138.184,8.301,109.375
1573889823.700,0.488,0.488,-471.191,-11.230,-34.668
1573889823.704,6.348,15.137,-169.922,6.348,-93.750
1573889823.708,23.926,11.230,407.715,30.762,77.148
1573889823.712,26.855,0.488,430.176,26.855,187.500
1573889823.715,14.160,13.184,-105.957,2.930,21.973
1573889823.719,19.043,15.137,-409.180,9.277,-133.301
1573889823.723,36.133,-1.465,148.438,38.574,-3.418
1573889823.727,38.574,-3.418,481.445,44.434,160.156
1573889823.731,26.367,4.395,-135.254,20.996,55.664
1573889823.735,23.438,12.695,-483.887,12.695,-118.652
1573889823.739,37.598,18.066,-147.949,33.691,-74.707
1573889823.743,49.316,10.742,469.238,45.898,134.766
1573889823.747,46.387,1.465,490.723,31.738,134.766
1573889823.751,32.227,1.953,-94.727,11.719,-47.852
1573889823.755,35.156,4.395,93.750,22.461,-78.613
1573889823.758,50.781,12.695,855.469,44.922,104.492
1573889823.762,54.688,20.020,779.785,41.016,165.527
1573889823.766,36.133,9.766,31.250,11.719,1.465
1573889823.770,20.996,7.324,15.137,5.371,-76.660
1573889823.774,39.062,11.719,682.129,31.738,86.426
1573889823.778,48.340,11.719,730.957,35.156,203.613
1573889823.782,35.645,18.066,-150.391,8.301,19.043
1573889823.786,25.391,19.043,-757.324,0.488,-155.273
1573889823.790,30.273,19.043,121.094,24.414,-21.484
1573889823.794,41.016,19.531,881.348,39.551,171.387
1573889823.798,32.227,19.531,320.801,20.508,103.027
1573889823.801,19.043,24.902,-194.336,3.418,-94.238
1573889823.805,26.367,24.414,377.930,23.926,-49.316
1573889823.809,47.363,21.484,894.043,46.387,130.859
1573889823.813,48.340,22.949,364.746,40.039,97.168
1573889823.817,25.879,23.438,-215.332,20.020,-68.848
1573889823.821,29.785,28.809,-44.922,28.809,-88.867
1573889823.825,46.875,22.461,562.012,53.711,92.773
1573889823.829,47.852,13.184,204.590,52.734,134.766
1573889823.833,33.691,8.301,-626.465,28.809,-42.480
1573889823.837,24.414,4.395,-242.188,23.438,-95.215
1573889823.840,40.039,6.836,566.406,46.387,71.777
1573889823.844,45.898,8.301,609.375,44.922,175.781
1573889823.848,26.367,8.789,0.000,11.719,31.738
1573889823.852,18.555,14.648,-231.934,3.418,-110.840
1573889823.856,34.180,21.973,267.090,31.250,-11.719
1573889823.860,40.527,25.879,593.262,36.133,151.367
1573889823.864,31.250,30.762,181.152,14.648,98.145
1573889823.868,18.066,28.809,-451.172,2.930,-84.961
1573889823.872,17.578,12.207,-298.340,12.695,-92.285
1573889823.876,28.809,5.859,356.445,31.250,98.633
1573889823.880,24.902,9.766,229.492,20.020,119.629
1573889823.883,11.719,15.625,-313.965,-1.465,-52.734
1573889823.887,20.508,19.531,-347.656,14.648,-85.449
1573889823.891,41.016,18.555,45.898,41.016,56.641
1573889823.895,41.992,22.949,298.828,35.156,136.719
1573889823.899,25.391,21.484,-169.434,13.184,8.789
1573889823.903,19.531,12.207,-447.266,10.742,-135.742
1573889823.907,33.691,15.137,173.828,35.645,-13.672
1573889823.911,43.457,22.949,564.941,44.434,159.180
1573889823.915,29.785,19.531,-183.105,19.043,38.086
1573889823.919,19.043,17.090,-941.895,8.301,-129.883
1573889823.923,30.762,17.578,-358.887,33.691,-40.039
1573889823.926,44.922,14.648,558.105,50.781,167.480
1573889823.930,39.551,12.207,111.328,35.645,113.770
1573889823.934,20.020,13.672,-662.109,11.719,-88.379
1573889823.938,19.531,13.184,-252.930,18.555,-85.938
1573889823.942,38.086,10.742,545.410,42.969,114.258
1573889823.946,38.574,9.766,172.852,29.785,136.719
1573889823.950,22.461,7.812,-557.129,1.953,-41.016
1573889823.954,19.531,13.672,-255.371,5.371,-74.219
1573889823.958,35.645,18.555,488.770,29.297,78.613
1573889823.962,41.504,15.625,334.473,29.297,157.227
1573889823.965,21.484,18.066,-416.992,5.371,32.715
1573889823.969,10.742,25.391,-453.125,1.465,-94.238
1573889823.973,25.391,34.668,319.824,25.391,9.277
1573889823.977,36.133,28.320,416.992,36.621,156.250
1573889823.981,25.879,14.160,-428.223,12.695,67.383
1573889823.985,13.672,17.578,-579.590,0.488,-92.773
1573889823.989,20.996,20.996,167.969,22.461,-14.160
1573889823.993,37.598,25.391,623.047,44.434,168.945
1573889823.997,36.133,31.250,228.027,34.180,144.043
1573889824.001,22.461,32.715,-312.500,12.207,-20.020
1573889824.005,22.461,29.297,-181.152,20.020,-74.707
1573889824.008,36.621,30.762,369.141,45.898,78.125
1573889824.012,39.062,31.738,102.539,41.992,109.375
1573889824.016,21.484,19.531,-473.633,13.672,-37.598
1573889824.020,17.090,18.555,-301.270,17.090,-115.723
1573889824.024,31.250,22.461,48.340,41.992,-2.930
1573889824.028,32.715,22.949,179.199,38.086,139.648
1573889824.032,22.461,28.809,-52.734,18.066,44.922
1573889824.036,20.020,33.203,-334.473,14.160,-100.098
1573889824.040,28.320,26.367,211.914,33.203,3.906
1573889824.044,42.969,20.020,698.730,45.898,168.945
1573889824.048,34.180,25.879,179.199,21.973,83.008
1573889824.051,16.602,22.461,-423.340,-1.953,-97.168
1573889824.055,26.367,20.020,-125.488,18.555,-53.711
1573889824.059,39.551,29.297,439.453,41.992,152.344
1573889824.063,31.250,28.320,139.648,24.902,136.719
1573889824.067,15.137,21.973,-648.438,-6.348,-73.242
1573889824.071,21.973,22.461,-635.742,3.906,-113.281
1573889824.075,42.969,29.785,328.613,34.668,81.543
1573889824.079,48.828,39.062,566.406,36.621,192.871
1573889824.083,37.598,37.109,-245.117,17.578,-4.883
1573889824.087,36.621,30.762,-383.789,16.602,-128.906
1573889824.090,49.805,26.367,381.348,42.969,24.414
1573889824.094,57.617,21.484,546.387,50.781,156.250
1573889824.098,43.457,21.484,-146.484,25.391,42.480
1573889824.102,37.109,23.438,-588.867,21.484,-119.141
1573889824.106,52.246,30.273,-71.289,47.852,-31.738
1573889824.110,68.848,32.715,486.328,65.918,163.086
1573889824.114,59.570,25.391,-48.340,48.828,120.117
1573889824.118,35.645,20.020,-628.906,22.461,-73.242
1573889824.122,38.086,22.461,-68.848,34.668,-68.359
1573889824.126,52.246,27.344,588.867,53.223,133.301
1573889824.130,48.340,24.414,-6.836,36.133,140.625
1573889824.133,31.738,27.344,-662.109,13.672,-49.805
1573889824.137,30.273,32.715,-220.215,22.461,-96.680
1573889824.141,41.016,22.461,423.340,40.527,83.008
1573889824.145,41.504,16.113,304.199,34.180,164.062
1573889824.149,20.508,18.066,-484.863,8.301,-1.465
1573889824.153,12.207,19.531,-504.883,4.395,-77.637
1573889824.157,32.227,21.484,145.020,32.715,39.551
1573889824.161,38.574,13.672,144.531,40.527,145.020
1573889824.165,22.461,9.277,-220.215,14.648,59.570
1573889824.169,14.648,18.555,-427.734,6.348,-116.699
1573889824.173,23.926,23.926,-83.008,30.273,-80.566
1573889824.176,36.133,22.461,474.609,44.434,150.391
1573889824.180,25.391,13.184,206.055,19.531,121.094
1573889824.184,11.719,8.789,-394.043,0.000,-74.219
1573889824.188,19.043,15.625,-119.141,15.625,-49.805
1573889824.192,38.086,20.996,531.250,39.062,121.582
1573889824.196,47.852,17.090,213.867,39.062,136.719
1573889824.200,41.016,14.648,-603.027,19.043,-68.359
1573889824.204,42.969,17.578,-747.559,22.461,-145.508
1573889824.208,61.035,20.508,-24.414,50.781,37.109
1573889824.212,58.594,15.625,422.363,50.781,149.902
1573889824.215,32.227,5.859,-285.156,22.949,-13.672
1573889824.219,28.809,12.207,-561.523,21.484,-134.277
1573889824.223,41.016,18.555,226.562,44.922,-3.418
1573889824.227,47.363,23.926,592.285,51.758,166.016
1573889824.231,34.668,25.879,-137.207,23.926,84.473
1573889824.235,15.625,15.137,-583.496,0.000,-98.633
1573889824.239,21.973,12.207,42.480,14.160,-51.758
1573889824.243,40.527,23.438,528.809,36.621,145.020
1573889824.247,31.738,20.020,-56.152,21.484,140.625
1573889824.251,4.395,6.348,-865.234,-8.789,-66.895
1573889824.255,8.301,9.277,-354.980,8.789,-85.938
1573889824.258,29.297,19.531,610.840,40.527,125.000
1573889824.262,32.227,20.508,314.453,34.668,136.719
1573889824.266,17.090,16.602,-450.195,7.324,-48.828
1573889824.270,15.137,17.090,-285.156,8.789,-109.863
1573889824.274,36.133,21.973,470.215,37.109,57.617
1573889824.278,39.551,27.832,570.801,38.574,196.289
1573889824.282,21.484,20.996,-136.230,10.742,50.293
1573889824.286,23.438,16.602,-500.488,12.695,-119.141
1573889824.290,44.922,19.531,35.156,43.457,-12.207
1573889824.294,52.734,10.254,152.832,51.270,145.020
1573889824.298,37.109,4.883,-389.160,27.344,69.824
1573889824.301,21.973,9.277,-450.195,8.301,-72.266
1573889824.305,31.738,19.531,-3.906,28.320,-51.758
1573889824.309,47.852,18.066,430.176,45.898,108.887
1573889824.313,41.992,12.207,214.844,27.832,128.906
1573889824.317,21.973,12.207,-340.820,6.348,-56.641
1573889824.321,17.578,8.789,-281.738,14.648,-117.676
1573889824.325,34.180,11.230,349.609,38.086,72.754
1573889824.329,39.062,14.648,401.855,34.180,162.109
1573889824.333,21.973,12.207,-208.008,6.348,7.324
1573889824.337,14.160,10.742,-554.199,8.301,-122.070
1573889824.340,26.855,12.695,-247.070,36.621,-6.836
1573889824.344,34.180,17.578,278.809,42.969,171.387
1573889824.348,22.461,17.090,-11.719,17.578,72.754
1573889824.352,12.207,9.277,-448.242,3.906,-101.074
1573889824.356,26.367,6.348,10.742,26.855,-20.020
1573889824.360,38.574,14.160,578.613,39.062,171.875
1573889824.364,25.391,22.949,188.477,16.602,109.375
1573889824.368,17.090,21.973,-470.703,4.395,-97.168
1573889824.372,26.855,14.648,-104.980,22.949,-79.590
1573889824.376,41.016,19.043,661.621,42.969,136.230
1573889824.380,40.527,25.879,482.422,32.715,172.852
1573889824.383,30.762,27.832,-332.520,12.207,-26.855
1573889824.387,31.738,21.973,-366.699,18.066,-103.516
1573889824.391,42.969,16.602,483.398,41.992,91.309
1573889824.395,50.781,15.137,687.500,44.434,198.242
1573889824.399,41.016,6.348,-370.117,18.555,-23.438
1573889824.403,32.715,10.742,-577.148,15.625,-166.016
1573889824.407,45.410,21.973,518.555,42.969,11.230
1573889824.411,60.547,33.203,870.605,51.270,195.801
1573889824.415,49.805,35.156,114.746,25.879,67.383
1573889824.419,28.809,25.391,-203.613,8.789,-117.188
1573889824.423,30.762,18.066,416.992,25.879,-46.875
1573889824.426,41.992,17.578,842.773,41.504,143.066
1573889824.430,36.621,20.996,227.539,30.762,86.426
1573889824.434,17.090,16.602,-495.117,10.742,-122.070
1573889824.438,21.973,22.949,-79.590,26.855,-114.258
1573889824.442,42.969,30.762,522.461,56.641,67.383
1573889824.446,39.551,21.484,143.555,44.434,122.070
1573889824.450,21.973,14.648,-236.328,15.625,-24.414
1573889824.454,22.949,18.555,-85.449,20.508,-109.375
1573889824.458,42.969,27.344,453.613,45.898,65.430
1573889824.462,45.898,33.691,649.902,44.434,186.035
1573889824.465,29.297,31.250,92.773,20.020,19.531
1573889824.469,23.438,22.461,-212.402,14.648,-148.438
1573889824.473,32.715,18.555,324.707,33.691,-17.578
1573889824.477,44.922,20.508,601.074,43.457,170.410
1573889824.481,36.133,28.320,-22.949,23.438,83.496
1573889824.485,17.578,34.668,-375.488,5.859,-58.105
1573889824.489,23.926,33.691,-104.492,23.926,-22.461
1573889824.493,39.551,19.531,432.617,43.945,164.062
1573889824.497,35.645,11.230,426.270,30.273,160.645
1573889824.501,19.043,20.020,-290.039,8.301,-56.641
1573889824.505,20.996,22.949,-132.324,18.555,-71.777
1573889824.508,42.969,24.414,647.949,43.945,114.258
1573889824.512,41.504,28.320,511.719,42.480,169.922
1573889824.516,24.902,33.691,-311.035,18.555,-27.344
1573889824.520,18.066,35.156,-340.820,14.648,-123.047
1573889824.524,29.297,20.996,330.566,37.598,58.105
1573889824.528,34.668,12.207,435.059,40.527,166.504
1573889824.532,20.020,19.043,-330.566,14.160,24.902
1573889824.536,9.766,24.414,-873.047,5.371,-127.930
1573889824.540,20.996,23.926,-14.160,26.367,-20.996
1573889824.544,31.250,20.020,715.332,37.109,189.941
1573889824.548,20.996,17.578,93.262,17.090,104.004
1573889824.551,5.859,19.043,-479.004,-2.441,-84.961
1573889824.555,13.184,21.484,83.008,17.090,-32.715
1573889824.559,29.785,19.531,703.613,41.992,154.785
1573889824.563,26.367,18.066,281.250,25.391,151.855
1573889824.567,16.113,21.484,-538.086,3.418,-64.941
1573889824.571,14.160,22.461,-436.035,15.625,-99.121
1573889824.575,28.320,23.926,220.703,42.969,71.777
1573889824.579,40.527,25.391,-114.258,41.992,110.352
1573889824.583,23.926,25.391,-809.082,9.766,-46.875
1573889824.587,11.719,32.715,-455.078,2.930,-113.770
1573889824.590,36.621,36.133,259.766,38.574,19.043
1573889824.594,49.805,31.250,383.789,48.340,149.414
1573889824.598,28.809,20.020,-113.770,15.137,57.129
1573889824.602,21.484,19.531,-380.859,2.441,-93.750
1573889824.606,31.250,29.297,96.191,22.461,-21.484
1573889824.610,44.922,30.273,574.219,39.062,174.316
1573889824.614,40.527,28.320,178.711,22.461,115.234
1573889824.618,20.508,28.809,-565.918,-2.930,-111.328
1573889824.622,29.297,34.180,-487.305,13.184,-115.234
1573889824.626,51.758,39.551,32.715,41.992,86.914
1573889824.630,43.945,34.668,153.809,32.227,156.738
1573889824.633,26.855,26.855,-273.438,8.301,-34.180
1573889824.637,23.926,31.738,-298.340,11.230,-121.582
1573889824.641,33.203,28.809,425.293,31.738,74.707
1573889824.645,37.598,20.996,618.652,32.227,185.059
1573889824.649,19.043,23.926,-49.805,5.371,35.645
1573889824.653,5.859,30.762,-333.008,-3.418,-97.168
1573889824.657,23.926,39.062,276.855,25.879,6.348
1573889824.661,42.480,36.621,705.078,46.875,188.965
1573889824.665,27.832,29.785,46.875,24.414,106.934
1573889824.669,5.371,26.855,-768.066,-4.395,-75.684
1573889824.673,5.859,23.926,-267.578,1.465,-24.902
1573889824.676,18.066,31.738,651.367,24.414,155.762
1573889824.680,20.996,33.691,228.027,16.602,125.000
1573889824.684,12.695,31.250,-523.438,-1.465,-82.031
1573889824.688,21.484,41.504,-144.043,11.719,-117.676
1573889824.692,36.133,43.457,620.117,29.785,83.008
1573889824.696,35.156,44.922,403.809,20.996,146.973
1573889824.700,27.344,42.480,-339.355,2.441,-27.344
1573889824.704,22.949,37.598,-259.766,3.418,-117.676
1573889824.708,31.250,45.898,487.305,22.949,38.574
1573889824.712,39.551,46.875,368.652,22.949,151.367
1573889824.715,27.832,36.621,-557.617,0.977,-3.418
1573889824.719,17.090,28.320,-533.691,-4.395,-110.840
1573889824.723,28.320,28.809,292.969,21.484,0.977
1573889824.727,40.527,36.133,503.418,40.039,153.809
1573889824.731,34.180,41.504,-107.910,23.926,67.871
1573889824.735,23.438,43.945,-452.148,12.695,-79.102
1573889824.739,33.691,53.711,20.996,33.691,-13.672
1573889824.743,51.758,59.082,554.199,55.664,135.254
1573889824.747,50.293,49.805,196.777,43.945,115.234
1573889824.751,30.273,38.086,-391.113,17.090,-63.965
1573889824.755,38.574,42.969,-156.250,32.715,-90.332
1573889824.758,64.453,44.434,396.484,62.500,83.984
1573889824.762,61.035,41.504,191.406,51.758,146.973
1573889824.766,45.410,46.387,-436.523,23.926,-32.227
1573889824.770,39.551,45.898,-372.559,23.438,-113.281
1573889824.774,48.828,43.945,-9.277,42.969,14.648
1573889824.778,56.152,43.945,82.031,47.852,150.879
1573889824.782,37.598,33.691,-234.863,24.414,31.250
1573889824.786,19.531,33.203,-559.082,5.859,-137.695
1573889824.790,30.762,41.992,-1.465,23.438,-31.250
1573889824.794,40.039,39.062,481.934,32.227,140.625
1573889824.798,22.461,34.180,6.348,7.324,103.027
1573889824.801,8.301,36.621,-555.176,-13.184,-91.797
1573889824.805,18.066,50.293,-324.219,6.348,-106.445
1573889824.809,32.715,52.246,321.777,33.203,118.652
1573889824.813,23.926,34.180,194.824,13.672,139.648
1573889824.817,4.883,27.832,-599.121,-14.648,-59.570
1573889824.821,0.977,32.715,-691.406,-11.230,-115.723
1573889824.825,14.648,33.203,271.973,13.184,61.523
1573889824.829,25.879,39.062,453.125,19.531,141.113
1573889824.833,14.648,47.363,-348.633,-4.395,-25.879
1573889824.837,5.859,46.387,-531.250,-10.254,-158.203
1573889824.840,20.508,46.875,281.738,17.578,-4.883
1573889824.844,29.785,40.527,658.691,27.832,184.082
1573889824.848,22.461,32.227,-123.535,8.789,57.617
1573889824.852,15.625,43.457,-741.211,1.953,-144.531
1573889824.856,24.902,55.176,-161.621,24.414,-55.176
1573889824.860,45.410,49.805,493.652,45.898,160.156
1573889824.864,39.551,43.457,-166.504,24.414,106.445
1573889824.868,22.949,43.457,-841.797,2.930,-108.887
1573889824.872,29.297,39.062,-179.199,20.996,-112.793
1573889824.876,45.898,43.945,508.789,48.828,96.680
1573889824.880,45.410,49.805,228.027,41.016,127.441
1573889824.883,24.414,43.945,-332.520,15.625,-33.691
1573889824.887,17.578,48.340,-184.082,19.043,-86.914
1573889824.891,35.645,54.199,451.660,39.062,80.078
1573889824.895,38.574,47.852,538.086,37.598,209.473
1573889824.899,19.043,52.734,-248.047,11.230,49.316
1573889824.903,9.766,56.152,-540.039,4.883,-106.934
1573889824.907,22.949,49.805,21.973,22.461,0.488
1573889824.911,36.133,46.387,115.723,31.738,145.508
1573889824.915,26.367,43.457,-181.152,14.648,83.008
1573889824.919,13.672,50.293,-322.266,-2.441,-43.945
1573889824.923,21.484,57.129,12.207,11.719,-36.621
1573889824.926,41.504,64.453,476.074,33.691,122.070
1573889824.930,37.598,66.406,222.656,21.973,110.352
1573889824.934,20.996,61.523,-408.691,-3.906,-87.402
1573889824.938,21.484,63.477,-243.164,3.418,-102.539
1573889824.942,40.039,69.824,433.105,30.762,81.055
1573889824.946,48.828,66.406,248.535,27.344,132.812
1573889824.950,27.832,53.223,-596.191,-2.930,-63.965
1573889824.954,20.020,53.711,-902.344,-2.930,-174.316
1573889824.958,39.551,57.129,-157.227,28.320,22.949
1573889824.962,47.852,56.641,419.434,37.109,187.988
1573889824.965,37.109,63.965,-281.250,13.184,33.203
1573889824.969,26.855,67.383,-533.203,4.883,-98.145
1573889824.973,37.598,71.777,227.539,29.297,-1.465
1573889824.977,42.969,71.289,710.449,42.480,164.062
1573889824.981,31.250,63.477,100.586,22.949,100.586
1573889824.985,20.996,62.988,-492.188,8.301,-89.844
1573889824.989,22.949,64.453,-92.285,19.043,-78.613
1573889824.993,36.133,62.012,353.516,39.062,102.539
1573889824.997,37.598,63.965,-80.566,30.273,135.254
1573889825.001,21.973,67.871,-895.020,-0.488,-70.801
1573889825.005,17.578,73.242,-464.355,5.859,-116.699
1573889825.008,35.645,74.707,521.484,36.133,92.285
1573889825.012,42.480,72.754,436.035,40.039,175.781
1573889825.016,28.320,65.430,-282.227,17.578,5.859
1573889825.020,27.344,63.965,-356.934,22.461,-95.703
1573889825.024,41.016,72.754,335.938,49.316,34.668
1573889825.028,45.410,65.918,529.297,40.039,158.203
1573889825.032,36.621,57.617,-81.055,15.137,63.477
1573889825.036,29.297,63.477,-324.707,9.277,-77.148
1573889825.040,38.086,61.035,147.949,31.738,-13.184
1573889825.044,52.246,54.688,233.887,50.781,142.578
1573889825.048,37.109,58.105,-242.676,25.879,103.516
1573889825.051,18.066,63.965,-351.562,6.348,-48.340
1573889825.055,24.902,57.617,52.246,23.438,-61.035
1573889825.059,37.598,50.293,587.891,45.898,119.141
1573889825.063,30.762,53.711,467.773,34.180,155.273
1573889825.067,11.719,47.363,-148.926,5.859,-51.758
1573889825.071,9.766,44.434,-154.297,9.277,-140.625
1573889825.075,27.344,53.711,462.402,38.086,58.105
1573889825.079,32.715,60.059,608.398,37.109,204.102
1573889825.083,16.113,57.129,81.543,5.859,36.133
1573889825.087,17.090,53.711,-285.645,6.348,-113.770
1573889825.090,41.504,55.664,83.008,36.621,18.066
1573889825.094,52.246,58.105,649.902,47.363,185.059
1573889825.098,37.598,59.082,348.633,20.020,99.609
1573889825.102,19.043,55.664,-122.070,-3.418,-50.293
1573889825.106,29.785,55.176,312.988,20.020,-17.578
1573889825.110,46.387,60.059,886.230,39.551,142.090
1573889825.114,43.457,59.082,534.180,21.973,133.301
1573889825.118,34.180,57.617,-155.762,3.906,-55.664
1573889825.122,37.598,66.406,96.191,17.578,-67.383
1573889825.126,54.199,69.824,812.988,41.504,118.164
1573889825.130,62.012,60.059,681.152,42.480,181.641
1573889825.133,49.316,51.270,-154.785,27.832,2.441
1573889825.137,41.016,50.293,-344.238,31.738,-115.723
1573889825.141,55.664,47.852,305.664,56.152,34.668
1573889825.145,58.594,49.316,567.871,58.594,167.969
1573889825.149,38.574,50.781,-258.301,26.367,80.078
1573889825.153,30.273,52.246,-575.195,15.137,-68.359
1573889825.157,42.969,55.176,375.488,47.363,-2.441
1573889825.161,46.875,54.199,772.461,52.246,186.035
1573889825.165,31.250,56.152,75.684,24.902,82.520
1573889825.169,24.414,53.223,-349.609,14.160,-98.145
1573889825.173,32.227,58.105,203.125,31.250,-42.480
1573889825.176,37.109,58.594,618.652,43.945,116.211
1573889825.180,24.902,47.363,-26.367,24.902,61.523
1573889825.184,7.812,49.805,-705.078,3.418,-109.375
1573889825.188,9.277,48.828,-371.094,16.113,-103.516
1573889825.192,24.902,43.457,232.910,38.574,86.426
1573889825.196,26.367,47.852,-8.789,31.738,131.348
1573889825.200,12.695,59.082,-497.070,7.324,-16.602
1573889825.204,13.184,63.477,-301.758,11.719,-85.938
1573889825.208,26.855,55.664,286.133,33.203,11.230
1573889825.212,36.133,49.805,506.836,38.086,168.457
1573889825.215,20.996,54.688,18.066,16.602,53.223
1573889825.219,7.812,57.617,-371.582,5.371,-138.184
1573889825.223,24.414,59.570,148.926,31.250,-25.391
1573889825.227,42.480,54.688,516.113,53.711,168.457
1573889825.231,36.621,50.293,-45.898,39.551,115.723
1573889825.235,22.949,54.688,-520.020,21.973,-45.410
1573889825.239,30.762,57.617,-349.609,36.621,-53.223
1573889825.243,52.246,58.594,152.832,56.641,102.539
1573889825.247,50.293,53.223,163.086,42.969,139.648
1573889825.251,31.250,48.340,-483.398,19.043,-35.156
1573889825.255,33.203,50.781,-363.770,27.344,-84.961
1573889825.258,50.293,52.734,446.777,48.828,90.820
1573889825.262,49.805,50.293,432.129,41.992,147.949
1573889825.266,33.691,46.387,-389.160,17.578,-17.578
1573889825.270,27.344,56.641,-534.668,18.066,-126.465
1573889825.274,35.645,65.430,84.473,35.156,-7.324
1573889825.278,35.156,51.270,315.430,38.086,154.297
1573889825.282,23.926,38.086,-346.680,13.672,51.758
1573889825.286,10.742,35.645,-911.621,-4.395,-132.324
1573889825.290,10.742,40.039,-188.477,15.137,-74.219
1573889825.294,31.250,49.316,556.641,41.016,128.906
1573889825.298,24.902,45.898,132.812,20.996,113.770
1573889825.301,5.371,37.109,-538.574,-8.301,-79.102
1573889825.305,11.230,37.109,-203.125,8.789,-89.355
1573889825.309,32.227,41.992,549.805,33.691,104.492
1573889825.313,34.180,46.387,364.258,26.855,153.809
1573889825.317,22.461,49.805,-304.199,10.254,-32.715
1573889825.321,27.832,48.340,-302.246,19.531,-115.234
1573889825.325,43.945,43.945,324.219,51.758,67.871
1573889825.329,50.293,38.574,175.781,58.594,174.805
1573889825.333,32.715,29.785,-508.301,27.344,16.602
1573889825.337,23.438,28.809,-263.672,18.066,-69.336
1573889825.340,45.410,37.109,408.691,47.363,38.086
1573889825.344,62.012,40.527,567.871,57.129,153.320
1573889825.348,46.875,37.109,142.090,28.809,101.562
1573889825.352,32.227,35.156,-213.867,12.207,-78.613
1573889825.356,40.039,41.016,165.039,28.320,-36.133
1573889825.360,54.199,44.434,546.387,46.875,152.832
1573889825.364,47.363,31.250,240.234,28.809,131.836
1573889825.368,25.879,23.438,-362.793,0.488,-35.156
1573889825.372,29.785,38.086,-359.863,11.719,-73.242
1573889825.376,47.852,46.875,92.285,34.668,67.871
1573889825.380,37.109,40.039,243.652,22.949,158.203
1573889825.383,17.578,38.086,-214.355,-6.836,-28.809
1573889825.387,9.766,40.039,-367.188,-9.766,-151.367
1573889825.391,19.043,36.133,316.406,14.648,38.574
1573889825.395,27.344,36.621,631.836,16.602,193.359
1573889825.399,15.137,47.852,1.953,-3.418,52.734
1573889825.403,6.348,49.805,-432.617,-0.977,-126.953
1573889825.407,20.020,46.387,171.875,26.367,-12.207
1573889825.411,30.273,46.875,606.445,39.062,177.734
1573889825.415,16.602,43.457,-16.113,14.648,109.863
1573889825.419,4.395,45.898,-862.305,-10.254,-95.215
1573889825.423,13.184,51.270,-554.199,5.371,-100.098
1573889825.426,29.785,48.340,489.258,37.109,130.371
1573889825.430,32.227,41.016,277.344,31.250,148.438
1573889825.434,15.625,39.551,-493.164,5.859,-49.316
1573889825.438,14.160,46.875,-202.148,14.648,-83.008
1573889825.442,31.738,57.129,639.160,42.480,120.605
1573889825.446,39.062,55.176,481.934,40.527,180.176
1573889825.450,25.879,47.363,-348.633,12.207,-2.441
1573889825.454,19.043,50.781,-338.867,10.254,-87.402
1573889825.458,33.691,50.293,420.410,35.645,51.758
1573889825.462,43.945,43.457,362.793,38.086,166.016
1573889825.465,27.344,43.457,-628.906,5.859,21.973
1573889825.469,12.695,44.434,-764.648,-5.371,-143.555
1573889825.473,27.344,47.852,-4.883,24.414,-44.434
1573889825.477,41.016,46.387,413.574,39.551,152.832
1573889825.481,27.344,38.086,-37.598,12.695,86.914
1573889825.485,9.766,43.457,-507.812,-9.277,-113.770
1573889825.489,23.438,54.199,-52.734,10.742,-78.125
1573889825.493,47.852,47.363,548.340,38.574,136.719
1573889825.497,41.992,36.133,230.957,22.949,132.812
1573889825.501,21.973,38.574,-372.559,-1.953,-46.387
1573889825.505,23.438,42.480,-199.219,10.254,-76.172
1573889825.508,39.551,36.621,311.523,36.133,63.965
1573889825.512,41.504,41.016,160.645,34.668,140.625
1573889825.516,24.414,51.270,-377.441,7.324,6.348
1573889825.520,21.484,48.340,-411.133,8.789,-125.488
1573889825.524,30.273,39.062,-145.996,33.203,-41.016
1573889825.528,36.621,45.410,-33.691,40.039,124.023
1573889825.532,24.414,42.969,-292.969,17.578,46.387
1573889825.536,9.277,34.668,-599.609,0.977,-125.977
1573889825.540,24.414,38.574,-85.449,30.273,-48.828
1573889825.544,36.133,34.668,610.352,50.781,171.387
1573889825.548,33.691,31.738,263.672,39.062,128.418
1573889825.551,19.531,33.691,-478.516,25.391,-84.961
1573889825.555,9.766,30.762,-342.773,28.320,-88.867
1573889825.559,22.949,39.062,243.164,48.828,92.285
1573889825.563,26.367,45.410,209.473,46.387,157.227
1573889825.567,10.742,35.156,-487.793,22.461,-3.418
1573889825.571,7.324,30.762,-708.008,20.508,-113.281
1573889825.575,23.438,36.133,245.117,42.969,61.523
1573889825.579,32.227,39.062,547.363,43.457,169.434
1573889825.583,19.531,38.574,-263.184,16.113,6.836
1573889825.587,15.625,48.340,-551.758,10.254,-100.586
1573889825.590,36.133,57.129,241.211,37.109,31.738
1573889825.594,49.316,61.035,667.480,46.387,179.199
1573889825.598,32.715,59.082,-9.277,20.020,71.777
1573889825.602,17.090,39.062,-646.484,1.465,-130.371
1573889825.606,27.344,34.180,-250.000,18.555,-83.008
1573889825.610,47.852,41.504,347.168,42.480,97.168
1573889825.614,42.969,42.969,-229.004,30.273,79.102
1573889825.618,22.461,47.852,-772.461,4.395,-58.594
1573889825.622,23.438,47.363,-215.332,12.207,-84.473
1573889825.626,38.086,47.852,413.574,33.691,85.938
1573889825.630,39.551,55.664,285.645,28.809,148.438
1573889825.633,22.949,62.988,-265.137,-1.465,-2.441
1573889825.637,21.973,68.848,-170.410,1.465,-81.543
1573889825.641,44.434,64.453,402.832,32.715,49.805
1573889825.645,48.828,62.988,468.750,36.133,185.059
1573889825.649,27.832,71.777,-229.980,7.324,60.059
1573889825.653,19.531,78.613,-506.348,0.488,-78.613
1573889825.657,33.691,76.660,7.812,22.949,-11.230
1573889825.661,46.387,73.730,213.867,34.668,136.230
1573889825.665,30.762,66.406,-46.875,14.160,104.980
1573889825.669,13.184,65.430,-297.363,-2.930,-51.758
1573889825.673,25.391,70.801,-112.305,16.602,-46.387
1573889825.676,39.062,69.824,288.086,31.250,133.301
1573889825.680,35.645,76.660,257.812,24.414,142.090
1573889825.684,27.344,84.473,-321.777,13.184,-70.801
1573889825.688,23.926,81.543,-240.234,17.578,-118.164
1573889825.692,30.273,84.473,499.023,38.086,78.125
1573889825.696,31.250,79.102,365.723,32.715,146.973
1573889825.700,20.020,76.660,-482.422,7.812,-35.645
1573889825.704,14.648,82.520,-761.230,6.348,-127.441
1573889825.708,29.297,81.055,-43.457,28.320,32.715
1573889825.712,38.086,77.148,607.910,36.133,185.547
1573889825.715,29.785,79.102,-8.301,15.137,44.434
1573889825.719,22.949,78.125,-513.184,5.371,-141.113
1573889825.723,32.715,78.613,196.777,28.320,-25.879
1573889825.727,53.711,81.543,812.988,46.875,173.828
1573889825.731,41.016,68.848,211.914,20.020,90.332
1573889825.735,18.555,59.570,-475.586,-2.930,-120.605
1573889825.739,33.691,59.082,18.555,20.508,-85.938
1573889825.743,53.711,58.105,587.891,44.922,99.609
1573889825.747,49.316,61.523,124.023,30.762,109.863
1573889825.751,35.156,69.824,-648.438,7.812,-66.895
1573889825.755,35.156,66.895,-323.242,18.555,-104.492
1573889825.758,52.246,65.430,601.562,44.922,84.473
1573889825.762,53.711,75.684,599.609,38.574,141.113
1573889825.766,28.320,64.941,-4.395,2.441,28.320
1573889825.770,20.996,61.523,35.645,-1.465,-51.758
1573889825.774,44.434,65.430,647.461,29.297,9.766
1573889825.778,53.711,58.105,860.840,37.598,170.898
1573889825.782,43.945,62.500,258.301,17.090,76.172
1573889825.786,37.109,64.941,-127.930,9.277,-110.352
1573889825.790,43.945,65.430,296.387,31.738,-34.180
1573889825.794,61.035,64.941,407.715,51.758,122.559
1573889825.798,50.781,60.547,-122.559,29.785,49.805
1573889825.801,30.273,63.477,-354.004,5.371,-124.512
1573889825.805,33.691,61.035,29.785,19.531,-119.141
1573889825.809,50.293,57.129,575.684,47.852,80.566
1573889825.813,51.270,57.129,390.625,43.457,132.812
1573889825.817,34.180,53.711,-151.367,12.695,-30.273
1573889825.821,28.809,56.641,-136.719,16.113,-112.305
1573889825.825,37.598,53.223,463.867,44.922,38.086
1573889825.829,40.039,44.434,687.988,44.434,175.781
1573889825.833,27.832,43.457,-27.344,21.973,5.859
1573889825.837,23.926,40.039,-505.859,19.043,-112.305
1573889825.840,32.715,37.109,-92.285,41.504,20.996
1573889825.844,39.551,40.527,477.539,55.176,166.016
1573889825.848,28.809,38.574,217.285,36.621,108.887
1573889825.852,15.625,31.250,-352.051,22.949,-63.477
1573889825.856,20.996,30.762,7.324,39.551,-51.758
1573889825.860,32.715,34.668,638.672,48.828,125.977
1573889825.864,29.785,41.016,351.562,36.133,144.531
1573889825.868,18.066,43.457,-394.531,20.996,-34.180
1573889825.872,21.484,42.969,-264.648,28.320,-92.285
1573889825.876,32.715,43.457,517.090,48.340,88.867
1573889825.880,28.320,41.016,429.199,38.086,149.902
1573889825.883,18.066,37.598,-430.664,13.184,-25.391
1573889825.887,13.672,35.645,-541.504,12.695,-94.727
1573889825.891,27.832,39.062,318.359,38.574,60.547
1573889825.895,44.434,37.109,560.059,48.340,162.598
1573889825.899,25.879,28.809,-467.285,16.602,9.766
1573889825.903,9.277,30.762,-862.793,-2.441,-124.512
1573889825.907,19.043,40.039,128.906,20.508,9.766
1573889825.911,22.949,39.062,622.559,25.391,198.242
1573889825.915,16.602,34.180,-0.977,0.000,125.000
1573889825.919,2.930,35.645,-520.508,-16.602,-87.891
1573889825.923,6.348,35.645,-104.492,1.465,-68.359
1573889825.926,31.738,35.156,291.992,28.320,113.281
1573889825.930,33.691,39.551,-154.297,15.137,105.957
1573889825.934,17.578,48.340,-716.797,-6.348,-39.551
1573889825.938,19.043,49.316,-374.512,5.371,-85.449
1573889825.942,35.645,44.434,208.984,26.855,49.805
1573889825.946,39.062,38.574,-81.055,24.414,125.000
1573889825.950,22.949,31.250,-505.371,2.441,-11.230
1573889825.954,19.531,30.273,-388.184,0.977,-118.164
1573889825.958,41.016,35.156,229.004,30.273,25.391
1573889825.962,55.176,38.086,505.859,42.480,179.688
1573889825.965,46.387,41.016,7.324,22.949,74.707
1573889825.969,28.320,39.551,-308.105,3.418,-45.410
1573889825.973,34.180,40.527,157.715,18.555,15.137
1573889825.977,55.664,41.504,476.562,44.434,152.344
1573889825.981,52.246,40.527,-18.066,34.180,114.258
1573889825.985,38.574,38.086,-558.105,18.555,-42.969
1573889825.989,41.504,33.203,-509.277,29.297,-81.543
1573889825.993,53.711,34.668,151.855,49.805,96.680
1573889825.997,54.688,38.086,395.996,46.387,163.574
1573889826.001,38.574,41.992,-284.668,20.996,-33.203
1573889826.005,31.250,46.875,-291.992,22.949,-97.168
1573889826.008,41.504,39.551,497.070,45.410,63.477
1573889826.012,45.410,27.344,625.000,46.387,161.621
1573889826.016,30.762,26.855,-176.758,19.531,8.789
1573889826.020,21.484,35.156,-411.133,11.719,-104.492
1573889826.024,31.738,38.574,202.148,39.551,2.441
1573889826.028,43.457,41.016,422.852,49.316,141.602
1573889826.032,32.715,43.945,-211.426,25.879,49.316
1573889826.036,15.137,34.180,-897.949,5.371,-134.277
1573889826.040,17.090,23.926,-243.652,21.484,-68.359
1573889826.044,27.832,21.484,562.012,37.109,133.789
1573889826.048,28.320,24.902,145.996,21.484,113.281
1573889826.051,16.602,29.785,-407.715,4.883,-72.266
1573889826.055,17.578,34.668,16.113,14.648,-67.871
1573889826.059,37.598,47.852,707.520,39.062,118.164
1573889826.063,41.992,41.992,460.938,35.645,158.203
1573889826.067,25.391,24.902,-269.043,7.812,-31.738
1573889826.071,22.949,27.832,-388.184,7.812,-125.488
1573889826.075,34.668,30.762,270.996,37.109,41.504
1573889826.079,39.062,28.320,172.363,38.574,131.836
1573889826.083,28.809,40.527,-670.410,8.301,-7.812
1573889826.087,18.555,49.316,-476.562,1.953,-103.516
1573889826.090,32.715,43.457,309.082,28.320,9.766
1573889826.094,46.387,37.109,504.395,43.457,165.039
1573889826.098,29.785,26.855,-10.742,18.066,79.590
1573889826.102,11.230,20.508,-410.645,-8.301,-130.371
1573889826.106,18.555,27.832,-50.293,6.348,-86.914
1573889826.110,30.762,28.320,538.574,25.879,146.973
1573889826.114,32.227,30.273,290.039,16.113,134.766
1573889826.118,24.902,38.086,-492.676,0.000,-80.566
1573889826.122,25.879,42.969,-498.535,8.301,-100.098
1573889826.126,37.598,42.480,52.734,25.391,83.984
1573889826.130,32.227,30.762,193.848,18.555,157.227
1573889826.133,19.043,29.785,-243.164,2.441,2.930
1573889826.137,13.672,33.203,-415.039,3.906,-117.676
1573889826.141,27.344,42.480,270.020,28.320,43.457
1573889826.145,36.133,46.875,688.477,40.039,214.355
1573889826.149,21.484,33.203,7.324,10.742,66.895
1573889826.153,7.324,23.438,-506.348,-2.441,-93.262
1573889826.157,12.695,26.367,55.176,20.020,-17.090
1573889826.161,28.809,30.762,533.203,37.109,149.902
1573889826.165,25.391,30.273,-96.680,26.367,84.473
1573889826.169,9.766,26.855,-932.617,4.883,-128.418
1573889826.173,14.160,29.297,-599.121,18.555,-121.582
1573889826.176,30.273,35.156,432.617,44.434,111.816
1573889826.180,27.832,29.785,299.805,31.738,148.438
1573889826.184,11.230,23.926,-484.375,6.836,-35.645
1573889826.188,9.277,29.785,-267.090,8.789,-81.055
1573889826.192,29.785,37.109,536.621,31.250,90.332
1573889826.196,40.039,40.527,445.801,33.691,168.945
1573889826.200,24.414,49.316,-354.004,4.395,-5.859
1573889826.204,17.090,44.922,-414.551,-3.906,-117.188
1573889826.208,32.715,33.203,244.141,21.484,25.879
1573889826.212,40.527,33.691,310.059,28.809,176.758
1573889826.215,24.902,29.785,-345.215,-1.465,62.500
1573889826.219,11.230,32.227,-562.500,-15.625,-104.492
1573889826.223,20.020,42.480,128.418,10.254,-16.113
1573889826.227,30.273,43.945,408.203,28.809,129.883
1573889826.231,20.996,36.621,-336.426,13.672,77.637
1573889826.235,4.395,32.227,-652.832,-5.859,-74.219
1573889826.239,5.859,37.598,-138.672,10.254,-88.867
1573889826.243,21.484,41.992,416.016,33.203,99.609
1573889826.247,24.414,42.480,221.680,23.926,142.578
1573889826.251,8.789,37.109,-347.656,-2.930,-45.410
1573889826.255,9.277,32.715,-355.469,0.977,-119.141
1573889826.258,28.320,36.133,115.234,27.344,50.781
1573889826.262,35.156,41.992,162.598,28.320,149.902
1573889826.266,27.832,48.340,-381.348,12.207,-18.066
1573889826.270,22.949,43.457,-480.469,11.719,-125.000
1573889826.274,35.156,37.109,79.102,34.668,23.438
1573889826.278,46.875,43.945,410.156,42.480,160.156
1573889826.282,36.621,51.270,19.043,20.020,65.918
1573889826.286,26.855,48.828,-450.195,9.766,-88.867
1573889826.290,36.621,42.969,-15.137,33.203,-29.785
1573889826.294,49.316,50.781,644.043,51.758,163.086
1573889826.298,42.969,49.316,314.453,34.668,136.230
1573889826.301,25.879,33.203,-452.637,12.695,-61.523
1573889826.305,29.297,30.273,-365.234,26.367,-69.336
1573889826.309,48.340,36.133,290.527,49.805,113.770
1573889826.313,47.852,35.645,279.785,38.086,168.945
1573889826.317,34.180,34.180,-509.277,11.230,-28.809
1573889826.321,31.250,41.504,-727.051,11.230,-125.977
1573889826.325,43.457,44.922,181.641,38.086,48.828
1573889826.329,47.363,34.668,528.320,39.551,155.762
1573889826.333,37.109,28.320,-339.844,11.719,33.203
1573889826.337,29.297,33.203,-853.027,6.836,-134.277
1573889826.340,41.016,40.039,11.230,37.598,-41.016
1573889826.344,56.641,34.180,543.945,53.223,133.301
1573889826.348,46.387,28.809,-89.355,27.344,43.945
1573889826.352,37.598,36.621,-670.898,11.719,-118.164
1573889826.356,47.363,45.898,-237.793,33.203,-61.035
1573889826.360,52.246,44.434,465.332,49.805,117.676
1573889826.364,47.363,41.992,-83.984,36.133,93.262
1573889826.368,29.297,34.180,-770.508,11.719,-61.035
1573889826.372,24.414,26.855,-150.879,19.531,-67.871
1573889826.376,47.852,25.391,595.703,49.316,119.141
1573889826.380,51.758,29.297,483.398,45.410,209.961
1573889826.383,27.344,29.297,-125.488,13.672,30.273
1573889826.387,19.043,30.762,-162.598,9.277,-94.238
1573889826.391,31.250,36.133,478.516,36.621,62.012
1573889826.395,32.715,37.598,671.387,40.039,197.754
1573889826.399,16.602,27.344,-69.824,9.277,54.199
1573889826.403,0.000,19.043,-527.832,-6.836,-146.973
1573889826.407,8.789,17.578,71.289,15.137,-47.363
1573889826.411,22.461,19.531,337.891,26.855,152.344
1573889826.415,14.648,31.250,115.723,5.859,132.812
1573889826.419,-0.488,25.391,-117.676,-13.184,-44.434
1573889826.423,4.395,19.043,166.016,0.977,-43.457
1573889826.426,25.879,24.414,794.922,23.438,146.973
1573889826.430,27.832,26.367,659.668,8.789,165.527
1573889826.434,16.602,28.809,-80.078,-12.695,-7.812
1573889826.438,19.043,34.180,-49.316,-4.395,-68.848
1573889826.442,40.039,40.039,728.516,18.066,94.727
1573889826.446,47.363,40.039,676.758,17.090,180.176
1573889826.450,29.785,27.832,-57.617,-6.348,32.227
1573889826.454,27.344,18.066,-438.477,-6.348,-78.613
1573889826.458,43.945,20.020,170.410,20.996,54.199
1573889826.462,52.246,20.996,839.355,33.691,187.988
1573889826.465,45.410,23.926,164.551,17.578,58.594
1573889826.469,37.109,29.297,-384.277,6.836,-104.980
1573889826.473,46.875,29.297,230.957,31.738,-51.270
1573889826.477,65.918,34.180,818.848,55.664,125.000
1573889826.481,61.035,31.250,282.227,41.016,82.031
1573889826.485,40.527,23.438,-430.176,12.695,-110.352
1573889826.489,43.457,29.297,-34.668,22.461,-85.938
1573889826.493,57.617,34.668,592.285,47.852,120.605
1573889826.497,59.570,35.156,172.852,42.969,117.188
1573889826.501,42.480,32.715,-794.922,14.160,-100.586
1573889826.505,28.809,32.227,-419.434,9.766,-91.309
1573889826.508,41.504,34.668,599.609,37.109,85.449
1573889826.512,42.480,31.250,528.320,35.645,141.113
1573889826.516,21.484,27.344,-218.262,7.812,-3.906
1573889826.520,11.719,26.855,-367.188,3.906,-141.113
1573889826.524,21.484,30.273,326.660,22.461,-4.395
1573889826.528,27.832,28.809,656.250,29.785,187.500
1573889826.532,11.719,20.020,74.707,8.789,111.328
1573889826.536,-2.441,22.461,-345.215,-5.859,-61.523
1573889826.540,10.742,30.273,-14.160,17.578,-42.969
1573889826.544,28.809,24.902,186.523,39.551,124.512
1573889826.548,25.879,19.043,-303.223,21.973,103.516
1573889826.551,12.207,31.738,-535.645,5.859,-45.898
1573889826.555,15.137,38.574,-139.160,20.508,-68.848
1573889826.559,34.180,28.809,480.469,39.551,109.375
1573889826.563,41.992,28.320,454.590,36.133,182.129
1573889826.567,32.715,35.645,-160.156,15.137,21.973
1573889826.571,31.738,38.574,-339.355,15.137,-103.516
1573889826.575,43.457,36.621,250.977,35.156,41.016
1573889826.579,54.688,29.785,498.535,37.109,181.152
1573889826.583,42.969,26.855,-148.926,13.184,41.016
1573889826.587,31.738,29.785,-662.109,0.977,-94.727
1573889826.590,38.086,29.785,-448.242,20.508,-34.180
1573889826.594,49.316,36.133,134.766,39.062,122.559
1573889826.598,42.969,39.551,-19.043,22.949,98.633
1573889826.602,24.414,26.367,-627.441,2.441,-76.660
1573889826.606,22.461,18.555,-326.172,12.207,-62.500
1573889826.610,39.551,27.832,465.332,32.227,142.578
1573889826.614,40.527,34.668,254.883,20.508,146.973
1573889826.618,22.461,37.109,-509.766,-1.465,-53.711
1573889826.622,26.367,41.992,-387.695,11.719,-106.934
1573889826.626,37.109,42.480,403.320,31.738,74.219
1573889826.630,25.879,35.156,386.719,17.090,146.484
1573889826.633,8.301,30.273,-482.422,-7.324,-20.020
1573889826.637,6.348,25.879,-639.160,-6.348,-108.887
1573889826.641,18.066,27.832,191.895,17.578,18.555
1573889826.645,30.273,41.504,479.004,35.645,128.418
1573889826.649,21.973,40.039,-436.523,14.160,41.504
1573889826.653,6.348,34.180,-798.340,-4.395,-67.383
1573889826.657,20.020,39.551,139.160,23.438,-3.418
1573889826.661,42.969,37.109,544.434,47.852,162.109
1573889826.665,35.645,31.738,-14.160,33.203,105.469
1573889826.669,18.555,29.297,-424.316,13.672,-79.590
1573889826.673,23.438,33.203,17.578,30.762,-69.336
1573889826.676,41.016,38.574,581.543,49.805,123.047
1573889826.680,39.551,35.645,164.551,38.574,132.324
1573889826.684,21.484,33.203,-616.699,16.602,-71.289
1573889826.688,20.020,39.551,-358.398,22.461,-103.516
1573889826.692,32.227,41.504,363.281,45.898,77.148
1573889826.696,30.762,33.691,152.344,38.574,146.973
1573889826.700,12.695,29.297,-349.121,9.766,-1.953
1573889826.704,3.906,35.156,-272.461,7.324,-105.957
1573889826.708,20.996,35.645,278.320,37.109,1.953
1573889826.712,27.344,28.320,595.215,38.086,171.387
1573889826.715,10.254,26.855,55.176,2.930,88.867
1573889826.719,-1.953,21.484,-488.770,-14.160,-86.914
1573889826.723,11.230,23.438,-3.906,10.254,-41.504
1573889826.727,30.273,26.855,481.445,33.203,145.996
1573889826.731,21.484,30.762,7.812,13.672,116.699
1573889826.735,3.418,29.785,-554.688,-12.207,-78.613
1573889826.739,8.789,22.949,-444.824,-4.883,-85.449
1573889826.743,24.902,24.902,155.762,20.996,92.285
1573889826.747,32.227,25.391,368.164,26.367,140.625
1573889826.751,20.508,26.855,-226.562,2.930,7.324
1573889826.755,18.066,31.250,-322.266,2.441,-77.148
1573889826.758,37.109,32.715,430.664,32.715,56.641
1573889826.762,48.828,35.156,668.945,41.504,191.406
1573889826.766,37.598,30.273,-103.027,18.555,50.293
1573889826.770,22.949,23.926,-452.637,5.371,-96.191
1573889826.774,39.062,34.668,177.246,29.785,26.855
1573889826.778,53.223,33.203,487.793,46.875,188.477
1573889826.782,44.922,19.531,-232.422,27.344,83.008
1573889826.786,31.738,22.461,-921.875,8.789,-113.770
1573889826.790,26.367,22.461,-224.609,21.973,-62.012
1573889826.794,42.480,22.949,597.168,46.875,139.160
1573889826.798,42.480,27.344,185.059,34.668,133.301
1573889826.801,22.461,21.484,-406.738,7.812,-16.602
1573889826.805,27.832,27.832,-94.238,19.531,-56.641
1573889826.809,46.387,36.133,508.301,44.922,77.148
1573889826.813,47.852,32.715,294.434,42.969,125.977
1573889826.817,29.297,32.715,-314.941,15.625,5.859
1573889826.821,21.484,28.809,-485.352,7.812,-110.840
1573889826.825,29.785,17.578,191.895,29.297,42.969
1573889826.829,34.668,18.066,201.172,34.668,169.922
1573889826.833,20.020,27.344,-679.199,4.883,5.859
1573889826.837,6.836,36.133,-575.195,-3.906,-117.676
1573889826.840,16.602,23.438,150.879,20.996,-15.625
1573889826.844,25.879,13.672,476.562,30.273,154.297
1573889826.848,13.184,16.113,69.824,7.812,106.934
1573889826.852,2.930,15.137,-367.188,-5.371,-80.566
1573889826.856,14.160,19.531,-75.195,16.113,-69.824
1573889826.860,29.785,26.855,500.977,38.574,137.695
1573889826.864,38.086,28.320,313.477,33.691,153.320
1573889826.868,23.926,20.020,-451.172,13.672,-34.180
1573889826.872,22.949,18.066,-508.301,22.461,-81.543
1573889826.876,49.805,16.602,-19.531,50.293,64.453
1573889826.880,53.223,13.672,196.289,49.316,158.203
1573889826.883,42.480,9.766,-227.539,30.273,10.254
1573889826.887,44.922,12.695,-524.902,35.645,-121.094
1573889826.891,60.059,15.625,196.289,61.035,46.875
1573889826.895,65.430,7.812,654.785,64.941,204.102
1573889826.899,46.387,8.301,-7.812,36.133,61.523
1573889826.903,34.180,15.137,-467.773,23.926,-78.125
1573889826.907,45.410,10.254,39.062,46.387,-19.043
1573889826.911,51.270,1.465,547.363,53.711,132.812
1573889826.915,34.180,-1.465,24.902,24.902,102.051
1573889826.919,18.555,2.441,-854.004,0.488,-57.129
1573889826.923,19.531,5.371,-608.887,7.812,-81.055
1573889826.926,29.297,0.000,445.801,24.414,113.770
1573889826.930,32.227,2.441,341.309,16.602,146.484
1573889826.934,13.672,9.277,-529.297,-8.789,-62.988
1573889826.938,4.395,15.625,-277.344,-7.812,-67.871
1573889826.942,17.090,15.625,476.074,18.555,86.426
1573889826.946,20.996,8.301,279.785,21.484,141.602
1573889826.950,4.395,4.883,-370.605,-4.883,16.113
1573889826.954,-8.789,3.906,-393.555,-13.672,-91.309
1573889826.958,3.418,5.859,294.922,13.184,5.371
1573889826.962,19.531,9.766,426.270,31.250,148.926
1573889826.965,14.160,11.719,-426.758,7.812,76.172
1573889826.969,3.418,9.766,-694.336,-7.324,-98.633
1573889826.973,11.230,5.371,36.621,18.066,-68.359
1573889826.977,24.414,4.395,546.875,32.715,140.137
1573889826.981,30.273,13.672,178.223,20.996,132.324
1573889826.985,26.367,16.113,-388.184,7.812,-89.355
1573889826.989,29.297,11.230,-128.418,19.531,-110.352
1573889826.993,48.340,17.578,440.430,46.875,73.242
1573889826.997,49.805,21.973,276.855,40.527,138.672
1573889827.001,36.133,24.902,-378.906,15.625,-1.465
1573889827.005,30.273,20.996,-378.906,13.672,-96.191
1573889827.008,40.527,17.090,237.305,34.668,39.551
1573889827.012,45.898,20.508,258.301,35.645,159.668
1573889827.016,33.691,19.043,-293.457,8.789,31.250
1573889827.020,28.320,22.461,-405.273,7.812,-106.934
1573889827.024,40.527,22.949,-129.883,32.227,-27.344
1573889827.028,51.270,19.043,85.938,43.945,127.930
1573889827.032,40.527,24.414,-45.410,27.344,72.266
1573889827.036,26.855,21.484,-456.055,11.719,-79.590
1573889827.040,31.738,14.160,-107.422,28.320,-50.293
1573889827.044,47.363,19.531,548.340,46.387,117.188
1573889827.048,44.434,22.949,312.500,30.273,117.676
1573889827.051,19.043,12.695,-433.105,-0.488,-73.242
1573889827.055,13.672,11.230,-392.090,5.371,-104.492
1573889827.059,30.762,20.020,283.691,32.715,74.219
1573889827.063,25.879,23.926,324.707,25.391,153.320
1573889827.067,11.230,16.113,-388.672,-0.977,-7.324
1573889827.071,6.348,5.859,-635.254,-1.465,-123.047
1573889827.075,16.113,7.324,321.289,26.367,34.180
1573889827.079,34.668,13.672,809.570,42.969,171.875
1573889827.083,23.926,11.230,58.105,17.578,20.020
1573889827.087,12.695,7.324,-250.977,4.395,-116.699
1573889827.090,36.133,17.090,512.207,38.574,1.953
1573889827.094,57.129,24.414,-990.234,57.129,183.105
1573889827.098,45.410,21.973,450.684,31.738,125.488
1573889827.102,34.668,23.438,-322.266,15.137,-115.723
1573889827.106,45.410,22.949,6.836,33.691,-92.773
1573889827.110,58.594,14.160,781.250,46.387,140.137
1573889827.114,55.176,14.648,275.879,28.809,135.254
1573889827.118,39.551,23.438,-432.129,7.324,-32.227
1573889827.122,43.457,23.926,92.285,18.555,-78.125
1573889827.126,65.430,21.484,767.090,48.828,66.406
1573889827.130,72.754,28.809,666.504,52.246,158.203
1573889827.133,54.688,28.320,56.152,26.367,1.953
1573889827.137,46.875,26.367,-13.672,21.973,-118.652
1573889827.141,57.617,30.273,561.035,42.480,13.184
1573889827.145,63.965,33.203,758.301,49.316,164.551
1573889827.149,48.340,30.273,89.355,24.902,58.594
1573889827.153,29.785,22.949,-375.977,1.953,-86.426
1573889827.157,36.133,17.090,22.949,21.484,-44.434
1573889827.161,42.480,18.555,268.555,36.133,92.773
1573889827.165,29.785,22.461,127.441,16.602,103.516
1573889827.169,16.602,22.949,-250.488,0.488,-51.270
1573889827.173,16.113,24.902,-128.418,13.184,-83.008
1573889827.176,23.926,22.461,614.258,34.180,114.258
1573889827.180,23.926,18.066,557.129,23.438,156.250
1573889827.184,10.742,20.508,-88.379,0.977,-1.465
1573889827.188,9.277,23.438,-183.105,8.789,-90.332
1573889827.192,23.926,22.461,469.727,31.738,62.012
1573889827.196,27.832,17.578,524.414,29.785,183.594
1573889827.200,10.742,13.184,-218.262,0.977,35.645
1573889827.204,5.859,19.043,-646.484,-6.836,-90.820
1573889827.208,21.484,24.414,-132.324,17.090,5.371
1573889827.212,37.598,32.715,602.051,33.203,171.875
1573889827.215,35.645,34.668,77.148,18.555,80.078
1573889827.219,22.461,27.344,-540.039,-0.488,-112.305
1573889827.223,26.855,23.926,25.879,17.090,-49.316
1573889827.227,41.992,19.043,618.164,38.086,148.926
1573889827.231,36.621,20.508,99.609,20.996,99.609
1573889827.235,23.438,30.762,-549.805,-2.441,-88.379
1573889827.239,33.691,31.738,-167.969,16.602,-86.914
1573889827.243,55.176,24.414,466.797,47.363,104.492
1573889827.247,55.176,20.508,100.586,32.227,136.230
1573889827.251,33.691,18.555,-838.379,-2.441,-84.473
1573889827.255,28.320,19.531,-555.176,1.953,-100.098
1573889827.258,44.922,25.391,501.465,31.738,108.398
1573889827.262,51.758,34.668,498.535,38.574,179.199
1573889827.266,36.621,25.391,-270.508,12.207,25.391
1573889827.270,24.414,22.949,-465.332,5.371,-116.699
1573889827.274,33.691,32.715,195.801,33.691,-1.465
1573889827.278,40.527,32.715,560.547,45.898,183.105
1573889827.282,28.809,35.156,-98.145,20.996,97.168
1573889827.286,15.625,32.715,-566.406,6.348,-73.242
1573889827.290,17.090,32.227,-115.723,22.461,-36.621
1573889827.294,35.645,29.785,125.977,41.016,108.887
1573889827.298,41.992,33.203,-291.016,32.715,88.867
1573889827.301,24.414,36.621,-530.762,9.766,-56.641
1573889827.305,25.391,40.039,-230.469,16.113,-101.074
1573889827.309,37.598,40.039,274.414,35.156,55.176
1573889827.313,37.598,39.062,290.527,28.809,150.391
1573889827.317,20.996,38.086,-180.664,0.977,18.555
1573889827.321,20.020,33.203,-326.660,0.488,-98.633
1573889827.325,32.715,30.273,267.090,24.902,25.879
1573889827.329,35.645,34.180,652.344,28.809,199.219
1573889827.333,29.297,40.527,64.941,12.695,67.383
1573889827.337,16.602,41.016,-489.258,1.465,-99.121
1573889827.340,20.508,43.457,-69.336,19.043,-17.578
1573889827.344,29.297,45.410,437.500,31.250,138.672
1573889827.348,20.996,35.156,178.223,12.207,98.145
1573889827.352,9.766,22.461,-496.582,-6.348,-84.961
1573889827.356,13.184,23.438,-449.219,4.883,-78.125
1573889827.360,26.367,26.855,443.359,26.855,121.094
1573889827.364,35.156,32.715,456.543,25.391,154.785
1573889827.368,25.391,44.434,-312.012,4.883,-25.391
1573889827.372,20.996,49.805,-245.605,4.883,-98.145
1573889827.376,39.062,42.969,585.449,34.668,82.031
1573889827.380,45.410,35.156,636.719,39.062,181.152
1573889827.383,26.367,23.926,-231.934,12.207,21.973
1573889827.387,8.301,14.648,-571.777,-1.465,-103.516
1573889827.391,17.090,20.996,200.684,22.461,13.672
1573889827.395,30.273,27.832,542.480,40.527,155.273
1573889827.399,24.414,28.320,-408.691,18.066,41.016
1573889827.403,17.090,23.926,-877.441,5.371,-137.695
1573889827.407,28.809,21.973,5.371,37.598,-64.453
1573889827.411,48.340,27.344,587.402,62.012,136.719
1573889827.415,37.598,19.531,53.711,37.109,90.332
1573889827.419,15.625,13.672,-487.305,11.230,-97.656
1573889827.423,17.090,11.719,-44.434,24.414,-68.848
1573889827.426,36.621,9.277,532.715,51.758,104.004
1573889827.430,41.016,19.043,150.391,47.363,130.859
1573889827.434,28.809,24.414,-513.184,23.926,-13.184
1573889827.438,28.809,25.391,-344.238,30.273,-104.492
1573889827.442,43.457,32.227,315.430,56.152,47.852
1573889827.446,51.270,34.668,339.355,56.152,153.809
1573889827.450,37.598,29.297,-193.848,29.297,43.457
1573889827.454,24.414,26.367,-400.391,18.555,-71.289
1573889827.458,38.574,25.391,-68.359,41.016,-28.320
1573889827.462,52.246,22.949,135.254,51.758,118.652
1573889827.465,41.504,22.461,-100.098,29.297,76.172
1573889827.469,26.855,21.973,-463.379,11.230,-101.074
1573889827.473,29.785,25.879,-125.488,28.320,-87.402
1573889827.477,40.039,25.391,396.484,46.387,130.371
1573889827.481,34.668,20.508,-2.930,28.320,118.164
1573889827.485,14.160,18.555,-573.242,1.953,-58.105
1573889827.489,14.160,21.973,-537.109,8.789,-83.496
1573889827.493,32.227,24.902,63.477,33.203,74.707
1573889827.497,38.574,22.461,363.281,38.086,149.414
1573889827.501,30.273,12.695,-336.914,20.020,-35.645
1573889827.505,27.832,3.418,-491.699,16.113,-133.301
1573889827.508,34.668,9.277,206.055,32.715,15.625
1573889827.512,34.668,12.695,409.668,29.785,160.156
1573889827.516,23.438,5.371,-216.309,2.930,35.156
1573889827.520,18.555,2.441,-630.859,-5.859,-142.090
1573889827.524,31.250,5.859,-124.512,18.066,-39.551
1573889827.528,46.875,10.254,339.844,38.574,138.184
1573889827.532,44.922,11.719,-212.891,22.461,48.828
1573889827.536,29.297,10.742,-877.930,-3.906,-95.215
1573889827.540,31.250,12.695,-206.543,13.672,-33.691
1573889827.544,46.387,10.742,663.086,39.551,146.973
1573889827.548,43.457,6.348,285.156,22.461,152.344
1573889827.551,26.855,4.883,-410.156,-1.465,-33.203
1573889827.555,25.879,10.742,-201.660,6.348,-105.957
1573889827.559,40.527,13.184,483.887,29.785,62.012
1573889827.563,41.504,14.160,359.863,19.531,155.762
1573889827.567,25.879,20.508,-445.312,-6.836,-5.371
1573889827.571,20.508,18.066,-565.918,-3.418,-121.582
1573889827.575,34.668,14.648,125.000,21.484,30.273
1573889827.579,36.621,13.672,203.125,26.367,157.227
1573889827.583,15.625,16.113,-375.000,1.953,45.410
1573889827.587,2.441,18.066,-395.508,-9.277,-74.219
1573889827.590,19.043,17.090,201.172,20.020,-5.371
1573889827.594,41.992,24.414,500.977,47.363,174.805
1573889827.598,31.738,24.902,70.312,25.879,123.535
1573889827.602,17.090,23.438,-288.574,2.441,-30.273
1573889827.606,26.855,26.855,7.812,21.973,-21.484
1573889827.610,51.270,32.227,493.652,55.176,100.586
1573889827.614,53.223,28.320,378.906,47.852,158.203
1573889827.618,35.645,25.391,-371.582,22.949,-15.625
1573889827.622,40.527,35.645,-604.492,34.668,-132.324
1573889827.626,60.059,31.250,-123.047,59.570,17.090
1573889827.630,60.547,26.855,188.477,50.781,143.066
1573889827.633,49.316,30.273,-203.125,28.809,1.953
1573889827.637,48.828,33.691,-464.355,30.273,-120.605
1573889827.641,50.293,33.203,145.508,48.340,-1.953
1573889827.645,54.199,38.086,612.305,57.129,163.574
1573889827.649,47.363,32.227,132.812,39.551,99.121
1573889827.653,27.832,16.602,-386.719,17.578,-59.570
1573889827.657,33.203,15.625,71.777,30.762,-3.418
1573889827.661,47.363,14.160,666.504,48.828,163.086
1573889827.665,39.551,15.625,178.223,32.227,134.766
1573889827.669,16.602,19.531,-811.523,0.977,-76.172
1573889827.673,12.207,24.902,-656.738,7.324,-121.094
1573889827.676,26.855,22.461,306.152,34.668,67.383
1573889827.680,21.484,15.137,239.746,21.973,140.137
1573889827.684,-1.465,13.184,-495.605,-11.230,-34.668
1573889827.688,-6.348,12.207,-373.047,-13.184,-99.609
1573889827.692,13.672,13.672,476.074,17.578,69.824
1573889827.696,28.809,20.996,464.844,27.832,144.043
1573889827.700,11.719,20.508,-257.812,-1.465,32.227
1573889827.704,-2.441,18.066,-424.805,-11.719,-100.098
1573889827.708,15.625,20.508,259.766,19.531,-8.301
1573889827.712,33.691,20.996,424.805,36.133,146.484
1573889827.715,22.949,14.648,-545.898,7.812,27.344
1573889827.719,9.277,19.043,-863.281,-8.789,-155.762
1573889827.723,21.973,31.250,-76.660,18.555,-98.145
1573889827.727,37.598,20.508,506.836,40.039,119.141
1573889827.731,29.785,11.719,96.191,20.508,107.422
1573889827.735,15.137,14.160,-530.273,0.977,-77.148
1573889827.739,24.414,18.555,-276.855,17.090,-95.215
1573889827.743,45.410,24.414,471.191,46.387,95.703
1573889827.747,48.828,25.391,436.035,44.922,152.344
1573889827.751,36.133,24.902,-131.348,20.508,-4.395
1573889827.755,30.273,23.926,-94.238,22.461,-84.961
1573889827.758,39.062,22.461,425.781,44.434,24.414
1573889827.762,46.387,23.438,525.391,48.340,169.922
1573889827.766,30.273,19.043,11.230,21.484,29.785
1573889827.770,14.648,12.207,-173.828,5.371,-128.418
1573889827.774,22.461,8.789,151.367,24.414,-20.508
1573889827.778,28.809,7.812,525.391,31.250,155.762
1573889827.782,24.414,16.113,423.340,14.648,104.492
1573889827.786,12.207,14.160,-111.816,-2.441,-91.309
1573889827.790,10.254,10.254,176.270,4.883,-41.504
1573889827.794,25.391,18.555,851.562,25.391,155.273
1573889827.798,28.320,20.996,738.281,21.484,169.434
1573889827.801,20.020,16.602,-35.645,2.930,-54.199
1573889827.805,23.438,11.719,-196.777,9.766,-154.785
1573889827.809,37.109,13.672,478.516,35.156,51.758
1573889827.813,38.086,21.484,678.711,36.621,159.180
1573889827.817,24.414,19.531,-147.461,13.184,-46.875
1573889827.821,22.949,20.508,-611.328,8.789,-169.922
1573889827.825,38.086,21.484,290.039,35.156,-9.277
1573889827.829,43.457,15.137,820.312,44.922,152.832
1573889827.833,31.738,15.137,124.023,20.996,44.922
1573889827.837,23.438,16.602,-296.875,7.812,-109.375
1573889827.840,37.598,16.113,410.156,32.715,-1.465
1573889827.844,47.852,15.625,855.957,48.340,145.508
1573889827.848,39.551,12.695,265.625,27.344,106.934
1573889827.852,29.297,9.766,-466.309,8.301,-83.496
1573889827.856,26.367,10.742,-203.613,14.648,-92.773
1573889827.860,37.109,10.742,567.383,37.598,109.375
1573889827.864,39.062,7.324,170.410,30.762,133.789
1573889827.868,20.996,5.859,-611.816,6.836,-36.133
1573889827.872,13.672,6.348,-138.184,12.207,-71.777
1573889827.876,29.297,9.277,660.645,37.598,103.027
1573889827.880,40.039,20.996,637.207,44.922,196.777
1573889827.883,26.855,19.531,-19.531,17.578,46.387
1573889827.887,16.602,12.695,-198.242,9.766,-89.844
1573889827.891,29.785,15.137,308.594,38.574,3.418
1573889827.895,44.434,5.859,497.559,52.246,142.578
1573889827.899,35.645,3.418,-118.164,28.320,64.941
1573889827.903,23.926,8.301,-641.602,9.766,-102.539
1573889827.907,35.156,13.672,-252.441,29.297,-58.105
1573889827.911,53.223,21.973,143.555,51.270,115.234
1573889827.915,45.410,23.438,-11.230,37.109,96.191
1573889827.919,32.715,27.344,-351.074,17.090,-71.777
1573889827.923,36.133,22.949,-207.520,29.297,-107.910
1573889827.926,53.711,15.137,441.895,54.199,86.914
1573889827.930,59.570,17.578,432.129,50.781,142.090
1573889827.934,48.828,24.414,-237.793,26.367,-26.855
1573889827.938,42.480,23.926,-334.961,23.926,-109.863
1573889827.942,53.711,17.578,269.043,44.434,40.039
1573889827.946,63.477,20.508,297.852,50.293,153.320
1573889827.950,50.293,18.555,-355.469,28.320,37.598
1573889827.954,40.527,16.602,-847.656,15.625,-120.605
1573889827.958,47.363,22.949,-386.719,34.180,-52.734
1573889827.962,58.105,32.227,354.492,49.805,148.438
1573889827.965,48.828,37.109,-75.684,27.832,79.102
1573889827.969,30.273,31.250,-598.633,1.465,-95.215
1573889827.973,30.762,16.113,-50.781,17.090,-42.969
1573889827.977,49.316,11.719,633.789,44.434,140.625
1573889827.981,42.969,14.160,231.445,31.738,130.859
1573889827.985,19.043,12.207,-502.441,4.395,-64.941
1573889827.989,20.996,14.160,-195.312,16.602,-80.566
1573889827.993,38.574,22.461,484.863,45.410,112.793
1573889827.997,36.133,24.414,212.402,39.551,160.645
1573889828.001,14.160,8.789,-672.852,5.859,-3.906
1573889828.005,4.883,-1.953,-541.504,3.418,-93.262
1573889828.008,20.996,8.301,399.414,39.551,35.156
1573889828.012,30.762,7.812,582.031,43.457,173.340
1573889828.016,20.020,8.301,-228.516,14.648,13.184
1573889828.020,14.160,23.438,-611.816,7.812,-156.250
1573889828.024,27.832,32.715,194.336,32.715,-10.742
1573889828.028,36.621,27.344,657.227,44.922,160.645
1573889828.032,27.832,17.578,155.273,24.414,107.910
1573889828.036,15.625,11.230,-333.496,6.836,-75.684
1573889828.040,20.020,13.672,-95.215,26.367,-83.008
1573889828.044,41.992,19.531,171.387,53.223,86.426
1573889828.048,41.016,19.043,-108.887,40.527,117.188
1573889828.051,19.531,21.484,-317.871,12.695,-5.859
1573889828.055,20.020,25.879,-142.090,20.996,-86.426
1573889828.059,41.992,16.602,414.062,49.805,60.059
1573889828.063,45.410,7.812,543.945,41.992,187.012
1573889828.067,27.832,12.207,-108.887,14.160,-3.906
1573889828.071,22.461,18.066,-363.281,11.719,-131.836
1573889828.075,34.180,13.184,198.242,33.203,30.273
1573889828.079,40.039,16.113,523.438,45.898,170.898
1573889828.083,22.461,22.949,89.355,21.484,81.543
1573889828.087,9.277,20.996,-515.137,3.906,-79.102
1573889828.090,16.602,20.996,-335.449,21.484,-17.090
1573889828.094,26.855,23.438,392.090,34.180,168.945
1573889828.098,17.578,28.809,245.605,13.672,123.047
1573889828.102,2.441,33.203,-464.844,-3.906,-71.289
1573889828.106,8.301,24.414,-192.871,12.207,-62.012
1573889828.110,21.484,15.137,565.918,29.297,110.352
1573889828.114,20.996,24.902,405.273,21.973,146.484
1573889828.118,11.230,30.273,-328.613,0.977,0.488
1573889828.122,13.672,26.855,-323.730,7.812,-72.754
1573889828.126,29.297,30.762,465.332,32.715,71.777
1573889828.130,34.668,28.809,462.891,30.273,159.180
1573889828.133,20.508,18.555,-513.184,4.883,-19.531
1573889828.137,9.277,17.090,-827.637,-4.883,-144.531
1573889828.141,20.508,27.344,67.871,22.461,17.578
1573889828.145,33.203,21.484,627.441,40.039,192.871
1573889828.149,26.855,12.695,-283.691,19.043,61.035
1573889828.153,13.672,17.578,-871.094,4.883,-100.098
1573889828.157,16.602,23.926,-32.715,22.461,-7.812
1573889828.161,31.250,22.949,583.496,41.992,157.227
1573889828.165,30.273,21.973,105.957,27.832,126.953
1573889828.169,12.695,25.391,-403.320,1.953,-21.484
1573889828.173,8.789,19.531,-119.141,7.324,-68.848
1573889828.176,19.043,16.602,439.453,26.367,90.820
1573889828.180,22.949,21.973,197.754,25.879,158.691
1573889828.184,10.742,20.996,-546.875,2.930,-3.906
1573889828.188,5.859,25.391,-522.461,1.465,-94.238
1573889828.192,18.555,32.715,125.000,24.902,31.738
1573889828.196,18.066,28.320,126.465,19.531,161.133
1573889828.200,4.883,24.414,-343.262,-6.348,40.039
1573889828.204,2.441,23.438,-433.105,-7.812,-109.375
1573889828.208,15.137,21.973,67.383,19.043,-24.902
1573889828.212,24.414,19.043,492.188,33.691,156.250
1573889828.215,18.555,16.602,105.469,16.602,97.656
1573889828.219,7.324,24.902,-405.273,-2.441,-80.078
1573889828.223,12.207,27.832,-58.594,13.184,-46.875
1573889828.227,29.785,25.879,458.008,38.574,141.113
1573889828.231,26.367,22.461,132.324,24.414,158.691
1573889828.235,6.836,19.531,-481.445,-1.953,-28.320
1573889828.239,11.719,20.020,-573.242,5.371,-111.328
1573889828.243,30.273,20.996,-88.379,29.297,36.621
1573889828.247,37.598,29.785,298.340,31.738,158.691
1573889828.251,29.785,28.320,-189.453,10.742,28.320
1573889828.255,22.949,31.738,-428.223,8.301,-106.445
1573889828.258,30.273,38.086,312.500,30.273,28.320
1573889828.262,34.668,24.414,671.387,33.691,182.129
1573889828.266,24.902,16.113,-78.613,12.695,44.434
1573889828.270,12.695,19.043,-565.430,-0.977,-126.953
1573889828.274,22.461,18.555,-54.688,16.602,-47.852
1573889828.278,40.527,25.879,447.754,38.574,151.855
1573889828.282,35.156,34.668,-31.738,23.926,117.188
1573889828.286,21.973,40.039,-680.664,4.883,-71.777
1573889828.290,25.879,30.273,-185.059,20.020,-81.055
1573889828.294,34.668,13.184,596.191,44.434,102.539
1573889828.298,30.273,8.301,203.613,33.691,141.602
1573889828.301,6.348,9.766,-809.570,3.906,-51.758
1573889828.305,-0.488,20.020,-486.328,12.207,-102.051
1573889828.309,20.508,25.879,475.098,41.992,76.172
1573889828.313,24.902,19.531,495.117,39.551,182.129
1573889828.317,12.695,15.625,-207.031,14.648,21.484
1573889828.321,7.324,16.113,-537.109,14.648,-146.484
1573889828.325,22.461,20.020,33.203,42.969,-11.719
1573889828.329,40.527,21.973,144.531,51.758,134.277
1573889828.333,31.738,14.160,-557.129,23.926,12.695
1573889828.337,20.508,15.137,-578.613,10.742,-103.516
1573889828.340,28.809,17.090,18.066,28.809,-49.316
1573889828.344,41.504,16.602,480.957,45.898,129.395
1573889828.348,39.551,19.531,197.754,35.156,121.582
1573889828.352,26.367,16.113,-336.426,17.090,-69.336
1573889828.356,26.367,11.719,-205.566,28.809,-99.609
1573889828.360,41.016,13.672,357.422,53.223,76.172
1573889828.364,45.898,19.043,275.391,49.316,128.906
1573889828.368,30.762,16.602,-458.984,23.926,-22.461
1573889828.372,20.996,3.906,-605.469,21.484,-108.887
1573889828.376,34.180,3.906,-108.398,42.969,14.648
1573889828.380,44.434,13.672,330.078,50.293,176.758
1573889828.383,32.715,16.602,-46.875,29.297,43.457
1573889828.387,22.949,18.555,-470.215,16.113,-125.488
1573889828.391,30.273,19.043,116.211,36.621,-10.254
1573889828.395,35.156,12.695,627.930,46.387,161.133
1573889828.399,26.367,11.230,83.008,26.367,72.754
1573889828.403,14.648,12.207,-473.633,9.766,-80.078
1573889828.407,21.484,16.113,-20.996,25.879,-29.785
1573889828.411,36.621,20.020,708.496,48.828,173.828
1573889828.415,32.227,19.043,308.594,35.645,167.969
1573889828.419,19.043,18.555,-748.535,8.301,-50.293
1573889828.423,20.020,18.555,-721.680,11.719,-132.812
1573889828.426,29.297,15.137,338.867,38.574,64.453
1573889828.430,35.156,11.719,418.945,36.621,149.414
1573889828.434,21.973,14.648,-393.555,7.324,-22.461
1573889828.438,15.625,16.602,-398.438,5.859,-113.281
1573889828.442,33.691,23.926,389.160,37.598,15.137
1573889828.446,47.363,25.879,522.949,45.410,142.090
1573889828.450,34.180,12.207,-263.184,19.531,6.348
1573889828.454,18.066,4.395,-489.746,9.766,-127.930
1573889828.458,28.320,5.859,205.078,34.180,-41.504
1573889828.462,41.504,10.254,509.766,49.316,136.230
1573889828.465,36.621,11.719,-211.426,28.809,101.074
1573889828.469,22.461,7.324,-610.352,10.254,-75.684
1573889828.473,28.320,10.254,-3.906,31.738,-74.707
1573889828.477,44.922,14.160,660.156,53.711,116.211
1573889828.481,46.875,15.137,490.723,46.387,151.855
1573889828.485,27.832,14.160,-44.434,18.555,-34.180
1573889828.489,20.020,13.672,173.340,20.020,-62.988
1573889828.493,29.297,9.277,791.992,44.922,93.262
1573889828.497,22.949,0.488,723.633,32.715,156.738
1573889828.501,5.859,-1.953,95.215,3.906,0.000
1573889828.505,0.977,0.977,34.668,-0.488,-76.660
1573889828.508,19.531,13.672,556.152,29.297,42.969
1573889828.512,31.738,21.973,656.250,42.969,157.715
1573889828.516,12.695,17.090,224.609,12.695,81.543
1573889828.520,-0.488,8.301,-64.941,-1.953,-86.426
1573889828.524,11.230,-0.488,107.422,19.043,-38.086
1573889828.528,25.391,0.977,457.031,36.621,152.344
1573889828.532,22.461,8.301,385.742,26.855,119.141
1573889828.536,17.090,11.719,-128.906,13.672,-46.387
1573889828.540,21.973,18.555,69.824,22.949,-53.223
1573889828.544,35.156,20.508,753.418,43.945,104.492
1573889828.548,36.621,10.254,711.426,37.109,177.246
1573889828.551,18.555,-4.883,-91.797,5.371,-10.254
1573889828.555,16.602,-8.789,-254.883,12.207,-86.426
1573889828.559,32.227,2.441,389.648,43.457,76.660
1573889828.563,37.598,5.859,596.680,44.434,163.086
1573889828.567,32.227,15.625,-152.344,25.879,13.672
1573889828.571,25.391,24.902,-681.152,19.531,-117.188
1573889828.575,33.203,20.508,57.617,42.480,-26.367
1573889828.579,40.527,13.672,611.328,55.664,124.512
1573889828.583,29.297,14.160,1.953,33.691,65.430
1573889828.587,18.555,20.020,-475.098,19.531,-92.773
1573889828.590,23.926,17.090,127.441,31.738,-64.941
1573889828.594,39.062,21.973,729.980,47.363,132.812
1573889828.598,38.574,29.297,288.086,34.180,113.770
1573889828.602,20.020,25.879,-505.859,12.207,-73.242
1573889828.606,18.555,25.879,-292.969,19.043,-56.152
1573889828.610,34.668,29.297,483.398,42.969,114.258
1573889828.614,39.551,24.414,131.348,37.598,136.230
1573889828.618,25.391,21.973,-671.875,8.789,-15.625
1573889828.622,23.438,30.273,-327.148,16.602,-90.820
1573889828.626,41.016,24.902,420.410,47.852,43.457
1573889828.630,46.875,21.484,470.703,49.316,160.156
1573889828.633,38.086,23.926,-89.355,23.926,62.500
1573889828.637,33.691,17.578,-285.645,17.578,-69.824
1573889828.641,46.875,18.555,109.863,41.016,-22.461
1573889828.645,55.664,24.902,521.973,52.246,172.363
1573889828.649,47.363,23.438,0.488,28.320,95.215
1573889828.653,35.645,24.902,-644.043,14.648,-100.098
1573889828.657,40.039,18.555,-254.883,34.668,-68.848
1573889828.661,55.176,9.277,104.004,51.270,84.473
1573889828.665,49.805,11.230,-32.715,40.527,109.863
1573889828.669,39.062,10.742,-397.461,22.949,-51.270
1573889828.673,37.109,11.719,-323.242,29.785,-96.680
1573889828.676,47.852,9.766,373.535,52.246,100.098
1573889828.680,56.641,11.230,427.246,51.758,156.738
1573889828.684,43.945,13.672,-306.641,25.391,-33.203
1573889828.688,38.574,15.625,-526.855,20.508,-150.879
1573889828.692,52.246,24.414,132.324,48.340,-11.719
1573889828.696,61.523,23.926,354.492,61.035,144.043
1573889828.700,45.410,12.207,-345.703,31.738,21.973
1573889828.704,25.879,21.484,-964.355,7.324,-160.156
1573889828.708,34.668,26.855,-386.719,29.297,-54.688
1573889828.712,47.852,20.020,509.277,52.246,139.160
1573889828.715,38.574,20.020,107.422,33.691,72.266
1573889828.719,24.902,18.066,-536.133,15.137,-103.027
1573889828.723,31.250,26.367,-68.848,30.273,-73.242
1573889828.727,46.875,31.250,643.066,52.246,94.727
1573889828.731,41.992,20.996,343.750,39.062,138.672
1573889828.735,25.879,20.020,-364.258,12.695,-20.508
1573889828.739,27.832,23.438,-255.371,23.438,-126.465
1573889828.743,43.457,24.414,394.531,47.363,58.105
1573889828.747,49.805,25.879,352.539,41.504,178.711
1573889828.751,35.645,16.602,-638.184,6.836,-7.812
1573889828.755,26.855,19.531,-763.184,1.953,-116.211
1573889828.758,43.945,34.180,312.500,33.691,27.832
1573889828.762,51.758,27.344,593.262,37.109,151.367
1573889828.766,37.109,23.438,-62.500,8.301,48.828
1573889828.770,29.297,27.344,-312.012,-4.395,-77.148
1573889828.774,37.109,31.250,279.785,15.625,-13.672
1573889828.778,45.898,36.621,683.105,32.715,137.207
1573889828.782,43.457,34.180,203.613,18.555,97.168
1573889828.786,23.926,25.391,-358.887,-6.348,-58.594
1573889828.790,24.414,19.531,-264.160,3.906,-97.168
1573889828.794,40.527,20.020,245.605,28.320,60.059
1573889828.798,37.598,19.531,204.102,17.090,110.352
1573889828.801,24.902,24.902,-395.020,-1.953,-87.402
1573889828.805,20.996,35.156,-207.031,4.883,-108.398
1573889828.809,36.621,42.969,192.871,28.320,41.992
1573889828.813,40.039,37.109,122.070,26.367,122.559
1573889828.817,18.555,20.508,-138.184,-1.953,24.902
1573889828.821,11.230,17.578,-379.395,-3.906,-109.863
1573889828.825,27.832,25.879,167.969,24.902,4.395
1573889828.829,38.574,29.297,659.668,36.133,181.641
1573889828.833,30.273,27.832,184.570,19.531,90.820
1573889828.837,20.508,34.180,-570.801,5.859,-101.562
1573889828.840,24.414,40.527,-349.609,19.531,-48.828
1573889828.844,38.574,35.156,449.707,40.527,146.973
1573889828.848,35.645,26.855,314.453,27.832,128.418
1573889828.852,19.531,28.320,-526.367,5.371,-79.102
1573889828.856,22.949,35.156,-566.406,15.137,-103.516
1573889828.860,41.016,40.039,374.512,41.992,88.379
1573889828.864,47.852,35.156,435.547,41.016,154.297
1573889828.868,28.809,25.879,-483.398,13.184,-56.641
1573889828.872,21.973,21.484,-469.238,10.742,-121.094
1573889828.876,46.875,19.043,412.109,42.969,58.594
1573889828.880,53.711,20.996,630.371,49.316,178.711
1573889828.883,36.133,21.973,-176.758,22.949,61.035
1573889828.887,30.762,24.902,-730.957,14.160,-120.117
1573889828.891,41.016,32.715,-12.695,39.062,-31.738
1573889828.895,51.758,34.180,549.805,61.035,130.859
1573889828.899,37.109,29.297,-249.023,31.250,56.152
1573889828.903,16.113,30.762,-785.156,3.906,-76.660
1573889828.907,20.020,22.949,-52.734,23.438,-44.922
1573889828.911,37.109,20.508,581.055,49.805,130.859
1573889828.915,37.598,22.949,273.926,41.016,155.273
1573889828.919,16.113,15.137,-334.473,10.254,-21.484
1573889828.923,9.277,19.531,-196.777,15.625,-41.992
1573889828.926,33.203,33.691,414.551,50.781,113.281
1573889828.930,42.480,33.691,329.590,54.199,181.152
1573889828.934,21.484,18.066,-483.398,23.438,-3.906
1573889828.938,16.602,17.578,-536.621,19.531,-138.184
1573889828.942,36.621,25.391,149.414,47.852,-6.836
1573889828.946,46.387,30.273,25.879,50.781,120.117
1573889828.950,34.180,31.738,-429.199,24.414,55.176
1573889828.954,21.484,29.785,-344.238,15.625,-36.621
1573889828.958,32.715,35.156,109.375,36.133,2.441
1573889828.962,54.199,32.227,531.738,54.199,156.250
1573889828.965,49.805,20.996,201.660,33.203,112.793
1573889828.969,35.645,17.090,-421.875,11.719,-93.750
1573889828.973,42.480,20.996,-96.680,30.762,-42.969
1573889828.977,61.035,24.414,416.016,58.105,123.535
1573889828.981,61.035,25.879,65.430,51.270,128.418
1573889828.985,46.875,32.715,-503.906,30.273,-24.414
1573889828.989,49.805,42.969,-653.320,30.273,-124.512
1573889828.993,64.453,39.551,-160.645,46.875,38.086
1573889828.997,63.477,26.855,252.930,47.363,164.062
1573889829.001,46.387,18.066,-270.508,16.113,43.457
1573889829.005,41.504,19.531,-448.730,10.742,-53.223
1573889829.008,53.711,25.391,304.688,42.480,39.551
1573889829.012,64.941,30.762,750.977,60.547,194.824
1573889829.016,49.805,28.809,42.480,34.180,75.684
1573889829.020,30.762,22.461,-568.848,17.578,-130.371
1573889829.024,37.109,23.926,-116.211,38.574,-54.688
1573889829.028,40.527,20.996,474.609,49.805,146.973
1573889829.032,28.320,19.531,83.984,33.691,118.652
1573889829.036,12.695,17.578,-859.375,13.184,-90.332
1573889829.040,13.184,15.137,-437.500,25.391,-97.656
1573889829.044,26.367,12.207,529.297,49.805,91.309
1573889829.048,27.344,8.301,284.668,35.645,136.230
1573889829.051,18.555,12.695,-427.246,14.160,-7.324
1573889829.055,22.949,15.137,-287.598,25.391,-83.008
1573889829.059,40.039,13.672,437.500,50.781,60.547
1573889829.063,43.457,13.672,522.461,50.293,187.012
1573889829.067,31.738,19.043,-150.879,23.926,59.082
1573889829.071,27.344,24.902,-548.340,13.184,-91.309
1573889829.075,40.039,18.555,4.395,33.691,-11.230
1573889829.079,56.641,16.113,201.660,50.781,130.859
1573889829.083,46.875,18.066,-444.336,28.809,52.734
1573889829.087,29.785,18.066,-558.594,8.301,-99.121
1573889829.090,41.504,20.508,-0.488,30.273,-58.105
1573889829.094,52.734,15.625,399.902,48.828,110.840
1573889829.098,41.016,10.254,82.031,29.297,107.910
1573889829.102,27.832,12.695,-363.281,9.766,-48.828
1573889829.106,33.203,20.996,-192.383,21.484,-76.660
1573889829.110,44.922,17.578,386.230,41.504,92.773
1573889829.114,40.527,17.578,454.590,35.156,182.617
1573889829.118,23.438,21.484,-293.457,10.254,19.531
1573889829.122,26.855,23.438,-577.148,18.066,-85.938
1573889829.126,42.969,25.391,-140.137,44.922,19.043
1573889829.130,44.922,29.785,232.910,44.434,160.156
1573889829.133,28.320,26.855,-92.773,20.508,47.852
1573889829.137,17.578,21.484,-578.125,11.719,-146.973
1573889829.141,32.227,25.391,-27.344,39.551,-42.480
1573889829.145,44.922,31.250,667.969,54.688,179.688
1573889829.149,36.133,32.227,156.738,31.250,121.582
1573889829.153,22.949,29.785,-515.625,5.859,-57.129
1573889829.157,29.297,31.738,-105.469,17.090,-46.387
1573889829.161,40.527,33.203,614.746,38.574,129.883
1573889829.165,41.016,32.715,259.277,33.203,154.785
1573889829.169,31.738,35.156,-661.621,13.672,-23.926
1573889829.173,30.273,40.039,-430.664,17.090,-75.684
1573889829.176,41.504,41.016,456.055,42.969,61.035
1573889829.180,42.969,34.180,473.633,36.133,135.254
1573889829.184,31.738,22.461,-385.254,9.277,11.719
1573889829.188,26.855,17.090,-537.109,5.859,-105.469
1573889829.192,42.969,27.344,418.457,34.180,28.320
1573889829.196,51.270,35.156,723.633,43.945,177.246
1573889829.200,33.691,31.250,34.668,16.113,46.387
1573889829.204,18.066,27.832,-339.844,0.000,-111.816
1573889829.208,29.297,31.250,172.363,23.926,-37.598
1573889829.212,44.434,31.250,618.164,45.898,152.832
1573889829.215,41.504,29.785,-62.500,30.273,84.473
1573889829.219,26.367,29.297,-511.719,9.766,-110.840
1573889829.223,28.809,26.367,194.824,21.973,-64.941
1573889829.227,46.387,28.320,796.875,45.898,107.422
1573889829.231,47.852,31.250,558.105,40.039,132.812
1573889829.235,29.297,32.715,-9.766,10.742,-43.945
1573889829.239,19.531,32.227,121.094,8.301,-89.844
1573889829.243,35.156,28.320,779.785,37.109,82.520
1573889829.247,48.340,33.691,796.875,43.945,172.363
1573889829.251,33.691,32.715,109.863,18.066,-8.301
1573889829.255,22.461,22.461,-158.691,15.625,-160.156
1573889829.258,40.039,27.832,356.445,44.434,-12.207
1573889829.262,51.758,39.551,564.453,49.805,157.227
1573889829.266,35.645,34.668,51.758,21.973,62.012
1573889829.270,19.531,25.879,-205.078,3.906,-84.473
1573889829.274,29.297,28.320,-11.230,20.508,-74.707
1573889829.278,48.828,39.551,450.684,45.898,110.352
1573889829.282,50.293,41.016,468.750,41.504,138.184
1573889829.286,32.715,29.785,-207.031,19.531,-83.496
1573889829.290,35.645,26.855,-105.957,33.203,-122.070
1573889829.294,61.035,31.250,653.809,62.500,86.914
1573889829.298,64.453,31.738,622.559,53.223,157.227
1573889829.301,42.480,30.273,-130.371,25.391,6.836
1573889829.305,37.598,34.668,-344.727,25.879,-87.402
1573889829.309,53.711,39.062,228.516,50.781,25.391
1573889829.313,59.082,37.598,562.012,51.758,165.527
1573889829.317,44.922,29.785,-149.902,26.367,27.344
1573889829.321,30.273,32.227,-808.594,13.672,-139.648
1573889829.325,36.133,39.551,-48.828,38.574,-39.062
1573889829.329,46.875,39.062,654.785,57.129,147.461
1573889829.333,35.156,35.156,56.641,31.250,84.473
1573889829.337,18.066,32.227,-530.273,10.254,-94.727
1573889829.340,24.414,34.668,12.695,24.414,-60.547
1573889829.344,43.457,31.250,629.395,44.434,120.117
1573889829.348,41.016,31.738,233.887,34.668,125.000
1573889829.352,24.902,35.156,-589.355,8.301,-73.730
1573889829.356,22.461,26.855,-548.828,10.254,-129.883
1573889829.360,34.180,26.367,230.957,34.668,55.176
1573889829.364,40.527,36.133,41.016,32.715,122.559
1573889829.368,26.367,34.668,-689.453,6.836,11.230
1573889829.372,19.531,34.668,-365.723,7.812,-52.734
1573889829.376,36.133,38.574,197.754,38.086,10.254
1573889829.380,42.480,30.273,276.855,44.922,131.836
1573889829.383,32.715,27.344,-188.477,22.949,41.992
1573889829.387,23.926,32.715,-408.203,10.742,-81.543
1573889829.391,40.039,37.109,111.328,30.273,0.977
1573889829.395,54.199,41.016,504.395,43.945,164.062
1573889829.399,38.574,39.062,-60.059,20.996,102.051
1573889829.403,22.461,31.738,-703.125,1.953,-78.613
1573889829.407,32.227,30.273,-358.887,20.996,-73.730
1573889829.411,46.875,31.250,41.992,35.645,81.055
1573889829.415,38.086,27.344,-3.418,17.090,117.676
1573889829.419,25.391,32.227,-422.852,-0.488,-39.551
1573889829.423,23.926,35.156,-410.645,4.395,-87.891
1573889829.426,31.738,36.133,397.461,26.855,97.656
1573889829.430,36.133,31.738,488.281,28.809,176.758
1573889829.434,20.996,21.973,-297.852,0.488,-2.930
1573889829.438,15.625,20.996,-469.727,-2.441,-114.258
1573889829.442,32.715,23.438,253.906,30.273,24.414
1573889829.446,40.039,24.414,467.285,37.598,158.691
1573889829.450,27.344,29.785,-146.973,13.672,61.523
1573889829.454,14.160,29.785,-723.633,1.465,-101.562
1573889829.458,20.996,22.949,-334.473,17.578,-48.340
1573889829.462,33.203,22.949,581.543,38.086,143.555
1573889829.465,30.762,20.508,319.824,26.367,137.695
1573889829.469,19.531,16.113,-396.484,4.395,-42.480
1573889829.473,24.902,22.949,-81.543,19.043,-69.336
1573889829.477,42.969,28.320,645.020,46.875,91.309
1573889829.481,40.527,31.738,405.762,37.598,128.418
1573889829.485,26.367,27.344,-362.305,11.719,-38.574
1573889829.489,26.855,20.508,-324.219,17.090,-84.961
1573889829.493,40.039,24.414,311.523,44.922,62.500
1573889829.497,48.828,30.762,282.227,46.875,133.301
1573889829.501,38.086,33.203,-587.402,16.113,-6.348
1573889829.505,26.855,29.785,-620.117,4.395,-104.004
1573889829.508,39.551,25.879,340.820,32.715,9.766
1573889829.512,55.176,20.508,626.465,47.363,155.762
1573889829.516,41.992,13.672,-8.301,21.484,61.523
1573889829.520,22.461,11.230,-350.098,-1.953,-89.355
1573889829.524,32.227,22.461,153.809,16.602,-37.598
1573889829.528,53.711,28.809,568.848,43.457,107.422
1573889829.532,46.875,21.484,126.465,29.297,77.637
1573889829.536,24.414,18.555,-374.512,1.465,-54.688
1573889829.540,24.902,21.484,-184.082,10.742,-45.898
1573889829.544,41.992,30.762,247.070,37.109,103.516
1573889829.548,37.598,33.203,159.668,27.344,129.395
1573889829.551,19.043,24.414,-282.227,3.906,-0.977
1573889829.555,15.137,24.414,-208.008,7.812,-66.895
1573889829.559,29.785,27.832,172.363,31.738,42.480
1573889829.563,37.598,26.855,244.629,40.527,160.156
1573889829.567,19.043,20.508,-148.926,12.695,31.250
1573889829.571,5.371,17.090,-442.871,0.000,-97.656
1573889829.575,20.020,21.484,102.539,28.809,-0.977
1573889829.579,36.133,24.414,621.094,41.016,171.875
1573889829.583,25.879,21.484,184.570,17.578,118.652
1573889829.587,14.160,19.531,-517.090,4.395,-44.922
1573889829.590,23.926,30.273,-516.113,22.461,-62.500
1573889829.594,37.598,36.133,237.305,39.062,108.398
1573889829.598,34.668,25.879,229.492,25.391,111.816
1573889829.602,16.602,18.555,-566.406,-3.418,-51.270
1573889829.606,19.531,27.344,-443.359,6.836,-93.750
1573889829.610,38.574,32.715,426.758,38.574,61.523
1573889829.614,40.039,27.832,481.934,36.133,145.996
1573889829.618,27.832,27.344,-276.367,7.812,6.836
1573889829.622,22.949,32.715,-516.602,7.324,-135.742
1573889829.626,34.180,30.273,228.027,28.320,-9.766
1573889829.630,40.527,20.996,547.852,28.809,177.734
