timestamps,TP9,AF7,AF8,TP10,Right AUX
1573889645.911,29.297,28.320,151.855,19.043,121.094
1573889645.915,17.090,24.902,-164.551,4.883,-60.547
1573889645.919,21.973,25.391,-106.445,16.113,-89.355
1573889645.923,41.504,33.691,307.129,44.922,112.793
1573889645.926,42.480,25.391,240.723,40.527,145.020
1573889645.930,28.320,19.043,-275.879,17.578,-22.949
1573889645.934,27.344,21.484,-622.070,19.531,-109.863
1573889645.938,43.945,24.414,-198.730,42.969,37.598
1573889645.942,50.781,29.785,246.094,48.340,156.250
1573889645.946,40.527,26.855,-143.066,27.832,26.855
1573889645.950,36.133,23.926,-280.273,24.902,-68.848
1573889645.954,45.898,28.320,228.516,40.527,41.016
1573889645.958,54.199,31.738,434.570,41.504,169.434
1573889645.962,47.363,30.762,-25.879,24.414,77.637
1573889645.965,39.551,28.320,-308.105,16.113,-75.684
1573889645.969,52.734,35.645,90.820,31.250,-16.602
1573889645.973,65.430,40.527,403.809,48.340,137.695
1573889645.977,52.246,23.438,-152.832,34.180,81.055
1573889645.981,30.273,14.648,-694.336,12.695,-100.098
1573889645.985,26.855,25.391,-217.285,20.020,-81.543
1573889645.989,38.574,31.250,354.004,43.457,97.168
1573889645.993,33.203,31.250,-51.758,38.086,114.746
1573889645.997,18.066,28.809,-643.555,17.090,-56.152
1573889646.001,17.578,22.949,-249.512,22.949,-102.051
1573889646.005,37.598,25.391,272.949,48.828,50.781
1573889646.008,44.434,24.414,253.906,48.340,164.062
1573889646.012,32.227,18.066,-107.910,23.926,52.734
1573889646.016,31.738,25.879,-126.465,22.461,-59.570
1573889646.020,42.480,35.645,246.582,42.480,34.668
1573889646.024,50.781,34.668,243.652,51.270,152.344
1573889646.028,47.852,23.438,-247.559,33.691,71.289
1573889646.032,37.598,18.555,-421.387,20.020,-71.289
1573889646.036,41.016,25.391,2.930,35.645,-22.461
1573889646.040,54.199,31.738,-11.719,49.805,105.469
1573889646.044,47.852,33.203,-270.996,36.621,67.871
1573889646.048,31.250,29.785,-407.227,16.602,-107.910
1573889646.051,33.203,33.203,-340.820,24.414,-107.422
1573889646.055,48.828,26.367,188.477,42.969,103.516
1573889646.059,52.246,16.602,280.762,40.039,145.508
1573889646.063,36.621,20.508,-114.746,18.066,-30.273
1573889646.067,30.273,27.832,-166.016,14.160,-99.609
1573889646.071,37.598,31.250,110.352,31.738,35.645
1573889646.075,35.645,27.344,137.207,27.832,145.996
1573889646.079,22.461,27.832,-228.516,3.418,20.020
1573889646.083,17.578,31.250,-500.977,-6.836,-100.098
1573889646.087,24.902,26.855,-268.555,8.789,4.395
1573889646.090,27.832,22.949,227.539,22.461,138.672
1573889646.094,18.066,19.531,84.473,7.324,70.801
1573889646.098,7.324,18.555,-276.855,-2.441,-84.961
1573889646.102,14.648,18.066,8.789,17.090,-58.105
1573889646.106,29.785,20.996,287.598,39.551,77.148
1573889646.110,32.227,25.879,62.500,36.621,83.008
1573889646.114,23.438,32.227,-319.336,20.508,-68.848
1573889646.118,25.879,39.551,-275.391,29.297,-109.375
1573889646.122,36.133,39.551,187.988,48.828,74.219
1573889646.126,38.086,33.203,163.086,46.875,159.668
1573889646.130,26.367,24.414,-172.852,23.926,37.598
1573889646.133,23.438,24.414,-104.980,21.973,-92.773
1573889646.137,34.668,32.715,375.488,45.898,21.973
1573889646.141,42.969,37.598,438.477,55.664,172.852
1573889646.145,35.156,42.480,-111.328,35.645,18.555
1573889646.149,20.996,39.062,-223.145,17.090,-144.531
1573889646.153,31.738,29.785,349.121,31.738,-7.324
1573889646.157,56.152,38.086,521.484,53.711,168.457
1573889646.161,58.594,45.898,-70.312,42.969,102.051
1573889646.165,40.527,35.156,-334.961,19.531,-62.500
1573889646.169,42.480,35.645,13.672,29.297,-57.617
1573889646.173,58.105,39.551,337.891,44.922,104.492
1573889646.176,53.711,32.227,268.066,35.156,145.508
1573889646.180,39.062,27.344,128.906,15.137,-6.836
1573889646.184,34.668,24.902,342.773,15.625,-57.617
1573889646.188,46.875,31.250,442.871,37.598,55.664
1573889646.192,51.758,38.574,231.934,35.645,108.887
1573889646.196,34.180,27.832,136.230,13.184,-9.766
1573889646.200,28.320,21.973,115.234,12.695,-125.000
1573889646.204,52.246,31.250,486.328,47.852,8.301
1573889646.208,60.059,30.762,719.238,61.523,158.691
1573889646.212,42.969,24.902,221.191,38.574,29.785
1573889646.215,31.250,24.902,-134.766,29.297,-90.332
1573889646.219,31.738,24.902,224.609,36.621,-13.672
1573889646.223,44.434,24.902,656.738,48.340,131.348
1573889646.227,44.922,20.508,558.594,41.016,119.629
1573889646.231,31.738,20.020,115.234,26.367,-77.637
1573889646.235,36.621,26.855,-132.324,39.062,-109.375
1573889646.239,48.828,30.273,288.574,62.500,76.172
1573889646.243,43.457,27.344,552.246,54.688,138.184
1573889646.247,25.391,19.043,73.242,28.320,-27.832
1573889646.251,21.484,20.020,-17.090,27.344,-125.488
1573889646.255,30.273,22.949,475.586,41.992,16.602
1573889646.258,33.691,27.832,421.875,45.410,128.418
1573889646.262,20.996,33.691,-185.547,20.508,0.977
1573889646.266,13.672,34.180,-186.035,9.277,-99.121
1573889646.270,23.438,32.715,397.949,28.320,13.672
1573889646.274,29.297,28.809,546.875,35.645,144.043
1573889646.278,21.484,29.297,-137.695,12.207,69.824
1573889646.282,10.254,31.250,-564.941,-5.371,-85.449
1573889646.286,13.184,30.762,49.805,11.719,-42.969
1573889646.290,33.203,34.180,541.992,35.156,150.391
1573889646.294,35.645,40.039,193.359,30.273,130.859
1573889646.298,21.484,43.945,-255.371,10.742,-80.566
1573889646.301,29.297,45.410,23.926,20.508,-71.289
1573889646.305,46.387,41.504,364.258,45.410,110.352
1573889646.309,41.504,39.062,-194.824,34.668,112.793
1573889646.313,15.625,37.598,-697.754,2.930,-56.641
1573889646.317,9.766,43.945,-251.465,0.977,-103.516
1573889646.321,27.832,58.594,265.625,27.344,57.129
1573889646.325,24.414,48.828,223.145,24.414,163.086
1573889646.329,11.719,33.691,-176.270,4.883,44.922
1573889646.333,15.625,41.016,-327.637,7.324,-87.891
1573889646.337,19.531,52.734,15.625,18.066,13.672
1573889646.340,25.391,57.129,227.051,25.879,167.969
1573889646.344,18.555,52.734,15.625,6.836,119.629
1573889646.348,6.348,43.945,-228.516,-7.812,-43.457
1573889646.352,13.672,37.598,-312.500,4.883,-58.105
1573889646.356,21.973,35.156,-172.852,13.184,116.211
1573889646.360,18.555,36.133,-71.289,5.859,142.578
1573889646.364,16.602,41.016,-304.199,-1.953,-21.973
1573889646.368,16.602,43.457,-308.594,0.977,-64.941
1573889646.372,24.902,50.293,74.219,17.578,90.332
1573889646.376,29.297,55.664,182.617,19.531,153.809
1573889646.380,25.391,46.875,-232.910,4.883,-16.602
1573889646.383,19.043,41.992,-469.727,0.488,-132.812
1573889646.387,25.391,41.992,-150.879,17.578,2.930
1573889646.391,39.062,40.039,103.516,35.156,148.926
1573889646.395,41.504,33.691,-145.508,30.273,59.082
1573889646.399,37.109,35.645,-447.754,26.855,-98.633
1573889646.403,36.621,43.945,-196.289,33.691,-31.250
1573889646.407,47.852,46.387,201.660,44.434,136.719
1573889646.411,49.316,41.992,-7.812,40.039,87.891
1573889646.415,31.250,27.344,-628.906,20.020,-86.426
1573889646.419,29.785,31.738,-362.305,28.809,-78.125
1573889646.423,46.387,40.527,363.770,54.688,98.633
1573889646.426,43.457,39.062,156.250,43.945,114.258
1573889646.430,26.855,34.180,-230.469,19.043,-13.184
1573889646.434,32.715,39.062,0.000,29.785,-63.965
1573889646.438,49.805,45.898,415.527,54.199,49.316
1573889646.442,41.992,39.062,313.965,40.527,135.254
1573889646.446,26.367,33.691,-226.562,14.160,9.766
1573889646.450,24.902,37.109,-347.168,14.648,-93.262
1573889646.454,37.598,37.598,141.113,34.668,0.977
1573889646.458,44.922,38.574,175.781,38.574,113.281
1573889646.462,29.785,38.574,-362.793,15.137,31.250
1573889646.465,16.602,31.250,-209.961,1.953,-60.059
1573889646.469,27.832,28.809,326.172,21.973,10.254
1573889646.473,38.574,32.227,479.492,35.645,138.184
1573889646.477,34.668,31.250,231.934,20.508,119.629
1573889646.481,31.250,31.250,18.555,10.742,-17.090
1573889646.485,42.969,39.062,174.805,24.902,-36.133
1573889646.489,59.570,38.086,313.965,45.410,57.617
1573889646.493,55.176,35.645,102.539,45.898,109.863
1573889646.497,41.016,36.621,-313.477,27.832,-30.762
1573889646.501,41.992,36.621,-311.035,33.203,-94.238
1573889646.505,57.617,38.086,-94.238,56.152,43.457
1573889646.508,61.035,42.969,80.078,59.082,149.902
1573889646.512,50.293,43.457,65.918,40.527,40.039
1573889646.516,38.086,35.156,-112.793,29.785,-81.543
1573889646.520,39.062,33.203,159.180,41.992,15.137
1573889646.524,46.387,33.691,421.387,50.293,131.836
1573889646.528,38.086,25.879,166.504,33.203,82.031
1573889646.532,27.344,25.879,-180.176,17.578,-65.430
1573889646.536,36.621,35.156,-81.055,31.250,-67.383
1573889646.540,47.852,36.133,152.344,49.316,101.074
1573889646.544,44.434,28.809,-47.852,42.969,101.074
1573889646.548,32.715,26.855,-522.461,18.555,-53.223
1573889646.551,22.949,33.691,-449.219,11.230,-46.875
1573889646.555,35.645,40.039,128.906,36.133,71.289
1573889646.559,34.180,35.645,152.832,33.691,123.535
1573889646.563,12.207,25.391,-227.539,5.859,-4.883
1573889646.567,6.348,24.414,-243.652,3.906,-113.770
1573889646.571,15.137,28.320,236.816,18.066,12.207
1573889646.575,18.066,30.273,352.539,20.996,150.391
1573889646.579,14.160,31.250,-101.074,13.184,43.457
1573889646.583,11.230,32.715,-247.559,8.789,-96.680
1573889646.587,19.043,28.320,34.668,22.461,-15.625
1573889646.590,34.668,22.949,126.953,42.480,126.953
1573889646.594,33.203,26.855,-380.859,31.738,83.984
1573889646.598,27.344,34.180,-582.031,19.531,-53.711
1573889646.602,40.039,37.109,42.969,36.133,-38.574
1573889646.606,51.270,30.273,333.008,49.805,109.375
1573889646.610,50.293,29.785,92.285,37.109,135.254
1573889646.614,40.527,29.297,-253.906,17.090,-21.484
1573889646.618,41.016,28.809,-120.605,26.855,-75.195
1573889646.622,56.152,35.645,296.875,49.316,85.449
1573889646.626,56.641,33.691,205.566,44.922,150.391
1573889646.630,40.039,27.344,-148.438,22.461,0.977
1573889646.633,36.621,22.949,-249.023,21.484,-87.402
1573889646.637,48.828,22.949,-137.695,43.457,12.695
1573889646.641,50.781,23.438,-188.477,45.410,118.164
1573889646.645,39.062,23.438,-272.949,22.461,38.574
1573889646.649,33.203,26.367,-256.836,13.672,-91.797
1573889646.653,40.527,24.902,11.230,31.250,-29.785
1573889646.657,48.828,22.461,252.930,46.875,121.094
1573889646.661,37.598,20.020,53.223,34.668,74.219
1573889646.665,19.531,27.344,-250.977,17.578,-86.426
1573889646.669,21.973,32.715,-83.008,27.832,-63.965
1573889646.673,33.691,25.391,166.016,46.387,93.262
1573889646.676,24.414,15.137,76.172,34.668,122.070
1573889646.680,14.648,14.648,-270.996,18.555,0.977
1573889646.684,20.508,21.973,-537.109,21.973,-64.941
1573889646.688,33.691,27.832,-123.535,36.133,55.664
1573889646.692,42.480,35.645,316.895,44.922,163.086
1573889646.696,33.691,36.621,-53.711,28.320,52.246
1573889646.700,23.926,30.762,-267.578,17.090,-72.266
1573889646.704,31.250,19.531,194.824,32.715,18.066
1573889646.708,40.039,11.719,437.500,41.992,169.922
1573889646.712,32.227,17.578,-18.066,22.461,88.379
1573889646.715,20.508,20.020,-280.762,7.324,-46.387
1573889646.719,32.227,28.809,92.285,26.367,-22.461
1573889646.723,48.828,42.480,442.383,45.410,138.184
1573889646.727,41.504,39.062,-35.156,25.879,118.652
1573889646.731,22.949,17.090,-700.195,-3.906,-77.637
1573889646.735,25.391,11.230,-357.422,1.953,-91.309
1573889646.739,39.062,20.508,268.555,23.926,75.684
1573889646.743,35.645,23.438,108.887,18.066,123.535
1573889646.747,21.973,23.438,-394.531,-7.812,-23.926
1573889646.751,19.043,27.344,-185.547,-9.277,-88.379
1573889646.755,40.039,38.574,288.086,24.414,20.996
1573889646.758,61.523,37.109,210.938,43.945,103.027
1573889646.762,54.199,25.391,-206.055,26.367,-8.789
1573889646.766,39.551,18.555,-245.117,11.230,-120.117
1573889646.770,46.387,25.391,202.148,28.320,1.953
1573889646.774,56.152,33.691,242.188,44.434,135.742
1573889646.778,47.852,28.320,-249.512,26.367,54.688
1573889646.782,35.645,32.227,-414.062,12.695,-78.613
1573889646.786,46.387,37.598,-121.582,32.227,-59.082
1573889646.790,59.570,33.691,-60.059,48.828,89.355
1573889646.794,50.781,34.668,-192.383,37.598,94.238
1573889646.798,39.062,31.250,-159.668,25.391,-29.297
1573889646.801,44.434,26.367,-41.016,33.691,-59.082
1573889646.805,58.105,25.879,298.340,52.734,96.680
1573889646.809,59.570,24.902,277.344,51.270,126.953
1573889646.813,43.945,26.855,-144.531,25.391,-51.758
1573889646.817,41.016,34.180,-222.656,20.996,-119.629
1573889646.821,56.641,28.809,50.781,44.922,23.438
1573889646.825,54.199,20.996,107.910,43.457,129.395
1573889646.829,36.621,28.320,-90.820,20.508,44.434
1573889646.833,30.762,33.691,-312.012,11.230,-95.703
1573889646.837,37.109,30.273,-209.473,26.855,-63.965
1573889646.840,49.316,31.250,294.434,43.945,119.629
1573889646.844,46.387,38.086,196.777,31.738,68.848
1573889646.848,33.691,45.410,-128.418,21.973,-112.793
1573889646.852,45.410,47.852,241.699,43.945,-45.410
1573889646.856,66.895,36.621,806.152,65.918,160.645
1573889646.860,65.430,25.879,579.102,55.176,142.578
1573889646.864,50.781,27.832,37.109,35.156,-51.270
1573889646.868,48.828,35.645,53.711,40.527,-91.309
1573889646.872,59.570,37.598,479.492,57.129,90.820
1573889646.876,63.477,39.551,470.215,54.688,165.039
1573889646.880,48.828,40.527,-159.180,29.785,-2.441
1573889646.883,31.250,36.133,-111.816,13.184,-93.262
1573889646.887,40.527,34.180,661.133,30.762,47.852
1573889646.891,48.828,29.785,781.738,39.062,180.176
1573889646.895,29.297,25.391,83.984,12.207,42.969
1573889646.899,12.207,21.484,-118.164,-4.395,-102.539
1573889646.903,25.391,26.855,446.777,20.020,-28.320
1573889646.907,43.945,36.133,750.977,42.480,148.926
1573889646.911,38.086,29.297,455.078,29.297,109.375
1573889646.915,20.996,24.902,58.105,7.812,-55.664
1573889646.919,18.066,27.344,207.031,13.672,-28.320
1573889646.923,28.809,22.461,443.848,24.902,95.703
1573889646.926,20.508,21.973,347.168,14.160,121.582
1573889646.930,5.371,23.926,87.891,-1.465,-41.992
1573889646.934,4.395,27.344,224.121,2.930,-104.004
1573889646.938,17.090,24.902,373.047,20.508,49.316
1573889646.942,26.367,26.855,148.926,24.902,139.648
1573889646.946,20.508,31.738,60.547,15.625,21.484
1573889646.950,15.137,25.879,60.547,7.812,-89.844
1573889646.954,31.250,27.344,300.293,29.297,9.766
1573889646.958,49.316,33.691,461.914,51.758,163.574
1573889646.962,40.527,31.738,64.453,34.668,78.613
1573889646.965,28.809,29.785,-316.406,24.902,-96.191
1573889646.969,35.156,31.250,-191.895,43.945,-18.555
1573889646.973,48.340,31.738,106.445,57.617,121.094
1573889646.977,42.969,21.973,132.324,44.434,84.961
1573889646.981,29.297,22.461,-191.895,23.438,-41.016
1573889646.985,31.250,29.785,-67.871,29.297,-51.270
1573889646.989,41.504,31.738,429.199,42.969,110.840
1573889646.993,41.504,27.344,370.605,35.156,152.344
1573889646.997,24.902,24.902,-112.305,11.719,18.555
1573889647.001,18.555,32.715,-141.113,9.277,-58.105
1573889647.005,33.203,33.203,291.992,30.762,47.852
1573889647.008,37.109,29.785,270.996,35.645,160.156
1573889647.012,21.484,29.297,-435.547,8.789,33.691
1573889647.016,7.812,30.273,-764.160,-7.324,-111.816
1573889647.020,18.066,34.668,-74.219,16.602,-11.719
1573889647.024,27.832,31.738,333.984,31.738,134.277
1573889647.028,15.137,26.367,-168.457,12.695,83.008
1573889647.032,4.395,25.391,-516.113,4.395,-73.730
1573889647.036,10.254,29.785,-53.711,20.508,-47.363
1573889647.040,30.273,41.992,380.859,44.922,141.602
1573889647.044,26.855,34.668,-55.176,34.668,111.816
1573889647.048,9.277,23.438,-514.648,12.695,-69.824
1573889647.051,8.301,27.832,-145.996,18.555,-74.219
1573889647.055,20.996,20.508,182.617,38.086,88.379
1573889647.059,31.250,12.695,-273.926,40.039,117.188
1573889647.063,19.531,21.973,-634.277,16.602,-11.719
1573889647.067,21.484,33.691,-294.922,22.461,-62.012
1573889647.071,46.387,35.156,75.195,52.734,26.367
1573889647.075,52.734,33.691,143.555,54.688,134.277
1573889647.079,38.086,29.297,-56.641,30.273,61.523
1573889647.083,29.297,20.020,-94.727,17.578,-48.340
1573889647.087,38.086,20.508,140.137,32.715,7.324
1573889647.090,49.805,29.785,253.418,46.875,126.465
1573889647.094,45.410,35.645,27.832,32.715,82.520
1573889647.098,29.297,35.156,-97.656,12.695,-24.414
1573889647.102,32.715,29.785,-104.980,24.902,-33.203
1573889647.106,45.898,24.414,-22.949,43.945,89.355
1573889647.110,37.598,20.020,90.332,32.715,127.930
1573889647.114,22.461,25.879,-144.043,12.695,-46.875
1573889647.118,23.438,36.133,-224.609,15.625,-124.023
1573889647.122,31.738,27.832,71.777,29.297,48.828
1573889647.126,33.203,13.184,166.016,29.297,141.602
1573889647.130,20.996,13.184,-106.934,6.836,8.301
1573889647.133,14.648,17.090,-147.461,-2.441,-81.055
1573889647.137,26.855,18.066,318.848,19.531,57.129
1573889647.141,37.109,21.973,486.328,31.738,161.133
1573889647.145,33.691,27.344,39.551,22.949,42.969
1573889647.149,27.344,26.367,-212.891,18.555,-46.875
1573889647.153,32.227,20.020,39.551,36.133,23.926
1573889647.157,44.922,21.484,274.414,51.758,128.418
1573889647.161,47.363,26.855,28.809,44.434,73.730
1573889647.165,31.250,25.391,-551.270,23.438,-85.449
1573889647.169,23.438,23.438,-365.234,21.484,-72.754
1573889647.173,40.527,26.367,357.422,38.574,109.863
1573889647.176,48.828,31.738,227.051,37.109,133.301
1573889647.180,35.645,29.297,-349.609,17.090,-47.363
1573889647.184,33.203,24.902,-118.164,15.625,-74.707
1573889647.188,47.363,24.902,437.988,37.109,78.613
1573889647.192,52.734,27.832,374.512,42.480,172.852
1573889647.196,39.551,35.156,-234.375,21.973,32.715
1573889647.200,23.438,27.832,-425.293,9.766,-93.750
1573889647.204,25.391,14.648,163.086,21.484,19.043
1573889647.208,38.086,20.020,285.156,30.273,175.293
1573889647.212,27.344,25.879,-373.047,11.230,61.035
1573889647.215,5.859,24.902,-369.141,-7.812,-85.938
1573889647.219,15.625,22.461,151.367,10.742,-13.672
1573889647.223,35.156,29.297,298.828,32.227,119.141
1573889647.227,28.809,31.250,20.508,21.484,101.074
1573889647.231,13.184,23.438,-155.273,3.906,-37.109
1573889647.235,19.531,21.484,-85.449,14.160,-76.660
1573889647.239,42.969,25.879,216.797,41.504,97.656
1573889647.243,53.223,30.273,71.289,47.363,137.207
1573889647.247,44.434,31.250,-428.711,30.762,-49.316
1573889647.251,41.992,28.809,-250.000,35.645,-101.074
1573889647.255,59.570,31.738,-63.965,59.082,40.039
1573889647.258,65.918,39.551,-13.672,60.059,146.973
1573889647.262,49.805,38.086,-22.461,36.133,55.176
1573889647.266,44.922,35.156,-219.727,29.785,-89.844
1573889647.270,55.176,36.133,-10.742,48.828,-32.227
1573889647.274,58.594,33.691,305.176,54.688,135.742
1573889647.278,47.363,30.273,90.820,37.109,93.262
1573889647.282,39.062,37.109,-284.180,27.832,-83.984
1573889647.286,47.363,41.992,-74.707,43.945,-69.824
1573889647.290,49.316,37.109,222.656,50.781,120.117
1573889647.294,34.180,31.738,-49.805,30.762,123.535
1573889647.298,18.066,22.949,-493.164,12.207,-47.363
1573889647.301,13.184,12.695,-678.711,12.695,-108.887
1573889647.305,27.344,23.926,-4.395,32.715,85.938
1573889647.309,29.785,30.273,373.535,28.809,199.219
1573889647.313,11.230,26.367,-161.621,1.465,15.625
1573889647.317,9.277,29.297,-193.848,2.930,-72.754
1573889647.321,18.555,35.645,379.883,20.020,77.148
1573889647.325,28.320,38.574,393.555,29.297,158.203
1573889647.329,24.902,32.715,-164.062,21.973,22.461
1573889647.333,16.602,20.020,-280.762,15.625,-97.168
1573889647.337,25.879,14.160,-20.508,28.809,-35.156
1573889647.340,40.527,15.625,100.586,47.852,117.676
1573889647.344,41.504,20.020,-378.418,38.086,77.148
1573889647.348,28.809,30.273,-737.305,19.043,-75.684
1573889647.352,35.156,40.039,-127.441,34.180,-29.785
1573889647.356,54.199,36.133,305.664,59.570,115.723
1573889647.360,52.734,31.738,129.395,52.734,147.949
1573889647.364,45.898,30.273,-138.184,33.203,-19.531
1573889647.368,44.922,25.391,-47.852,37.598,-110.352
1573889647.372,53.711,24.902,262.207,55.664,58.594
1573889647.376,57.129,27.832,172.852,53.223,127.441
1573889647.380,44.922,32.715,-172.363,34.180,15.625
1573889647.383,35.156,35.156,-267.578,28.320,-80.566
1573889647.387,44.922,34.180,-90.332,41.504,0.488
1573889647.391,53.223,31.250,-128.418,47.363,124.512
1573889647.395,38.086,22.461,-169.434,30.762,69.824
1573889647.399,23.438,20.020,-110.840,18.555,-51.270
1573889647.403,31.250,32.227,123.535,31.250,-10.254
1573889647.407,42.480,41.992,266.113,45.898,133.789
1573889647.411,28.320,37.598,17.578,29.785,67.383
1573889647.415,14.648,31.250,-243.652,14.160,-96.191
1573889647.419,22.461,30.273,-42.969,27.832,-60.059
1573889647.423,30.762,31.738,370.117,43.457,106.445
1573889647.426,32.227,32.227,318.359,40.039,140.137
1573889647.430,23.926,30.762,-215.820,21.973,-35.156
1573889647.434,22.461,30.273,-530.273,16.602,-103.516
1573889647.438,37.598,35.645,-57.617,37.598,64.941
1573889647.442,44.922,41.016,251.953,46.387,117.676
1573889647.446,30.762,37.598,-141.602,27.344,7.812
1573889647.450,26.855,40.527,-301.270,23.438,-93.262
1573889647.454,45.898,41.504,191.895,47.363,2.930
1573889647.458,56.152,28.320,504.395,57.617,166.992
1573889647.462,47.363,25.879,-28.320,39.062,48.828
1573889647.465,37.598,30.273,-423.340,22.461,-111.328
1573889647.469,42.969,34.668,13.672,32.715,-49.316
1573889647.473,57.129,35.156,458.496,54.199,134.277
1573889647.477,51.758,30.762,12.695,41.504,109.863
1573889647.481,31.738,31.250,-524.902,14.648,-78.125
1573889647.485,29.785,35.645,-147.949,26.367,-83.984
1573889647.489,43.457,30.762,403.320,46.875,79.590
1573889647.493,44.922,24.902,62.500,39.551,107.910
1573889647.497,26.855,21.484,-604.492,9.277,-47.852
1573889647.501,20.020,23.926,-266.113,8.301,-105.469
1573889647.505,35.645,31.738,324.707,41.016,21.484
1573889647.508,40.527,30.762,381.348,41.504,151.855
1573889647.512,23.926,34.668,66.895,13.672,54.199
1573889647.516,18.066,41.016,54.199,10.742,-69.824
1573889647.520,31.250,37.598,349.609,36.621,14.648
1573889647.524,43.457,29.297,328.125,48.340,142.090
1573889647.528,37.598,27.832,6.836,31.250,68.359
1573889647.532,20.996,25.879,-19.043,15.625,-77.148
1573889647.536,28.809,23.438,329.102,30.762,-40.527
1573889647.540,41.992,23.438,418.945,45.898,126.465
1573889647.544,31.738,27.344,263.184,29.785,132.324
1573889647.548,24.414,40.527,128.418,18.066,-51.758
1573889647.551,35.645,35.156,191.406,27.832,-95.703
1573889647.555,53.223,21.484,494.141,46.875,62.500
1573889647.559,56.641,23.926,517.090,47.363,116.211
1573889647.563,42.480,25.391,208.496,24.414,-20.996
1573889647.567,43.457,29.785,90.820,23.438,-130.859
1573889647.571,62.500,38.574,378.418,50.781,13.184
1573889647.575,64.941,36.621,519.043,54.199,165.527
1573889647.579,49.316,29.297,122.559,27.832,41.504
1573889647.583,45.898,28.809,-194.336,21.484,-109.375
1573889647.587,60.059,27.832,223.145,42.480,-26.855
1573889647.590,60.059,24.902,679.688,47.363,153.809
1573889647.594,48.340,22.949,483.887,27.344,113.281
1573889647.598,36.621,20.996,-128.906,15.625,-109.375
1573889647.602,33.691,21.973,-192.383,22.949,-124.023
1573889647.606,44.922,22.461,540.527,41.504,98.633
1573889647.610,41.992,16.602,476.074,33.691,117.676
1573889647.614,23.926,18.555,-27.344,14.160,-48.340
1573889647.618,19.531,20.996,-29.297,17.578,-103.516
1573889647.622,26.855,21.484,312.012,29.297,48.828
1573889647.626,24.902,20.508,384.277,29.297,160.156
1573889647.630,10.254,15.137,-270.020,7.324,6.348
1573889647.633,2.441,17.578,-416.504,0.488,-94.238
1573889647.637,11.719,16.602,355.957,23.438,33.203
1573889647.641,22.461,13.672,528.320,35.156,158.203
1573889647.645,17.578,20.996,40.527,19.043,48.340
1573889647.649,11.230,23.438,-114.258,6.348,-112.793
1573889647.653,19.531,25.391,265.137,24.414,-40.527
1573889647.657,31.738,21.973,472.168,40.039,141.602
1573889647.661,28.809,17.090,103.027,25.391,88.867
1573889647.665,18.555,21.973,-335.938,5.371,-73.730
1573889647.669,25.391,25.879,-119.141,14.160,-56.152
1573889647.673,43.945,23.926,170.410,37.109,89.355
1573889647.676,43.945,21.973,-249.023,27.832,87.402
1573889647.680,27.344,19.531,-342.285,1.465,-22.949
1573889647.684,32.715,21.484,15.137,12.207,-43.457
1573889647.688,53.223,27.832,270.996,41.504,64.941
1573889647.692,57.617,35.645,215.820,44.434,142.090
1573889647.696,42.969,38.086,-47.363,22.949,32.715
1573889647.700,33.691,26.855,-147.461,10.742,-81.055
1573889647.704,39.551,19.043,91.797,26.855,1.953
1573889647.708,41.992,20.020,285.156,36.133,155.762
1573889647.712,35.645,19.531,-171.875,19.531,64.453
1573889647.715,28.320,20.020,-542.969,9.766,-103.516
1573889647.719,34.180,23.926,-488.770,23.438,-81.055
1573889647.723,41.504,27.344,-172.363,32.227,101.562
1573889647.727,32.715,31.250,6.836,17.090,117.676
1573889647.731,20.020,28.320,-359.863,2.441,-64.941
1573889647.735,21.973,25.391,-226.562,11.719,-70.801
1573889647.739,33.691,34.668,283.691,32.227,95.215
1573889647.743,35.156,36.133,278.809,31.738,153.320
1573889647.747,17.578,28.320,-323.730,7.324,-19.043
1573889647.751,9.277,30.762,-367.676,-0.977,-90.820
1573889647.755,25.879,27.832,256.348,20.996,63.965
1573889647.758,33.691,23.438,226.562,24.414,151.855
1573889647.762,20.996,22.461,-422.363,-0.977,29.297
1573889647.766,12.695,21.973,-704.590,-14.160,-107.910
1573889647.770,21.973,28.320,-26.367,8.301,0.977
1573889647.774,34.668,31.250,466.797,27.344,165.527
1573889647.778,27.832,26.367,91.797,10.742,104.004
1573889647.782,19.043,27.344,-208.496,-1.465,-51.270
1573889647.786,27.344,26.855,154.785,14.648,-34.180
1573889647.790,38.086,23.926,488.281,34.180,125.000
1573889647.794,39.062,25.879,227.051,32.227,140.625
1573889647.798,29.785,27.344,-149.902,14.648,-39.062
1573889647.801,29.297,26.367,-9.766,21.973,-78.125
1573889647.805,41.504,25.879,229.492,44.434,70.801
1573889647.809,42.969,22.461,-53.223,38.086,111.816
1573889647.813,29.785,20.508,-307.129,17.090,-8.301
1573889647.817,23.438,21.973,-13.672,14.648,-73.242
1573889647.821,33.691,22.461,337.891,31.738,32.715
1573889647.825,44.434,26.855,190.918,41.992,136.230
1573889647.829,39.062,32.715,-86.426,28.320,45.898
1573889647.833,23.926,27.344,-62.500,12.695,-84.473
1573889647.837,31.250,23.438,188.965,26.855,-19.043
1573889647.840,47.363,20.996,351.074,42.969,130.859
1573889647.844,39.551,18.555,140.137,29.785,86.914
1573889647.848,28.320,21.973,-129.883,12.695,-88.867
1573889647.852,34.668,25.391,-120.605,19.531,-71.289
1573889647.856,45.410,24.902,-4.883,33.691,97.656
1573889647.860,34.180,28.320,3.906,26.367,120.117
1573889647.864,20.996,31.738,-147.949,7.324,-26.367
1573889647.868,21.484,28.320,-203.125,9.277,-104.004
1573889647.872,30.273,24.414,114.746,28.809,40.527
1573889647.876,38.086,24.902,326.660,31.250,149.902
1573889647.880,26.855,19.043,-46.875,13.184,14.160
1573889647.883,12.695,16.602,-202.148,1.953,-94.727
1573889647.887,17.090,14.160,137.695,16.113,-0.488
1573889647.891,27.832,19.043,332.520,29.785,134.766
1573889647.895,23.926,26.855,56.152,15.625,92.773
1573889647.899,17.090,27.832,-294.434,7.324,-59.082
1573889647.903,25.391,23.926,-172.363,26.855,-40.039
1573889647.907,35.645,19.043,186.523,40.527,127.930
1573889647.911,33.203,21.484,53.711,26.855,110.840
1573889647.915,19.531,22.461,-597.168,4.883,-58.594
1573889647.919,23.438,28.809,-450.684,19.043,-93.262
1573889647.923,40.039,35.156,322.754,48.828,86.914
1573889647.926,40.527,32.715,211.426,43.945,145.020
1573889647.930,23.926,25.391,-298.828,17.090,-14.648
1573889647.934,20.020,18.555,-79.102,16.113,-44.922
1573889647.938,39.062,23.438,336.426,41.992,56.641
1573889647.942,43.945,31.738,212.402,42.480,126.953
1573889647.946,30.273,31.738,-299.805,20.996,32.227
1573889647.950,28.320,35.156,-438.477,12.207,-69.824
1573889647.954,40.527,43.457,11.719,30.273,-2.930
1573889647.958,49.316,46.387,63.965,44.922,110.352
1573889647.962,35.156,30.762,-523.926,18.555,9.277
1573889647.965,17.090,22.461,-490.234,3.418,-128.906
1573889647.969,21.973,24.902,53.223,21.973,-30.273
1573889647.973,35.645,22.949,213.867,39.062,114.258
1573889647.977,28.809,22.461,51.270,30.273,118.164
1573889647.981,15.137,20.508,-113.770,12.207,-17.090
1573889647.985,18.066,25.391,1.465,20.996,-71.289
1573889647.989,32.715,31.738,272.949,42.969,75.195
1573889647.993,34.180,29.297,106.445,38.086,140.137
1573889647.997,20.508,23.926,-319.336,13.672,13.184
1573889648.001,27.344,28.809,-184.570,22.461,-47.852
1573889648.005,46.387,29.785,-50.293,44.434,41.016
1573889648.008,44.922,24.414,-47.852,42.969,134.277
1573889648.012,33.203,31.250,-53.711,28.320,82.031
1573889648.016,29.297,36.133,-214.844,25.879,-28.809
1573889648.020,31.738,31.738,58.105,41.504,15.137
1573889648.024,37.109,29.785,358.887,46.387,140.625
1573889648.028,33.691,24.414,61.035,32.227,102.051
1573889648.032,26.855,26.855,-413.574,18.555,-74.707
1573889648.036,36.621,32.715,-145.996,32.227,-74.219
1573889648.040,47.852,28.320,164.551,48.828,91.797
1573889648.044,41.016,26.855,-3.418,36.621,115.723
1573889648.048,22.949,25.879,-432.129,8.789,-58.105
1573889648.051,20.508,23.926,-598.145,10.254,-114.258
1573889648.055,34.180,26.367,108.887,35.156,81.055
1573889648.059,35.645,26.855,362.305,34.668,156.250
1573889648.063,21.484,25.391,-192.871,11.230,-17.578
1573889648.067,17.578,17.578,-258.301,4.395,-102.051
1573889648.071,31.738,13.184,282.715,24.414,23.926
1573889648.075,36.621,21.484,417.969,31.250,150.391
1573889648.079,27.832,29.785,-3.906,15.625,73.242
1573889648.083,22.461,28.809,-296.875,9.277,-103.516
1573889648.087,33.691,28.320,-90.820,31.250,-66.895
1573889648.090,43.945,27.344,163.574,46.875,109.863
1573889648.094,31.738,16.602,-293.457,21.973,98.633
1573889648.098,17.578,18.555,-617.188,0.000,-84.473
1573889648.102,25.879,27.832,-94.238,15.137,-121.094
1573889648.106,41.992,30.762,327.637,37.598,86.914
1573889648.110,45.410,39.551,107.910,37.598,122.070
1573889648.114,30.762,36.133,-196.289,14.648,-41.992
1573889648.118,26.855,20.020,-41.016,13.184,-88.379
1573889648.122,38.574,14.648,194.336,36.133,34.668
1573889648.126,38.086,20.020,133.789,36.621,128.906
1573889648.130,28.809,29.297,-93.750,16.602,19.531
1573889648.133,29.297,39.062,-252.930,13.672,-101.562
1573889648.137,42.969,47.363,-113.770,32.227,-17.090
1573889648.141,52.246,49.805,-257.812,41.016,94.727
1573889648.145,35.156,34.180,-347.168,19.531,60.547
1573889648.149,18.066,20.508,-135.254,5.859,-43.945
1573889648.153,27.832,28.320,96.680,25.879,-25.391
1573889648.157,35.645,34.668,409.668,41.992,155.273
1573889648.161,32.715,33.691,250.000,33.203,115.234
1573889648.165,31.738,33.203,-129.883,23.438,-71.777
1573889648.169,29.297,34.180,5.859,28.320,-63.477
1573889648.173,40.039,40.527,367.676,47.852,78.613
1573889648.176,46.875,39.062,411.621,51.270,149.902
1573889648.180,28.809,28.809,-23.926,27.344,10.742
1573889648.184,23.926,24.414,-373.047,25.391,-82.520
1573889648.188,38.574,26.855,39.062,47.852,40.039
1573889648.192,41.504,32.227,504.395,52.246,151.367
1573889648.196,27.344,25.879,111.816,27.344,31.250
1573889648.200,17.090,20.996,-82.520,12.207,-79.590
1573889648.204,26.855,31.250,452.637,30.762,17.578
1573889648.208,37.598,30.762,775.879,41.016,169.922
1573889648.212,27.832,19.531,350.586,19.043,92.773
1573889648.215,18.066,20.020,5.859,3.418,-67.871
1573889648.219,36.621,33.691,396.484,28.320,-30.273
1573889648.223,51.758,37.598,725.098,50.781,123.047
1573889648.227,48.828,27.832,171.387,36.621,83.984
1573889648.231,36.133,30.273,-308.594,16.602,-50.781
1573889648.235,32.715,37.598,198.242,19.531,-40.039
1573889648.239,49.316,29.785,747.070,42.480,98.633
1573889648.243,56.152,26.855,459.473,42.969,124.512
1573889648.247,41.992,27.832,-19.531,18.066,-18.555
1573889648.251,33.691,26.367,215.820,12.695,-63.477
1573889648.255,48.828,24.902,562.988,38.086,52.734
1573889648.258,60.059,27.832,519.043,45.898,150.391
1573889648.262,42.969,35.156,154.297,19.531,26.367
1573889648.266,33.203,41.504,108.887,7.324,-80.078
1573889648.270,47.852,37.109,512.695,30.762,23.438
1573889648.274,56.641,27.344,516.113,49.316,137.207
1573889648.278,46.387,21.484,-25.879,37.109,45.410
1573889648.282,36.133,19.043,-273.438,19.043,-120.117
1573889648.286,41.504,22.461,107.910,31.738,-70.801
1573889648.290,50.293,33.691,445.801,53.223,125.977
1573889648.294,48.340,40.527,311.035,41.016,125.000
1573889648.298,36.133,30.762,36.133,17.578,-37.109
1573889648.301,31.738,21.484,67.383,23.438,-68.359
1573889648.305,46.387,20.020,103.516,45.898,55.664
1573889648.309,47.852,19.531,15.137,44.434,115.234
1573889648.313,31.738,20.508,-218.750,21.973,-25.391
1573889648.317,33.691,26.855,-194.336,23.926,-88.867
1573889648.321,48.340,38.086,127.930,46.875,41.992
1573889648.325,50.781,41.504,157.715,50.293,130.859
1573889648.329,37.598,29.785,-110.352,23.926,42.969
1573889648.333,24.902,20.508,-401.855,2.930,-95.215
1573889648.337,32.227,24.902,-306.152,20.508,-50.781
1573889648.340,39.062,33.691,245.605,35.156,123.535
1573889648.344,34.668,33.691,199.707,23.926,113.770
1573889648.348,21.973,31.250,-202.148,4.395,-42.969
1573889648.352,23.926,36.133,-28.809,9.277,-61.035
1573889648.356,33.203,31.738,404.785,22.949,97.656
1573889648.360,34.668,27.344,217.285,18.555,121.094
1573889648.364,26.855,23.438,-306.152,2.441,-55.664
1573889648.368,26.855,20.020,-340.332,5.859,-100.586
1573889648.372,44.434,21.973,40.039,32.227,75.195
1573889648.376,45.410,17.090,46.875,29.785,156.738
1573889648.380,31.738,15.625,-603.027,7.324,22.461
1573889648.383,23.438,21.973,-620.605,5.371,-61.035
1573889648.387,29.785,17.578,119.141,25.391,25.879
1573889648.391,35.156,11.230,224.121,31.738,133.789
1573889648.395,23.926,18.066,-227.051,13.672,48.340
1573889648.399,20.508,25.391,-286.621,8.301,-68.359
1573889648.403,34.668,30.273,128.418,31.250,-10.254
1573889648.407,47.852,32.715,294.434,45.410,132.324
1573889648.411,42.480,34.180,37.109,30.762,125.000
1573889648.415,26.367,34.668,-409.668,13.184,-73.242
1573889648.419,24.902,34.668,-303.711,16.602,-111.816
1573889648.423,41.992,37.598,28.809,39.062,59.082
1573889648.426,47.363,29.785,-298.828,37.109,98.633
1573889648.430,36.133,28.320,-408.203,19.531,-38.086
1573889648.434,36.621,32.227,-210.449,27.344,-104.492
1573889648.438,45.898,31.738,64.941,42.969,30.273
1573889648.442,42.969,30.762,197.754,39.551,136.230
1573889648.446,28.320,33.203,18.555,17.090,59.082
1573889648.450,22.461,36.133,-62.012,9.766,-67.383
1573889648.454,31.738,26.855,143.066,26.855,-18.066
1573889648.458,38.574,24.414,394.531,34.668,159.180
1573889648.462,37.109,32.227,34.180,20.996,84.473
1573889648.465,23.438,28.809,-354.492,9.766,-75.684
1573889648.469,25.879,23.438,-314.453,23.438,-51.270
1573889648.473,37.598,25.879,34.180,39.062,108.398
1573889648.477,34.180,29.785,252.930,29.297,130.859
1573889648.481,28.320,23.438,-204.590,15.137,-47.363
1573889648.485,33.203,15.625,-176.758,27.832,-84.473
1573889648.489,45.410,17.090,408.691,48.340,78.613
1573889648.493,43.945,15.137,476.562,45.898,163.574
1573889648.497,27.344,11.719,-36.133,24.902,11.719
1573889648.501,22.949,20.508,-140.625,20.508,-89.355
1573889648.505,39.062,32.715,328.125,41.016,29.297
1573889648.508,37.598,29.785,379.883,42.969,166.992
1573889648.512,15.137,21.484,-220.215,11.230,67.871
1573889648.516,5.859,21.973,-647.461,0.000,-107.422
1573889648.520,17.090,20.020,-9.277,19.531,-1.465
1573889648.524,25.879,17.578,458.984,27.832,144.531
1573889648.528,7.324,16.602,45.898,2.441,84.961
1573889648.532,-5.859,29.297,-209.961,-14.160,-41.992
1573889648.536,4.395,34.668,47.852,2.930,-42.969
1573889648.540,13.672,20.996,320.801,15.625,113.281
1573889648.544,10.254,16.602,128.906,7.812,124.512
1573889648.548,0.977,23.438,-239.746,-2.930,-36.621
1573889648.551,7.812,24.902,-24.902,9.766,-56.152
1573889648.555,27.344,30.273,254.395,37.598,64.453
1573889648.559,35.645,41.992,-168.457,41.016,117.676
1573889648.563,24.414,39.551,-542.969,17.578,8.301
1573889648.567,18.555,28.320,-168.945,10.254,-70.312
1573889648.571,41.504,28.320,231.934,35.156,30.273
1573889648.575,54.688,32.227,203.125,44.922,128.418
1573889648.579,40.527,32.227,-80.078,25.879,53.223
1573889648.583,35.156,31.738,-166.992,19.043,-69.824
1573889648.587,45.898,32.227,60.547,40.527,-32.227
1573889648.590,51.270,29.297,280.762,53.711,140.137
1573889648.594,40.527,30.762,25.879,35.156,120.605
1573889648.598,22.949,34.668,-286.621,16.113,-71.289
1573889648.602,19.043,23.926,-294.922,20.996,-96.191
1573889648.606,25.879,19.531,-95.215,34.180,84.961
1573889648.610,20.020,25.391,93.262,22.949,156.250
1573889648.614,2.441,21.484,-146.484,-2.441,-13.184
1573889648.618,-0.977,20.020,-266.602,-0.488,-93.750
1573889648.622,13.672,27.344,54.199,20.996,53.711
1573889648.626,16.602,30.762,225.586,20.508,136.719
1573889648.630,1.953,24.414,-85.449,-7.812,30.762
1573889648.633,-11.230,13.184,-248.047,-19.531,-77.148
1573889648.637,-3.418,11.719,64.453,-4.883,2.441
1573889648.641,8.789,21.484,329.590,5.371,144.043
1573889648.645,0.488,29.297,-52.734,-12.207,72.266
1573889648.649,-11.719,33.691,-533.203,-25.879,-91.797
1573889648.653,0.000,34.668,-312.012,-2.930,-58.105
1573889648.657,22.461,29.297,118.652,19.043,127.441
1573889648.661,27.344,23.438,-2.441,13.184,110.352
1573889648.665,19.531,21.973,-545.410,1.953,-53.223
1573889648.669,25.879,24.902,-262.695,19.531,-26.855
1573889648.673,52.734,30.762,422.363,54.199,111.816
1573889648.676,59.570,32.227,289.062,57.617,155.762
1573889648.680,49.805,36.133,-165.039,38.574,16.113
1573889648.684,44.434,31.738,-90.820,35.645,-68.359
1573889648.688,53.711,22.949,360.840,57.129,64.453
1573889648.692,59.570,25.391,338.379,60.059,171.875
1573889648.696,43.945,23.438,-272.949,31.250,27.832
1573889648.700,32.715,23.438,-512.695,20.996,-106.934
1573889648.704,46.387,25.879,40.527,39.551,32.715
1573889648.708,62.012,29.297,163.574,50.293,161.133
1573889648.712,53.711,34.180,-483.887,33.691,50.781
1573889648.715,34.668,30.273,-439.453,15.137,-54.688
1573889648.719,34.180,24.414,146.484,22.949,3.418
1573889648.723,41.992,21.484,315.430,33.691,120.117
1573889648.727,28.320,24.414,95.703,17.578,128.906
1573889648.731,7.812,34.668,-117.676,-8.301,-14.160
1573889648.735,19.043,39.062,24.902,8.789,-57.617
1573889648.739,38.086,35.156,325.684,37.598,93.750
1573889648.743,22.461,29.785,99.121,17.090,136.230
1573889648.747,-9.277,23.926,-376.953,-22.461,9.766
1573889648.751,-13.184,18.555,-277.344,-21.973,-30.273
1573889648.755,8.789,20.996,-123.535,6.836,48.340
1573889648.758,24.414,33.203,-90.332,18.555,122.559
1573889648.762,16.113,31.250,-162.109,4.883,32.227
1573889648.766,10.254,25.391,-440.430,-3.418,-99.609
1573889648.770,26.367,23.438,-52.734,17.578,-4.883
1573889648.774,37.109,21.973,417.969,32.227,166.016
1573889648.778,33.203,26.855,154.297,16.113,100.586
1573889648.782,30.273,27.832,-256.836,8.301,-59.082
1573889648.786,39.062,23.926,-40.527,26.855,-39.062
1573889648.790,48.340,20.020,252.441,40.039,110.840
1573889648.794,39.551,13.672,57.129,26.367,146.973
1573889648.798,23.926,15.137,-399.414,1.465,-1.465
1573889648.801,25.391,20.996,-536.133,1.953,-85.449
1573889648.805,39.551,24.414,118.164,24.414,61.035
1573889648.809,41.992,22.461,361.328,28.320,159.180
1573889648.813,23.926,13.184,-168.457,9.277,-7.812
1573889648.817,17.578,14.160,-242.676,5.859,-101.562
1573889648.821,26.367,17.090,232.910,26.367,43.945
1573889648.825,28.809,20.508,387.207,31.738,164.062
1573889648.829,16.602,31.738,13.184,9.766,63.477
1573889648.833,2.930,31.250,-204.102,-1.465,-94.238
1573889648.837,6.348,18.555,106.445,11.719,-18.555
1573889648.840,13.672,11.719,350.586,20.996,162.109
1573889648.844,6.348,13.184,141.113,7.812,137.695
1573889648.848,-2.930,18.066,-129.883,-7.812,-57.617
1573889648.852,0.000,19.531,223.633,6.348,-55.176
1573889648.856,16.602,22.949,550.293,27.344,109.863
1573889648.860,24.902,28.320,25.391,20.508,103.516
1573889648.864,13.672,25.879,-282.227,6.348,-32.715
1573889648.868,13.672,21.484,150.879,12.695,-70.801
1573889648.872,36.133,25.391,527.832,36.621,57.129
1573889648.876,43.457,27.832,416.504,37.598,143.066
1573889648.880,24.902,25.391,78.125,13.672,23.926
1573889648.883,20.020,26.367,4.395,12.695,-102.539
1573889648.887,41.504,30.273,155.273,37.109,-33.203
1573889648.891,54.199,29.297,176.758,44.434,105.469
1573889648.895,42.480,25.879,148.438,23.926,56.152
1573889648.899,32.715,25.391,191.406,13.184,-75.195
1573889648.903,41.992,23.438,432.617,30.273,-26.855
1573889648.907,48.828,20.020,708.984,43.457,134.766
1573889648.911,41.016,18.066,581.055,28.320,131.836
1573889648.915,25.879,18.555,206.055,3.418,-43.457
1573889648.919,26.855,23.926,264.648,11.719,-66.895
1573889648.923,47.852,36.133,587.402,39.062,81.055
1573889648.926,51.270,43.457,506.836,34.180,109.863
1573889648.930,33.203,30.762,-16.602,10.254,-45.410
1573889648.934,27.832,16.602,-336.426,13.672,-103.027
1573889648.938,36.621,18.555,96.680,32.227,47.852
1573889648.942,36.133,20.020,569.824,36.133,160.645
1573889648.946,25.879,21.484,202.148,19.531,45.410
1573889648.950,22.461,27.832,-75.195,16.113,-81.543
1573889648.954,29.785,23.926,338.867,31.738,-2.930
1573889648.958,31.738,19.531,614.258,34.180,147.461
1573889648.962,23.926,22.461,121.582,19.043,52.246
1573889648.965,15.625,19.043,-198.730,5.859,-78.125
1573889648.969,21.973,21.484,163.086,22.461,-37.598
1573889648.973,40.039,29.297,509.766,46.875,111.816
1573889648.977,41.992,20.996,79.102,40.039,122.070
1573889648.981,24.902,10.742,-519.531,16.602,-41.016
1573889648.985,26.855,14.648,-137.207,27.344,-72.266
1573889648.989,46.387,19.531,255.371,52.246,56.152
1573889648.993,51.758,25.879,10.254,46.875,126.953
1573889648.997,43.457,27.832,-297.363,24.414,2.930
1573889649.001,39.062,24.414,-132.324,22.461,-80.566
1573889649.005,46.875,21.973,276.367,39.062,24.414
1573889649.008,46.875,19.531,180.176,39.551,137.207
1573889649.012,37.598,24.902,-273.926,22.949,19.043
1573889649.016,27.832,26.855,-247.559,6.348,-97.656
1573889649.020,36.621,25.879,169.922,20.508,8.301
1573889649.024,45.410,20.508,302.734,36.133,174.316
1573889649.028,35.156,19.043,-166.016,20.020,103.516
1573889649.032,17.578,19.043,-408.691,1.465,-64.453
1573889649.036,18.066,11.230,-17.090,13.184,-32.227
1573889649.040,34.668,17.090,-75.195,38.574,99.121
1573889649.044,32.227,24.902,-412.598,29.785,98.145
1573889649.048,18.066,24.902,-500.977,14.648,-60.547
1573889649.051,20.020,24.414,-411.621,24.902,-122.070
1573889649.055,35.645,23.438,-2.930,49.805,30.762
1573889649.059,34.180,23.438,221.191,53.223,159.668
1573889649.063,14.160,22.949,-74.707,26.855,27.832
1573889649.067,10.254,19.531,-233.887,23.438,-85.449
1573889649.071,20.508,17.578,-30.762,45.410,25.391
1573889649.075,21.484,19.043,43.945,49.316,139.160
1573889649.079,13.184,21.484,-161.133,30.273,25.391
1573889649.083,10.254,27.832,-457.031,18.555,-115.723
1573889649.087,22.949,36.621,-354.492,29.297,-44.922
1573889649.090,37.598,42.480,187.500,42.480,125.977
1573889649.094,27.832,35.156,135.254,26.367,98.633
1573889649.098,13.672,26.855,-248.047,1.465,-61.523
1573889649.102,18.555,23.438,-118.652,8.301,-49.316
1573889649.106,29.785,23.438,346.680,25.879,116.211
1573889649.110,30.273,26.855,291.504,16.602,140.625
1573889649.114,21.973,31.250,-171.387,-2.441,-12.695
1573889649.118,23.438,33.691,-175.781,2.930,-61.035
1573889649.122,32.227,25.391,146.484,20.508,65.430
1573889649.126,34.180,21.973,254.395,20.996,148.438
1573889649.130,27.832,27.344,-390.137,1.465,-8.789
1573889649.133,27.832,31.250,-551.758,0.000,-124.023
1573889649.137,38.574,30.762,361.328,25.879,66.895
1573889649.141,48.828,28.320,558.105,39.062,199.707
1573889649.145,43.457,29.297,-15.137,24.414,49.316
1573889649.149,32.227,20.020,-201.172,10.254,-117.188
1573889649.153,40.039,15.137,221.680,31.250,-37.109
1573889649.157,50.293,20.508,480.957,55.664,156.250
1573889649.161,46.875,23.926,51.758,48.828,116.699
1573889649.165,31.738,24.414,-317.383,27.832,-43.457
1573889649.169,25.391,20.508,-122.559,27.344,-63.965
1573889649.173,36.133,18.066,52.734,44.922,57.617
1573889649.176,34.180,18.066,-189.941,36.133,110.840
1573889649.180,18.555,25.879,-262.207,14.648,-12.695
1573889649.184,18.066,28.320,-16.602,17.578,-88.867
1573889649.188,32.715,21.973,283.203,34.180,37.598
1573889649.192,40.527,21.973,325.684,38.574,156.250
1573889649.196,20.996,22.461,66.895,15.625,55.664
1573889649.200,8.789,18.555,-103.516,3.906,-88.867
1573889649.204,27.832,21.484,156.738,26.855,0.488
1573889649.208,41.016,29.785,382.324,41.992,159.668
1573889649.212,27.344,32.227,-0.488,20.508,87.402
1573889649.215,14.160,31.738,-451.660,-0.977,-74.219
1573889649.219,24.902,33.203,-235.840,17.090,-55.176
1573889649.223,40.039,30.762,246.582,36.133,115.723
1573889649.227,37.109,26.855,211.914,22.949,137.207
1573889649.231,24.414,24.902,-190.430,3.418,-31.738
1573889649.235,24.414,20.508,-447.754,10.254,-90.820
1573889649.239,37.598,24.414,-21.484,30.762,79.590
1573889649.243,43.945,32.715,299.316,34.180,163.574
1573889649.247,38.086,34.180,-193.848,20.508,7.812
1573889649.251,30.273,25.879,-216.797,16.113,-43.457
1573889649.255,35.645,21.484,305.176,33.203,73.730
1573889649.258,42.969,21.484,318.359,40.039,180.664
1573889649.262,29.785,19.043,-280.273,19.043,84.473
1573889649.266,20.996,26.855,-641.113,6.348,-56.641
1573889649.270,25.879,23.926,-71.289,22.949,15.137
1573889649.274,34.180,20.996,366.211,39.062,167.480
1573889649.278,28.320,20.996,-99.609,27.344,97.168
1573889649.282,10.742,16.113,-416.016,6.836,-68.359
1573889649.286,15.625,20.020,46.387,18.555,-37.109
1573889649.290,30.273,22.461,411.621,39.062,116.699
1573889649.294,19.043,19.043,110.840,25.879,122.559
1573889649.298,-0.977,20.020,-256.348,-0.977,-23.438
1573889649.301,-2.930,31.250,-35.645,0.977,-58.105
1573889649.305,14.648,35.156,241.211,25.879,68.359
1573889649.309,20.508,21.973,-207.520,24.902,117.676
1573889649.313,8.789,14.648,-652.832,-3.418,-25.391
1573889649.317,13.672,23.926,-235.352,-4.395,-76.172
1573889649.321,37.109,31.738,227.051,22.949,43.945
1573889649.325,50.293,26.855,257.812,32.227,156.738
1573889649.329,42.480,30.273,-125.000,15.625,57.129
1573889649.333,32.227,40.039,-272.949,7.324,-89.355
1573889649.337,34.180,35.645,62.012,18.066,-24.902
1573889649.340,45.410,26.367,263.184,32.715,128.418
1573889649.344,37.109,15.137,62.500,19.043,98.145
1573889649.348,23.438,16.602,-226.074,3.418,-78.125
1573889649.352,33.691,25.391,-244.629,20.508,-88.379
1573889649.356,53.223,24.902,-39.062,46.875,92.285
1573889649.360,52.246,26.367,47.852,44.434,114.746
1573889649.364,37.109,26.367,-152.344,22.949,-22.461
1573889649.368,29.297,18.066,-225.586,19.043,-74.707
1573889649.372,34.180,17.090,24.902,33.203,31.250
1573889649.376,38.574,21.484,261.230,39.062,152.832
1573889649.380,23.926,28.809,-1.953,16.113,57.129
1573889649.383,12.695,31.250,-166.992,3.906,-61.035
1573889649.387,21.973,25.879,30.273,21.973,12.695
1573889649.391,24.414,17.578,274.414,26.855,155.762
1573889649.395,9.277,18.066,37.109,2.441,76.660
1573889649.399,-3.418,26.855,-424.316,-10.742,-118.164
1573889649.403,6.348,24.902,-230.469,15.625,-51.758
1573889649.407,15.625,22.461,320.801,34.668,161.621
1573889649.411,12.207,25.391,239.258,23.438,140.137
1573889649.415,4.883,21.973,-546.387,5.859,-67.383
1573889649.419,11.230,17.578,-520.020,8.789,-100.586
1573889649.423,29.785,23.926,317.871,33.691,97.168
1573889649.426,35.156,24.902,227.539,32.715,138.672
1573889649.430,28.320,22.949,-303.223,8.301,-26.855
1573889649.434,31.738,26.855,-127.441,10.742,-76.660
1573889649.438,52.734,33.691,367.188,37.109,66.406
1573889649.442,62.988,34.180,289.551,41.992,155.273
1573889649.446,47.852,29.297,-280.762,21.484,32.715
1573889649.450,37.598,25.391,-460.938,13.184,-94.727
1573889649.454,42.969,20.508,-51.758,29.785,-16.113
1573889649.458,50.293,24.902,113.770,35.645,145.020
1573889649.462,46.875,37.109,-375.977,20.020,59.082
1573889649.465,28.809,32.227,-418.457,6.836,-106.445
1573889649.469,26.855,23.926,95.703,16.113,-53.711
1573889649.473,35.645,21.973,364.746,29.785,115.234
1573889649.477,23.438,20.020,158.203,15.137,130.371
1573889649.481,7.324,29.297,-116.211,-4.883,-38.574
1573889649.485,11.719,25.879,30.762,6.836,-84.473
1573889649.489,22.949,20.020,339.355,28.809,81.055
1573889649.493,18.555,21.973,124.512,17.578,126.465
1573889649.497,7.324,18.066,-340.820,-2.930,-31.738
1573889649.501,11.719,23.438,-365.234,5.371,-120.605
1573889649.505,19.043,28.809,-91.309,22.949,-9.277
1573889649.508,18.066,28.809,208.984,25.391,142.578
1573889649.512,8.789,27.344,200.195,10.742,74.219
1573889649.516,-1.465,26.855,-65.430,0.977,-110.840
1573889649.520,3.418,32.715,62.012,15.625,-52.246
1573889649.524,17.578,30.273,538.086,35.645,165.039
1573889649.528,15.137,18.555,442.871,24.902,113.281
1573889649.532,7.324,19.531,-15.625,9.277,-93.750
1573889649.536,16.602,25.391,181.152,22.461,-72.754
1573889649.540,32.715,26.855,512.695,42.969,105.957
1573889649.544,31.250,22.461,348.145,34.180,131.836
1573889649.548,16.113,19.531,-30.273,11.230,-35.156
1573889649.551,16.602,29.785,54.199,15.137,-104.004
1573889649.555,33.203,32.715,593.750,33.691,81.055
1573889649.559,37.109,23.926,626.465,30.273,169.922
1573889649.563,23.438,16.602,20.508,3.906,14.648
1573889649.567,20.508,15.625,-306.152,-3.418,-111.816
1573889649.571,34.180,17.090,412.109,20.508,16.113
1573889649.575,40.039,18.555,767.090,28.320,166.016
1573889649.579,29.785,18.555,244.141,12.207,45.898
1573889649.583,26.367,20.508,37.109,8.301,-98.633
1573889649.587,31.250,26.367,307.129,27.832,-38.574
1573889649.590,40.527,25.391,547.852,41.016,134.766
1573889649.594,40.527,19.043,24.414,30.762,73.730
1573889649.598,23.438,20.508,-456.055,6.836,-129.883
1573889649.602,25.391,25.879,154.297,16.113,-91.309
1573889649.606,39.062,22.949,614.746,40.527,104.004
1573889649.610,33.691,17.090,313.965,27.832,125.000
1573889649.614,20.996,20.508,-90.820,3.906,-31.738
1573889649.618,21.484,27.344,85.938,14.160,-94.238
1573889649.622,31.250,29.297,441.895,38.086,46.875
1573889649.626,35.156,22.949,449.707,36.621,170.410
1573889649.630,29.297,16.113,109.375,21.973,32.227
1573889649.633,23.438,13.672,-167.480,18.555,-125.977
1573889649.637,34.180,20.996,-40.039,36.621,-26.855
1573889649.641,45.898,29.297,-50.781,45.898,103.516
1573889649.645,32.715,25.879,-140.137,24.902,56.641
1573889649.649,19.531,24.414,-153.320,8.789,-94.238
1573889649.653,23.438,31.738,17.090,20.996,-69.824
1573889649.657,37.109,27.832,369.141,33.691,134.277
1573889649.661,35.645,17.090,250.488,22.949,125.488
1573889649.665,23.926,23.926,-43.945,6.348,-12.695
1573889649.669,29.297,27.832,15.137,16.113,-29.297
1573889649.673,40.527,23.438,251.953,37.109,73.730
1573889649.676,37.598,20.996,243.164,32.715,127.930
1573889649.680,23.926,25.879,-218.262,12.695,-3.418
1573889649.684,22.461,33.691,-612.305,10.742,-110.840
1573889649.688,31.738,27.832,-222.168,29.297,33.203
1573889649.692,36.133,24.414,251.953,37.598,164.062
1573889649.696,26.855,19.043,-131.836,20.020,24.414
1573889649.700,15.137,13.672,-441.406,7.812,-103.027
1573889649.704,27.344,18.066,-11.230,23.438,-1.953
1573889649.708,40.039,22.461,325.684,37.109,136.719
1573889649.712,29.785,25.879,-105.957,19.531,65.918
1573889649.715,13.672,22.949,-529.297,0.000,-120.605
1573889649.719,14.160,22.949,-141.602,11.230,-85.449
1573889649.723,30.762,28.320,259.277,30.273,106.445
1573889649.727,33.203,25.391,-201.172,23.438,104.004
1573889649.731,19.043,23.926,-765.625,1.465,-68.848
1573889649.735,19.043,29.297,-360.352,5.859,-92.773
1573889649.739,36.133,27.832,357.422,32.715,98.633
1573889649.743,40.527,26.367,165.039,26.855,154.785
1573889649.747,30.273,32.715,-348.633,2.441,-5.859
1573889649.751,28.809,32.715,-142.090,7.812,-78.125
1573889649.755,43.945,37.109,343.262,34.668,56.152
1573889649.758,52.246,36.133,347.656,41.016,163.574
1573889649.762,37.598,34.180,-115.723,20.996,31.738
1573889649.766,32.227,37.109,-213.379,18.555,-107.422
1573889649.770,44.434,31.738,137.695,37.598,-36.133
1573889649.774,52.734,23.438,209.473,53.223,108.398
1573889649.778,47.852,21.484,-182.617,40.527,80.078
1573889649.782,31.738,27.832,-408.691,15.625,-72.266
1573889649.786,37.109,31.738,-29.297,24.902,-69.336
1573889649.790,54.688,26.367,99.609,45.898,93.750
1573889649.794,51.270,24.414,-100.586,35.156,118.652
1573889649.798,38.086,28.320,-144.531,11.719,-46.387
1573889649.801,36.621,29.297,-95.215,15.137,-113.281
1573889649.805,46.875,26.855,250.488,39.551,48.340
1573889649.809,48.340,22.949,411.133,41.504,161.621
1573889649.813,30.762,20.020,36.133,16.113,2.441
1573889649.817,19.531,25.879,-210.449,8.789,-144.043
1573889649.821,25.391,23.926,109.375,26.367,17.578
1573889649.825,29.297,25.879,274.902,29.297,178.223
1573889649.829,16.113,27.344,-93.262,6.348,39.551
1573889649.833,-1.465,20.508,-307.617,-12.207,-62.988
1573889649.837,0.488,15.625,-220.215,-1.953,-3.906
1573889649.840,4.883,15.137,185.059,12.207,141.113
1573889649.844,-1.953,20.020,229.492,-1.465,134.277
1573889649.848,-17.578,15.625,-132.324,-23.926,-26.367
1573889649.852,-17.578,20.508,49.805,-12.207,-24.902
1573889649.856,1.465,28.809,477.051,17.578,111.328
1573889649.860,0.977,16.602,333.008,12.207,142.578
1573889649.864,-9.766,10.254,-189.941,-8.301,-31.738
1573889649.868,-0.977,13.672,-234.375,4.395,-86.914
1573889649.872,24.902,23.438,138.184,35.645,66.406
1573889649.876,42.480,33.691,245.605,48.340,160.645
1573889649.880,39.551,27.832,-337.402,32.715,40.039
1573889649.883,32.227,22.949,-499.512,17.578,-77.148
1573889649.887,47.363,31.250,244.629,41.016,20.020
1573889649.891,65.430,31.250,344.238,61.035,115.723
1573889649.895,51.270,22.949,-191.895,37.109,40.039
1573889649.899,34.668,26.367,-328.613,17.090,-87.891
1573889649.903,44.922,31.738,187.500,32.715,-19.043
1573889649.907,56.152,25.391,458.984,48.340,152.344
1573889649.911,48.828,20.020,58.594,34.180,121.582
1573889649.915,30.273,19.043,-413.574,8.789,-62.012
1573889649.919,28.809,24.902,-277.344,16.113,-93.750
1573889649.923,41.992,30.762,20.020,37.109,47.363
1573889649.926,35.645,26.367,-231.445,27.344,103.027
1573889649.930,13.672,19.531,-371.582,5.371,-20.020
1573889649.934,10.742,14.648,-101.074,8.301,-90.332
1573889649.938,21.484,14.160,246.582,29.785,49.805
1573889649.942,20.508,13.184,270.996,27.832,156.738
1573889649.946,4.883,16.602,60.059,5.859,73.730
1573889649.950,-0.977,27.832,-163.574,-1.953,-68.359
1573889649.954,12.207,41.504,53.223,18.555,10.742
1573889649.958,20.508,37.109,394.043,32.715,165.527
1573889649.962,9.277,17.090,-60.059,12.695,77.637
1573889649.965,2.930,12.207,-358.887,2.930,-47.363
1573889649.969,20.020,17.578,-311.035,22.461,-46.875
1573889649.973,38.086,24.902,-82.031,41.016,109.863
1573889649.977,39.551,31.738,206.055,35.645,157.227
1573889649.981,33.203,35.156,-131.836,22.461,-23.438
1573889649.985,39.062,43.945,-115.234,32.715,-58.105
1573889649.989,48.340,47.852,343.750,54.199,77.148
1573889649.993,46.875,40.039,353.027,49.316,141.113
1573889649.997,37.109,27.832,-203.613,21.973,-26.855
1573889650.001,33.691,22.949,-325.684,17.090,-124.023
1573889650.005,45.410,21.973,191.895,36.133,23.438
1573889650.008,55.176,27.832,245.117,44.922,139.648
1573889650.012,47.363,32.227,-379.395,23.438,36.133
1573889650.016,37.109,33.691,-750.488,1.465,-101.074
1573889650.020,43.457,36.621,-120.605,20.508,-12.207
1573889650.024,51.758,32.715,358.887,40.527,138.672
1573889650.028,41.504,25.391,11.230,22.949,103.027
1573889650.032,21.973,23.926,-320.312,0.488,-71.289
1573889650.036,19.531,21.973,21.973,3.906,-58.594
1573889650.040,27.344,23.926,418.945,19.043,119.629
1573889650.044,23.926,26.367,162.598,10.742,137.207
1573889650.048,9.277,29.297,-232.422,-12.695,-25.879
1573889650.051,8.789,25.391,-145.508,-8.789,-110.840
1573889650.055,24.902,25.391,186.523,13.672,58.105
1573889650.059,28.809,29.785,-90.820,10.742,154.785
1573889650.063,18.555,30.762,-650.391,-8.301,-15.137
1573889650.067,9.277,34.668,-389.648,-13.672,-117.676
1573889650.071,19.043,35.645,122.559,9.766,-9.277
1573889650.075,38.574,40.527,253.906,37.109,152.832
1573889650.079,31.738,36.133,32.227,25.391,83.008
1573889650.083,18.555,30.273,-153.320,11.719,-86.426
1573889650.087,32.227,39.551,162.598,35.156,12.207
1573889650.090,46.875,42.969,410.645,53.711,179.199
1573889650.094,37.598,34.180,138.672,37.109,120.605
1573889650.098,21.973,29.297,-127.441,17.578,-31.738
1573889650.102,25.391,29.297,-210.938,26.367,-67.383
1573889650.106,40.527,31.250,27.344,43.457,104.980
1573889650.110,41.504,35.156,159.668,37.598,141.602
1573889650.114,26.855,31.738,-79.590,14.160,-8.301
1573889650.118,22.949,24.902,-160.156,8.301,-51.758
1573889650.122,39.062,25.879,-107.910,28.809,49.316
1573889650.126,35.156,27.344,117.676,28.320,141.113
1573889650.130,14.160,24.902,-50.781,0.000,16.602
1573889650.133,6.836,21.973,-270.508,-9.277,-115.723
1573889650.137,19.531,28.320,121.094,10.254,-0.977
1573889650.141,26.367,33.691,476.074,20.508,164.062
1573889650.145,14.648,22.461,125.000,5.859,68.359
1573889650.149,0.000,17.578,-291.992,-7.812,-99.121
1573889650.153,5.371,21.484,-126.953,6.836,-50.781
1573889650.157,23.438,31.738,337.402,26.855,122.070
1573889650.161,21.973,32.715,293.945,16.602,112.305
1573889650.165,9.277,29.785,-336.426,-7.324,-35.156
1573889650.169,14.160,37.109,-269.043,-0.977,-74.219
1573889650.173,30.762,33.691,473.633,27.832,67.871
1573889650.176,30.762,20.508,402.832,23.438,140.625
1573889650.180,20.996,24.902,-108.398,1.953,-19.531
1573889650.184,26.855,25.391,34.180,9.766,-113.281
1573889650.188,44.434,19.531,551.270,37.598,25.879
1573889650.192,48.828,26.855,604.004,41.504,160.645
1573889650.196,38.574,31.738,6.836,23.438,15.625
1573889650.200,37.598,31.738,-205.078,21.973,-123.047
1573889650.204,50.781,30.762,320.312,43.457,-7.812
1573889650.208,59.082,24.414,555.664,50.293,138.184
1573889650.212,49.805,22.461,196.289,30.762,70.312
1573889650.215,38.574,25.391,43.457,16.113,-87.891
1573889650.219,46.875,32.715,409.180,32.715,-64.941
1573889650.223,60.059,32.715,540.039,53.711,111.328
1573889650.227,44.434,25.879,127.930,33.203,121.582
1573889650.231,26.367,19.531,16.113,8.301,-37.598
1573889650.235,26.367,16.602,166.016,15.137,-78.125
1573889650.239,36.621,25.391,458.008,39.062,72.266
1573889650.243,32.715,26.855,391.602,34.180,143.555
1573889650.247,13.672,28.320,-40.039,8.301,1.465
1573889650.251,7.812,38.574,-99.121,7.812,-111.328
1573889650.255,18.066,33.691,284.668,23.926,6.836
1573889650.258,26.855,26.367,491.211,30.762,137.695
1573889650.262,18.555,28.320,253.418,15.137,55.176
1573889650.266,10.742,29.785,55.176,6.836,-70.801
1573889650.270,11.719,35.645,-46.387,13.672,-47.852
1573889650.274,15.137,38.574,191.406,19.043,117.676
1573889650.278,8.789,39.551,289.062,10.742,115.723
1573889650.282,-6.836,43.457,-146.973,-7.324,-76.660
1573889650.286,-1.465,35.156,3.906,7.812,-60.547
1573889650.290,10.742,20.020,337.402,28.809,113.770
1573889650.294,10.254,20.020,37.109,19.043,115.723
1573889650.298,-2.441,25.391,-471.680,-5.371,-29.297
1573889650.301,0.000,29.297,-509.277,-2.441,-63.477
1573889650.305,25.391,34.180,162.598,27.344,79.590
1573889650.309,32.227,42.969,415.039,29.297,168.945
1573889650.313,14.160,48.340,-72.754,-2.441,27.832
1573889650.317,10.742,41.992,-237.305,-5.859,-110.352
1573889650.321,17.578,35.156,288.086,16.602,28.809
1573889650.325,23.926,38.086,468.262,24.414,177.246
1573889650.329,13.672,35.645,9.277,5.371,83.496
1573889650.333,-4.395,26.855,-301.758,-13.184,-68.359
1573889650.337,3.906,29.785,-129.395,1.953,-26.367
1573889650.340,21.973,40.039,123.047,27.832,137.695
1573889650.344,14.648,39.551,-302.734,9.277,134.277
1573889650.348,-2.930,37.598,-744.141,-15.137,-47.363
1573889650.352,-1.953,35.645,-211.914,1.465,-73.730
1573889650.356,13.184,32.227,243.164,23.438,98.145
1573889650.360,13.672,33.203,80.566,16.113,160.645
1573889650.364,2.441,33.203,-269.531,-4.395,-17.578
1573889650.368,-1.953,37.109,-176.270,-4.395,-104.980
1573889650.372,8.789,41.016,147.461,15.625,48.340
1573889650.376,18.066,37.598,86.914,17.090,140.625
1573889650.380,-0.977,32.715,-194.336,-9.766,20.020
1573889650.383,-11.719,31.738,-321.777,-18.066,-83.008
1573889650.387,2.441,41.504,-83.496,-0.488,29.785
1573889650.391,14.160,51.270,-119.141,8.301,126.953
1573889650.395,8.301,46.875,-199.707,-4.883,80.078
1573889650.399,-3.418,45.410,-159.180,-18.555,-61.523
1573889650.403,-0.977,39.551,-87.891,-7.812,-78.125
1573889650.407,13.184,32.715,182.129,10.254,104.004
1573889650.411,13.184,36.621,210.449,3.418,140.137
1573889650.415,-2.930,41.992,-108.398,-14.160,-35.156
1573889650.419,-4.395,42.969,-60.059,-8.301,-69.336
1573889650.423,14.160,43.457,387.207,14.648,121.094
1573889650.426,21.973,39.062,416.992,20.508,179.199
1573889650.430,12.695,30.762,-183.105,4.883,-24.902
1573889650.434,9.766,25.879,-559.570,-1.953,-118.164
1573889650.438,22.461,30.273,-153.320,16.113,29.785
1573889650.442,33.203,35.645,312.012,24.414,145.508
1573889650.446,26.855,41.992,21.973,10.254,45.410
1573889650.450,20.996,39.551,-170.410,3.418,-65.430
1573889650.454,34.668,29.785,287.598,23.438,23.438
1573889650.458,49.805,38.086,593.750,43.457,175.293
1573889650.462,38.574,40.527,101.074,25.391,97.656
1573889650.465,22.461,31.250,-292.480,6.348,-83.984
1573889650.469,25.391,35.645,77.637,14.160,-64.941
1573889650.473,39.551,39.551,493.652,33.691,109.863
1573889650.477,32.227,30.762,60.059,25.391,105.469
1573889650.481,10.254,30.762,-520.996,-0.488,-52.246
1573889650.485,5.371,41.504,-103.027,3.418,-65.918
1573889650.489,17.578,37.598,420.898,22.461,58.594
1573889650.493,24.902,28.809,194.824,23.438,128.418
1573889650.497,14.160,31.250,-266.602,0.000,5.371
1573889650.501,-2.441,35.645,-147.949,-16.602,-105.469
1573889650.505,0.977,28.320,274.414,-4.395,7.324
1573889650.508,13.672,27.832,316.895,4.883,142.090
1573889650.512,4.883,33.203,-44.922,-14.160,54.199
1573889650.516,-3.906,36.133,-238.770,-25.879,-90.332
1573889650.520,12.207,42.969,-5.859,-3.906,-41.992
1573889650.524,27.832,48.340,246.094,13.184,143.066
1573889650.528,28.809,49.316,-5.371,3.906,119.629
1573889650.532,19.043,52.734,-187.500,-13.672,-43.945
1573889650.536,18.555,48.828,118.652,-4.883,-26.855
1573889650.540,37.598,38.574,97.168,20.020,94.238
1573889650.544,43.457,35.645,-270.996,23.438,95.215
1573889650.548,33.691,41.504,-324.219,9.766,-39.551
1573889650.551,31.250,45.410,-169.922,9.277,-80.566
1573889650.555,43.945,42.969,163.574,32.715,69.824
1573889650.559,50.293,40.527,264.648,40.039,146.973
1573889650.563,40.039,40.527,-97.656,18.555,2.441
1573889650.567,30.762,34.180,-231.934,10.742,-88.867
1573889650.571,30.762,25.391,-15.625,23.926,14.160
1573889650.575,34.668,18.066,77.637,29.297,163.574
1573889650.579,25.879,16.602,-134.277,12.695,86.914
1573889650.583,22.949,21.973,-487.793,3.418,-119.141
1573889650.587,33.691,29.785,-461.914,16.113,-87.891
1573889650.590,40.039,43.457,142.578,28.320,131.836
1573889650.594,29.785,36.133,209.473,17.090,143.555
1573889650.598,15.625,22.461,-230.957,-2.930,-31.738
1573889650.602,20.508,30.273,-64.941,10.254,-36.133
1573889650.606,33.691,33.691,457.520,36.621,136.719
1573889650.610,27.832,34.668,358.887,28.320,179.199
1573889650.614,8.301,38.086,-201.660,5.371,-11.230
1573889650.618,4.395,33.203,-329.590,13.184,-98.633
1573889650.622,20.996,32.715,45.898,42.969,57.617
1573889650.626,29.785,37.109,132.812,47.363,145.996
1573889650.630,22.461,40.039,-524.902,30.273,0.000
1573889650.633,17.578,35.156,-724.609,25.391,-137.207
1573889650.637,31.738,35.156,45.410,52.246,-28.809
1573889650.641,55.664,41.504,350.098,80.566,151.855
1573889650.645,51.758,37.109,-27.832,62.988,99.121
1573889650.649,37.598,35.645,-226.074,41.016,-65.430
1573889650.653,48.828,36.621,143.555,57.129,-24.902
1573889650.657,69.824,35.645,338.867,77.637,120.605
1573889650.661,71.289,42.480,55.176,70.801,119.629
1573889650.665,58.105,45.898,-320.801,49.805,-24.414
1573889650.669,60.059,40.039,-208.008,50.781,-59.570
1573889650.673,77.148,37.109,116.699,67.871,80.078
1573889650.676,73.730,40.039,-132.324,57.617,141.602
1573889650.680,53.223,40.039,-303.223,31.738,11.719
1573889650.684,45.898,36.133,-99.609,28.320,-79.102
1573889650.688,48.828,32.227,142.090,39.551,33.203
1573889650.692,43.457,28.320,187.500,36.621,141.602
1573889650.696,24.902,24.414,-2.930,11.230,61.035
1573889650.700,9.277,25.879,-132.324,-5.859,-69.336
1573889650.704,9.766,29.297,135.254,8.789,9.766
1573889650.708,16.113,23.438,370.605,27.344,160.645
1573889650.712,2.930,20.508,-108.398,10.742,62.988
1573889650.715,-12.207,29.297,-478.027,-8.301,-105.469
1573889650.719,-0.977,34.180,-386.719,5.371,-83.496
1573889650.723,9.766,26.367,-34.668,17.578,112.793
1573889650.727,7.324,23.438,157.715,12.695,133.789
1573889650.731,0.488,28.320,-280.762,0.977,-71.777
1573889650.735,1.953,33.691,-270.508,2.441,-104.492
1573889650.739,13.672,32.227,294.922,17.578,86.914
1573889650.743,19.043,28.809,323.730,23.926,172.852
1573889650.747,4.883,20.508,-312.012,4.395,0.977
1573889650.751,-8.789,17.090,-353.027,-3.906,-107.910
1573889650.755,8.789,28.320,148.926,22.949,13.672
1573889650.758,24.902,36.621,191.895,36.621,141.602
1573889650.762,11.719,32.715,-378.418,11.719,18.066
1573889650.766,-3.906,29.297,-634.766,-7.812,-124.023
1573889650.770,3.906,35.156,20.996,9.766,-19.531
1573889650.774,19.043,40.527,541.016,25.879,155.762
1573889650.778,18.066,36.133,63.965,10.742,115.723
1573889650.782,11.230,38.086,-494.629,-7.812,-82.031
1573889650.786,16.602,43.457,-77.148,5.371,-103.027
1573889650.790,28.320,39.551,435.547,22.949,81.055
1573889650.794,25.391,31.250,186.035,5.859,124.512
1573889650.798,12.207,23.926,-333.984,-26.367,-63.477
1573889650.801,8.789,25.879,-90.820,-24.902,-100.098
1573889650.805,26.367,39.551,315.918,-0.977,48.828
1573889650.809,38.574,38.086,153.809,7.324,108.398
1573889650.813,29.297,26.855,-86.426,-4.883,-4.883
1573889650.817,21.973,24.414,41.016,-11.719,-112.305
1573889650.821,32.715,25.391,514.648,10.742,23.438
1573889650.825,44.434,25.391,418.945,25.391,132.324
1573889650.829,35.156,29.785,91.309,8.301,62.988
1573889650.833,23.926,38.086,223.633,-3.418,-36.133
1573889650.837,30.762,41.016,458.496,12.207,-16.602
1573889650.840,43.945,37.109,578.613,32.715,133.789
1573889650.844,44.922,28.809,410.645,23.926,107.910
1573889650.848,35.645,18.066,199.707,7.324,-46.387
1573889650.852,33.691,11.719,211.426,15.625,-50.781
1573889650.856,43.457,18.555,223.145,32.715,70.312
1573889650.860,41.504,23.438,315.430,28.320,125.488
1573889650.864,29.785,20.996,206.055,7.812,-16.113
1573889650.868,27.344,20.020,48.828,5.371,-139.160
1573889650.872,37.109,24.414,370.117,26.855,1.953
1573889650.876,46.387,27.832,628.906,36.621,158.203
1573889650.880,38.574,24.902,295.898,19.043,35.156
1573889650.883,19.043,20.020,25.391,-1.953,-101.074
1573889650.887,20.996,24.902,338.867,12.207,-3.906
1573889650.891,30.273,33.203,697.754,26.855,170.898
1573889650.895,15.625,29.297,318.848,0.488,69.336
1573889650.899,-4.883,25.391,-220.215,-22.461,-127.930
1573889650.903,2.441,39.551,-8.789,-5.371,-67.871
1573889650.907,24.414,51.270,541.992,20.020,124.023
1573889650.911,23.926,35.645,353.027,11.230,129.883
1573889650.915,9.766,26.367,-240.723,-7.324,-68.848
1573889650.919,11.719,31.738,-69.336,5.859,-106.445
1573889650.923,26.855,36.133,488.770,28.320,82.520
1573889650.926,32.715,29.785,418.945,28.320,160.156
1573889650.930,13.672,23.438,-350.098,2.441,1.465
1573889650.934,-2.930,31.250,-393.066,-9.277,-98.145
1573889650.938,7.812,32.715,314.941,14.648,39.062
1573889650.942,18.555,30.762,388.672,24.902,172.363
1573889650.946,7.324,22.461,-192.383,2.930,49.805
1573889650.950,-4.395,16.113,-416.016,-7.812,-78.613
1573889650.954,10.254,24.414,149.902,14.160,23.926
1573889650.958,23.926,32.715,363.770,33.691,167.480
1573889650.962,15.625,30.273,-206.055,14.160,104.492
1573889650.965,4.395,34.180,-326.172,-4.883,-26.855
1573889650.969,14.648,43.457,48.828,17.090,-5.371
1573889650.973,30.762,42.480,284.668,37.109,114.746
1573889650.977,21.973,28.809,135.742,20.508,124.023
1573889650.981,11.230,26.855,-181.152,8.789,-50.293
1573889650.985,17.578,30.273,-98.633,20.996,-108.398
1573889650.989,30.762,28.320,183.594,44.434,47.852
1573889650.993,29.297,28.809,22.949,45.410,134.766
1573889650.997,11.719,28.320,-396.484,18.555,11.230
1573889651.001,0.488,22.461,-423.828,11.230,-98.145
1573889651.005,14.160,25.391,-66.895,34.668,28.320
1573889651.008,25.879,31.250,130.371,39.062,157.715
1573889651.012,17.578,30.762,-22.949,15.625,66.406
1573889651.016,6.348,21.973,-211.914,0.977,-60.059
1573889651.020,14.648,20.020,-142.578,12.695,-25.391
1573889651.024,23.926,24.902,83.984,22.949,122.559
1573889651.028,15.137,25.879,-12.207,11.719,105.469
1573889651.032,6.348,19.043,-354.492,-2.441,-61.523
1573889651.036,6.836,13.184,-253.418,4.395,-73.242
1573889651.040,19.043,19.043,156.738,26.367,100.586
1573889651.044,21.973,24.414,42.480,20.508,133.301
1573889651.048,16.113,22.461,-428.223,0.488,-36.621
1573889651.051,20.020,19.043,-508.789,10.254,-96.191
1573889651.055,37.598,27.832,166.504,38.086,53.711
1573889651.059,46.387,24.414,441.406,41.016,148.926
1573889651.063,34.180,12.207,-58.594,18.066,20.508
1573889651.067,26.855,14.648,-189.453,14.648,-104.492
1573889651.071,41.504,20.020,296.875,34.668,-2.441
1573889651.075,51.758,23.438,522.949,44.434,154.785
1573889651.079,46.875,31.250,112.793,36.621,89.355
1573889651.083,37.109,41.992,-241.699,26.855,-68.848
1573889651.087,37.109,34.180,-28.809,36.133,-51.758
1573889651.090,45.898,19.043,280.762,50.293,121.582
1573889651.094,42.969,17.578,-152.344,34.668,113.770
1573889651.098,21.973,22.949,-545.898,6.348,-67.871
1573889651.102,18.066,23.926,13.184,10.254,-78.125
1573889651.106,38.086,27.344,473.145,35.645,88.867
1573889651.110,38.574,35.156,299.805,31.738,144.531
1573889651.114,20.996,38.574,-55.176,8.789,-20.508
1573889651.118,19.043,42.480,15.137,10.254,-107.910
1573889651.122,34.668,39.551,330.566,29.785,33.203
1573889651.126,31.250,27.832,337.891,28.320,154.297
1573889651.130,15.625,23.438,124.512,3.418,89.844
1573889651.133,6.836,30.762,-103.027,-5.371,-51.270
1573889651.137,8.789,24.414,-72.266,8.789,-18.555
1573889651.141,20.020,20.508,-75.684,18.066,117.676
1573889651.145,16.113,35.645,-173.340,8.301,60.547
1573889651.149,7.812,41.504,-187.988,0.977,-98.145
1573889651.153,11.719,30.273,42.480,18.066,-49.805
1573889651.157,20.508,18.066,324.707,32.715,117.676
1573889651.161,22.461,8.789,228.027,26.367,124.512
1573889651.165,14.648,14.160,-57.617,16.113,-12.207
1573889651.169,11.719,21.484,-51.270,20.996,-62.500
1573889651.173,26.855,24.414,277.832,38.574,71.777
1573889651.176,33.203,31.738,259.766,37.109,152.832
1573889651.180,26.367,41.992,-237.305,26.855,18.066
1573889651.184,27.344,34.668,-637.207,26.855,-124.023
1573889651.188,28.809,16.602,-271.484,33.203,2.930
1573889651.192,35.645,15.625,279.785,39.062,162.598
1573889651.196,34.668,17.578,-194.336,24.414,22.461
1573889651.200,22.949,20.020,-483.398,11.719,-114.258
1573889651.204,36.621,32.715,85.449,34.180,-6.836
1573889651.208,50.293,43.457,507.324,51.270,171.875
1573889651.212,36.621,43.457,133.301,30.762,113.770
1573889651.215,20.020,29.785,-279.785,9.277,-57.617
1573889651.219,18.555,21.973,35.645,15.625,-46.387
1573889651.223,31.250,25.391,434.082,33.691,118.164
1573889651.227,26.855,22.461,71.777,25.879,126.465
1573889651.231,4.883,25.879,-543.457,0.488,-54.688
1573889651.235,-0.977,30.273,-273.438,4.883,-74.219
1573889651.239,10.742,22.461,387.207,27.832,89.844
1573889651.243,14.160,17.090,192.871,27.832,156.250
1573889651.247,-4.395,14.160,-530.762,2.441,2.930
1573889651.251,-13.184,17.578,-494.629,-1.953,-116.699
1573889651.255,2.930,26.367,46.875,17.090,8.789
1573889651.258,10.742,32.227,223.633,19.531,148.926
1573889651.262,2.930,38.574,-112.305,2.441,52.246
1573889651.266,-2.441,35.156,-230.469,-7.324,-90.820
1573889651.270,9.766,26.855,122.559,7.324,-26.855
1573889651.274,25.391,27.344,308.594,28.809,147.949
1573889651.278,25.391,26.855,-133.789,18.066,90.820
1573889651.282,12.695,25.879,-389.160,3.906,-79.590
1573889651.286,17.578,31.250,-8.789,21.973,-62.500
1573889651.290,32.227,29.785,-20.508,35.645,56.641
1573889651.294,22.461,21.973,-270.508,25.391,87.402
1573889651.298,9.766,20.508,-265.137,4.883,-35.645
1573889651.301,17.578,25.391,-189.453,10.742,-100.098
1573889651.305,32.715,25.391,169.922,34.180,56.641
1573889651.309,36.133,22.949,245.117,32.715,168.457
1573889651.313,27.344,22.461,-139.648,12.695,13.184
1573889651.317,20.020,22.461,-244.629,5.371,-97.656
1573889651.321,40.039,23.926,-10.742,31.250,9.766
1573889651.325,46.875,20.508,110.840,41.504,150.879
1573889651.329,35.156,16.602,-47.852,20.996,88.867
1573889651.333,39.062,18.555,-401.367,18.066,-106.445
1573889651.337,41.992,20.996,-425.293,28.320,-88.867
1573889651.340,44.922,25.879,159.180,45.410,116.699
1573889651.344,43.945,27.832,227.051,38.086,127.441
1573889651.348,26.367,19.531,-226.074,10.742,-52.734
1573889651.352,21.973,17.090,-125.000,18.555,-83.008
1573889651.356,39.551,29.785,375.977,46.387,85.938
1573889651.360,48.340,34.668,356.934,50.293,153.320
1573889651.364,33.203,28.809,-159.668,26.367,8.789
1573889651.368,21.484,32.715,-394.531,20.020,-102.539
1573889651.372,25.879,32.227,12.695,35.645,22.461
1573889651.376,33.203,28.320,287.598,39.551,144.531
1573889651.380,24.902,29.785,-402.832,15.625,2.930
1573889651.383,13.184,21.973,-707.520,2.441,-121.582
1573889651.387,25.391,23.926,23.926,25.879,-3.418
1573889651.391,33.691,32.227,323.242,34.668,155.762
1573889651.395,20.020,28.809,-34.180,11.719,84.961
1573889651.399,8.301,23.438,-248.047,-6.836,-85.938
1573889651.403,14.648,25.879,30.762,4.395,-87.402
1573889651.407,30.762,28.320,280.273,20.020,85.449
1573889651.411,31.738,26.367,32.227,9.766,89.355
1573889651.415,24.414,26.855,-371.094,-5.859,-52.246
1573889651.419,31.250,28.320,-190.430,2.930,-59.082
1573889651.423,42.480,28.320,104.492,20.020,50.293
1573889651.426,39.062,22.461,-231.934,11.719,86.914
1573889651.430,25.879,17.090,-361.816,-5.371,-20.996
1573889651.434,18.555,18.555,-104.492,1.465,-108.887
1573889651.438,26.367,21.973,218.750,21.973,10.254
1573889651.442,28.320,27.344,330.078,23.926,143.555
1573889651.446,20.508,33.203,169.922,8.789,65.918
1573889651.450,17.090,27.344,21.973,5.371,-97.168
1573889651.454,18.555,14.648,225.586,18.066,-54.199
1573889651.458,28.809,14.160,502.930,27.832,124.023
1573889651.462,28.809,17.578,194.336,16.113,78.613
1573889651.465,19.531,18.555,-161.133,3.906,-81.055
1573889651.469,31.738,23.438,-137.207,20.020,-83.984
1573889651.473,46.387,26.367,134.277,37.598,57.129
1573889651.477,43.457,28.320,323.242,31.738,100.586
1573889651.481,37.109,25.391,-12.695,14.648,-54.199
1573889651.485,38.574,26.855,92.285,21.484,-101.074
1573889651.489,48.828,36.133,675.781,41.016,66.406
1573889651.493,44.922,28.809,778.320,34.180,152.832
1573889651.497,35.645,18.066,323.242,17.578,35.156
1573889651.501,39.551,27.832,221.191,19.531,-56.641
1573889651.505,62.988,41.016,676.758,42.480,37.598
1573889651.508,74.219,42.969,744.629,52.246,167.480
1573889651.512,62.988,41.504,148.926,30.762,68.359
1573889651.516,52.246,34.668,-369.629,11.719,-126.465
1573889651.520,51.270,26.855,168.945,20.508,-50.293
1573889651.524,63.965,36.133,835.449,41.992,171.387
1573889651.528,58.594,39.062,452.637,32.227,116.211
1573889651.532,39.551,35.645,3.906,14.160,-69.336
1573889651.536,42.969,38.574,251.465,27.344,-49.316
1573889651.540,54.688,41.992,666.504,42.480,117.188
1573889651.544,51.270,36.133,493.164,34.180,140.137
1573889651.548,33.691,27.832,-4.395,11.719,-39.551
1573889651.551,25.879,25.391,118.652,8.789,-92.285
1573889651.555,37.109,26.367,458.984,34.668,57.617
1573889651.559,40.039,27.344,110.352,35.645,138.184
1573889651.563,20.020,29.785,-435.547,5.371,4.395
1573889651.567,7.812,27.344,-158.203,-2.441,-85.449
1573889651.571,17.578,17.578,358.398,18.555,18.066
1573889651.575,24.902,20.996,435.547,27.832,146.484
1573889651.579,14.160,23.926,160.645,7.812,82.031
1573889651.583,2.441,20.508,-71.777,-8.789,-98.145
1573889651.587,6.348,24.902,98.145,6.348,-73.730
1573889651.590,16.602,26.855,198.242,24.902,80.566
1573889651.594,12.695,25.879,-64.941,11.719,70.801
1573889651.598,-0.977,24.902,-202.148,-11.230,-21.973
1573889651.602,5.371,30.762,-229.004,-0.488,-68.848
1573889651.606,16.602,38.086,-161.621,16.113,50.293
1573889651.610,13.672,36.621,-12.207,4.395,125.488
1573889651.614,0.977,25.879,-141.113,-19.043,-28.320
1573889651.618,1.465,29.297,-268.555,-20.020,-140.625
1573889651.622,24.414,34.668,102.539,6.836,4.395
1573889651.626,31.738,33.203,359.863,12.695,154.297
1573889651.630,24.414,45.410,77.148,-4.883,69.336
1573889651.633,25.391,50.293,-236.328,-5.371,-98.145
1573889651.637,31.250,47.852,0.488,14.160,-40.527
1573889651.641,47.363,48.828,380.859,34.180,155.762
1573889651.645,44.922,42.480,95.215,23.926,98.145
1573889651.649,30.273,28.320,-398.438,7.812,-84.961
1573889651.653,36.133,28.809,-319.336,28.320,-68.848
1573889651.657,48.340,36.133,80.078,51.758,121.094
1573889651.661,42.969,33.691,76.660,42.969,143.555
1573889651.665,30.762,36.133,-575.195,26.855,-42.969
1573889651.669,31.738,40.039,-602.051,33.691,-100.586
1573889651.673,38.574,29.785,176.758,50.781,47.852
1573889651.676,37.598,21.973,210.449,44.922,137.207
1573889651.680,24.414,22.461,-270.020,17.578,-2.930
1573889651.684,14.160,22.461,-199.219,9.766,-89.355
1573889651.688,18.555,26.367,349.121,27.832,57.129
1573889651.692,21.484,32.715,427.734,26.367,184.570
1573889651.696,9.766,38.574,-172.852,0.977,52.246
1573889651.700,2.441,28.809,-392.578,-2.930,-67.383
1573889651.704,6.836,20.996,57.129,15.625,11.719
1573889651.708,14.160,25.879,121.094,20.020,119.141
1573889651.712,5.371,25.391,-340.820,-0.488,83.496
1573889651.715,-7.812,29.297,-392.578,-16.602,-78.125
1573889651.719,-0.488,39.551,46.875,-4.883,-83.984
1573889651.723,17.090,35.156,309.082,15.625,78.125
1573889651.727,21.973,20.996,83.984,13.672,86.426
1573889651.731,15.137,24.414,-213.379,-2.930,-86.426
1573889651.735,15.137,29.297,-17.090,2.441,-101.562
1573889651.739,31.250,30.273,398.438,26.855,81.543
1573889651.743,40.039,34.668,267.578,27.832,152.344
1573889651.747,32.227,29.785,-260.742,7.812,-0.977
1573889651.751,29.297,33.691,-269.043,7.324,-107.910
1573889651.755,42.969,33.203,-79.590,29.785,-14.160
1573889651.758,41.992,19.531,39.062,32.227,142.578
1573889651.762,33.203,21.484,40.527,18.555,99.609
1573889651.766,25.879,28.809,-185.547,8.789,-75.684
1573889651.770,29.297,29.297,66.895,22.461,-36.621
1573889651.774,46.387,23.438,487.305,46.387,155.273
1573889651.778,41.016,17.578,279.785,36.621,110.840
1573889651.782,26.367,20.020,-240.234,20.508,-88.379
1573889651.786,24.414,18.066,-143.066,23.438,-95.703
1573889651.790,34.668,17.578,233.887,40.527,98.633
1573889651.794,37.109,25.879,208.496,38.574,174.805
1573889651.798,26.367,31.738,-200.195,16.602,16.602
1573889651.801,18.555,33.203,-475.586,13.184,-83.984
1573889651.805,22.461,27.832,29.297,27.832,21.484
1573889651.809,22.461,16.602,274.414,25.879,145.020
1573889651.813,7.324,20.996,-180.176,2.930,32.227
1573889651.817,0.488,27.344,-362.305,-5.859,-106.934
1573889651.821,4.883,24.414,63.477,2.441,1.465
1573889651.825,16.602,29.785,404.785,15.137,165.039
1573889651.829,15.625,28.320,3.906,5.371,80.566
1573889651.833,6.836,23.926,-283.691,-6.836,-68.359
1573889651.837,9.766,30.273,-18.066,6.348,-26.855
1573889651.840,20.996,32.227,184.570,24.902,114.746
1573889651.844,21.973,33.203,-241.211,16.602,108.398
1573889651.848,6.348,35.645,-669.434,-6.348,-75.684
1573889651.852,6.836,30.273,-143.555,1.465,-84.473
1573889651.856,20.996,27.832,337.402,21.973,90.332
1573889651.860,25.879,28.809,118.164,20.020,125.000
1573889651.864,12.695,27.832,-231.934,-1.953,-27.344
1573889651.868,4.395,31.250,-100.586,-2.930,-97.168
1573889651.872,19.531,34.180,251.953,22.949,45.898
1573889651.876,26.855,28.320,229.492,28.320,166.992
1573889651.880,13.184,22.949,-90.820,3.418,44.434
1573889651.883,12.695,29.785,-264.648,0.000,-80.078
1573889651.887,27.344,31.738,-153.809,22.949,-27.344
1573889651.891,33.691,26.367,-83.008,29.297,124.023
1573889651.895,23.926,28.809,-98.633,11.719,112.793
1573889651.899,16.602,35.645,-122.070,0.488,-45.410
1573889651.903,22.949,40.039,32.715,17.090,-39.551
1573889651.907,35.156,39.551,354.492,36.133,136.230
1573889651.911,36.621,34.180,319.824,28.320,164.062
1573889651.915,24.902,36.133,-7.812,13.672,16.113
1573889651.919,21.973,33.691,-36.133,14.648,-47.363
1573889651.923,37.598,29.297,284.668,35.156,79.590
1573889651.926,46.387,36.133,370.605,40.039,172.852
1573889651.930,30.273,36.621,-154.297,13.184,36.133
1573889651.934,20.020,39.551,-435.547,6.836,-88.867
1573889651.938,31.250,40.039,-16.113,34.668,12.207
1573889651.942,47.852,33.691,270.508,55.664,135.742
1573889651.946,35.156,30.762,3.906,34.180,62.500
1573889651.950,19.531,28.809,-541.504,19.043,-82.031
1573889651.954,23.926,29.785,-305.664,38.086,-29.297
1573889651.958,33.691,36.621,402.344,49.316,159.668
1573889651.962,32.715,46.387,153.320,35.156,135.254
1573889651.965,18.555,38.574,-284.668,8.301,-31.250
1573889651.969,18.066,26.855,-76.172,5.859,-72.266
1573889651.973,27.832,30.273,334.473,21.973,79.102
1573889651.977,25.879,31.250,67.383,18.066,140.625
1573889651.981,10.742,26.855,-654.297,-8.789,-19.531
1573889651.985,7.812,28.809,-453.125,-9.277,-101.562
1573889651.989,27.832,31.250,169.434,20.020,53.711
1573889651.993,29.785,31.738,138.184,18.555,155.762
1573889651.997,10.742,27.832,-227.051,-11.719,19.531
1573889652.001,-1.953,20.996,-173.340,-23.438,-81.543
1573889652.005,11.719,22.949,233.887,2.441,14.160
1573889652.008,26.367,27.344,319.824,16.113,145.508
1573889652.012,17.578,33.691,-59.570,0.000,65.918
1573889652.016,8.301,33.691,-184.082,-10.254,-67.383
1573889652.020,18.066,27.344,111.328,6.836,-2.930
1573889652.024,31.738,20.996,150.391,24.414,123.047
1573889652.028,22.949,23.438,-223.145,6.836,84.961
1573889652.032,3.418,30.273,-319.824,-16.113,-18.066
1573889652.036,6.836,35.156,65.430,-1.953,-17.090
1573889652.040,24.902,37.598,126.953,18.555,108.887
1573889652.044,23.438,35.156,-203.125,8.789,138.672
1573889652.048,14.648,26.855,-372.070,-4.883,-40.039
1573889652.051,20.020,23.926,-249.023,3.906,-110.352
1573889652.055,33.691,27.832,154.297,26.367,56.641
1573889652.059,43.457,32.227,353.516,31.738,176.758
1573889652.063,39.062,42.480,27.832,16.602,57.129
1573889652.067,36.621,39.062,-208.008,16.602,-78.613
1573889652.071,44.922,21.973,-108.398,35.645,-38.574
1573889652.075,52.734,20.020,35.156,44.434,118.164
1573889652.079,48.828,22.461,-47.852,29.297,85.449
1573889652.083,39.551,22.949,-351.074,12.695,-85.938
1573889652.087,41.504,24.902,-381.348,24.414,-69.824
1573889652.090,50.781,34.668,170.898,47.852,110.352
1573889652.094,50.293,41.504,253.418,41.992,116.699
1573889652.098,33.691,32.227,-206.543,17.578,-47.852
1573889652.102,31.250,23.926,-141.113,23.926,-71.777
1573889652.106,43.457,20.508,468.262,43.945,105.957
1573889652.110,50.781,30.273,559.570,41.992,172.363
1573889652.114,38.574,32.715,34.668,20.508,-1.953
1573889652.118,25.879,27.832,-114.258,13.672,-91.797
1573889652.122,33.691,30.273,304.688,31.250,50.781
1573889652.126,37.109,28.809,587.402,40.039,171.387
1573889652.130,31.738,27.832,15.137,20.020,58.105
1573889652.133,28.809,26.367,-396.484,6.348,-116.211
1573889652.137,36.133,29.297,301.758,30.273,-45.410
1573889652.141,43.945,38.086,708.008,47.363,146.973
1573889652.145,36.133,38.574,333.984,30.273,93.262
1573889652.149,24.414,25.391,97.168,12.207,-82.031
1573889652.153,22.461,17.090,483.398,25.391,-39.062
1573889652.157,32.227,19.531,707.520,41.992,131.348
1573889652.161,32.715,20.508,430.664,32.715,127.441
1573889652.165,20.996,26.855,14.160,12.207,-45.410
1573889652.169,17.090,36.133,62.012,9.277,-99.609
1573889652.173,28.320,33.203,437.988,22.461,51.758
1573889652.176,30.273,17.090,444.336,18.555,160.645
1573889652.180,17.578,11.719,148.438,-4.395,8.301
1573889652.184,14.160,19.043,157.715,-3.418,-107.422
1573889652.188,30.273,18.066,391.113,21.484,24.902
1573889652.192,46.875,20.996,246.094,31.738,156.250
1573889652.196,39.551,30.762,123.535,15.137,76.660
1573889652.200,25.879,33.691,119.629,-0.977,-64.941
1573889652.204,31.250,33.203,272.949,13.672,-33.203
1573889652.208,43.945,22.949,510.742,31.250,136.719
1573889652.212,41.504,18.066,215.332,20.020,115.723
1573889652.215,32.715,22.461,-282.715,10.254,-89.355
1573889652.219,35.645,22.461,-308.594,24.902,-104.980
1573889652.223,42.480,21.484,37.598,40.527,75.684
1573889652.227,38.086,24.414,352.051,36.133,156.250
1573889652.231,27.344,28.320,31.250,20.996,17.090
1573889652.235,20.996,27.344,-106.445,20.996,-87.891
1573889652.239,25.879,23.926,369.629,37.109,51.758
1573889652.243,26.855,24.902,514.160,34.180,170.410
1573889652.247,19.043,28.320,7.812,17.578,32.715
1573889652.251,13.184,29.297,-237.305,14.648,-105.469
1573889652.255,25.879,32.715,185.059,34.668,-3.418
1573889652.258,37.598,24.902,204.590,41.504,108.398
1573889652.262,25.879,20.996,-356.445,20.996,26.367
1573889652.266,15.625,24.414,-772.461,7.812,-103.516
1573889652.270,14.160,23.438,-381.836,13.184,-69.824
1573889652.274,31.250,30.273,296.387,34.180,120.605
1573889652.278,31.250,29.785,187.012,29.785,136.230
1573889652.282,13.184,21.484,-192.871,4.883,-46.875
1573889652.286,15.625,14.648,95.215,12.207,-54.688
1573889652.290,29.297,20.508,534.668,34.180,122.559
1573889652.294,27.344,20.996,287.109,20.996,163.086
1573889652.298,8.789,15.137,-217.773,-7.812,-10.254
1573889652.301,3.418,20.020,-200.684,-9.277,-127.930
1573889652.305,17.578,21.973,89.844,11.230,16.602
1573889652.309,22.461,13.184,-163.574,13.184,132.812
1573889652.313,2.441,9.766,-593.262,-15.625,16.602
1573889652.317,-2.930,20.508,-363.281,-18.066,-104.492
1573889652.321,14.160,19.531,159.668,8.301,4.395
1573889652.325,19.531,10.742,269.531,12.695,140.625
1573889652.329,8.789,16.602,-160.156,-6.836,65.430
1573889652.333,3.906,31.250,-304.199,-15.137,-83.008
1573889652.337,11.719,20.996,-25.391,6.836,-78.125
1573889652.340,24.414,11.719,217.285,27.832,94.727
1573889652.344,24.414,23.926,99.609,18.555,92.285
1573889652.348,14.160,23.438,-179.688,6.348,-73.242
1573889652.352,17.090,15.625,-221.191,19.531,-105.957
1573889652.356,30.273,22.461,90.332,41.016,71.289
1573889652.360,35.645,34.180,258.301,41.016,157.715
1573889652.364,25.391,32.715,44.922,21.484,29.785
1573889652.368,26.367,32.227,-114.258,26.855,-67.871
1573889652.372,40.527,33.203,-68.848,43.457,20.020
1573889652.376,38.086,25.879,235.352,38.574,155.762
1573889652.380,21.973,22.949,71.777,13.184,47.363
1573889652.383,16.602,29.297,-250.488,2.441,-106.445
1573889652.387,31.250,37.109,112.305,29.785,-3.906
1573889652.391,45.898,36.133,532.227,46.387,163.086
1573889652.395,35.645,32.227,240.234,23.926,103.027
1573889652.399,19.043,31.738,-236.816,3.906,-68.359
1573889652.403,24.902,39.551,-152.344,14.160,-74.707
1573889652.407,37.109,44.434,309.570,28.809,87.891
1573889652.411,36.621,35.156,269.043,25.391,111.816
1573889652.415,28.320,28.320,-406.250,8.789,-57.617
1573889652.419,31.250,33.203,-324.219,7.812,-78.125
1573889652.423,45.898,39.551,402.344,31.738,83.008
1573889652.426,51.758,41.016,416.504,37.109,173.828
1573889652.430,34.180,39.062,-86.914,14.648,16.113
1573889652.434,21.484,38.086,-107.910,9.766,-105.957
1573889652.438,30.762,35.156,307.617,34.180,24.902
1573889652.442,41.504,33.691,255.371,46.875,147.949
1573889652.446,27.832,29.297,-220.215,24.902,48.828
1573889652.450,10.254,24.902,-472.168,8.301,-115.234
1573889652.454,18.066,27.344,35.156,26.367,-35.645
1573889652.458,29.785,27.832,294.922,39.062,121.582
1573889652.462,23.438,32.715,-308.105,20.020,62.988
1573889652.465,10.254,31.738,-419.922,0.488,-72.754
1573889652.469,15.625,31.738,57.617,11.719,-59.570
1573889652.473,32.715,33.691,313.965,34.668,89.844
1573889652.477,28.809,19.043,143.066,24.414,132.324
1573889652.481,14.648,22.461,-163.086,2.441,-33.691
1573889652.485,9.277,29.785,-117.188,4.395,-121.582
1573889652.489,25.879,30.273,221.680,25.879,41.992
1573889652.493,35.645,35.156,124.512,32.715,150.391
1573889652.497,15.625,28.809,-342.285,7.324,9.277
1573889652.501,3.418,27.344,-434.082,-4.883,-106.934
1573889652.505,18.555,30.762,-274.414,14.648,-23.438
1573889652.508,34.180,29.297,-104.980,25.391,104.004
1573889652.512,31.250,33.691,-14.648,14.160,78.125
1573889652.516,19.531,32.227,-198.242,1.953,-74.707
1573889652.520,24.902,28.320,20.020,16.113,-29.785
1573889652.524,38.574,31.738,481.934,37.109,173.340
1573889652.528,41.016,32.715,325.684,31.250,149.414
1573889652.532,28.320,28.809,-171.387,10.254,-35.645
1573889652.536,32.715,34.668,-104.492,20.508,-57.617
1573889652.540,51.758,49.316,208.008,47.363,82.520
1573889652.544,47.852,48.340,93.750,40.039,142.090
1573889652.548,33.691,37.598,-307.129,15.625,8.301
1573889652.551,37.598,38.086,-560.059,17.090,-84.473
1573889652.555,54.199,41.504,-62.012,44.922,43.945
1573889652.559,57.129,40.039,292.480,50.293,143.066
1573889652.563,45.410,43.945,-141.113,30.273,23.926
1573889652.567,32.227,46.875,-284.668,22.949,-90.820
1573889652.571,35.156,38.086,197.266,35.156,-1.953
1573889652.575,41.992,32.227,459.961,44.922,158.203
1573889652.579,37.598,30.762,66.406,33.691,94.238
1573889652.583,24.902,35.156,-209.961,20.020,-60.547
1573889652.587,28.320,35.156,-52.246,31.250,-47.363
1573889652.590,42.969,33.691,264.648,46.875,130.371
1573889652.594,39.551,31.250,-129.883,32.715,111.328
1573889652.598,26.855,32.227,-697.754,9.766,-83.496
1573889652.602,20.508,39.062,-172.363,12.695,-79.102
1573889652.606,36.133,36.133,342.285,35.156,81.543
1573889652.610,44.922,28.320,166.504,40.527,161.621
1573889652.614,28.320,29.297,-138.672,21.484,47.852
1573889652.618,14.160,32.227,-21.484,10.742,-61.035
1573889652.622,21.973,27.832,291.504,29.297,49.316
1573889652.626,39.551,25.879,292.969,46.875,160.156
1573889652.630,32.715,34.668,-105.469,33.203,25.879
1573889652.633,22.949,39.551,-333.984,23.926,-92.285
1573889652.637,34.180,32.715,-164.062,36.621,-32.715
1573889652.641,49.316,36.621,-185.547,45.410,91.309
1573889652.645,37.598,29.297,-274.902,26.855,72.266
1573889652.649,26.367,24.902,-261.230,13.184,-92.285
1573889652.653,35.645,41.992,-64.941,27.344,-68.848
1573889652.657,43.945,43.945,306.152,42.480,121.582
1573889652.661,43.457,31.738,240.723,33.691,121.582
1573889652.665,30.762,34.180,-234.863,11.719,-53.223
1573889652.669,30.762,37.598,-249.023,20.020,-81.055
1573889652.673,40.527,28.320,239.258,36.621,69.336
1573889652.676,37.109,21.484,352.051,26.367,160.645
1573889652.680,24.902,27.832,-139.160,4.395,24.414
1573889652.684,19.043,34.668,-593.262,-2.441,-105.957
1573889652.688,34.668,35.156,-277.832,22.949,17.578
1573889652.692,42.969,29.297,251.953,34.180,150.879
1573889652.696,35.645,33.203,28.809,14.160,57.129
1573889652.700,29.297,42.969,-291.504,4.883,-93.750
1573889652.704,40.527,41.992,88.379,26.367,-27.832
1573889652.708,55.664,34.668,513.672,45.410,147.949
1573889652.712,50.293,34.180,91.797,29.785,79.590
1573889652.715,35.645,40.527,-436.523,11.230,-110.352
1573889652.719,32.715,37.598,-88.379,17.578,-72.266
1573889652.723,46.387,30.762,320.312,38.086,101.562
1573889652.727,46.875,34.668,-80.078,31.738,104.980
1573889652.731,30.273,42.480,-565.430,7.812,-51.758
1573889652.735,27.832,39.551,-215.332,14.160,-82.031
1573889652.739,41.504,32.715,370.605,39.551,61.523
1573889652.743,48.340,28.809,164.062,42.969,120.117
1573889652.747,35.645,29.785,-591.797,17.090,-41.992
1573889652.751,21.484,37.598,-432.129,5.859,-115.234
1573889652.755,35.156,39.062,309.082,27.832,43.457
1573889652.758,41.992,32.227,317.871,39.062,135.254
1573889652.762,31.250,29.297,-97.168,19.043,56.152
1573889652.766,19.531,32.715,-149.902,5.859,-62.012
1573889652.770,21.484,29.297,185.059,14.160,-30.273
1573889652.774,30.273,20.996,320.312,25.879,119.629
1573889652.778,24.902,18.555,-131.348,14.160,77.148
1573889652.782,7.324,21.484,-347.168,-6.836,-62.500
1573889652.786,9.277,25.879,79.590,7.812,-62.012
1573889652.790,31.250,23.438,204.102,34.668,49.316
1573889652.794,34.668,27.832,42.969,32.227,88.867
1573889652.798,19.043,34.180,31.250,12.695,-26.367
1573889652.801,21.973,32.715,106.934,17.090,-99.609
1573889652.805,44.922,27.832,414.062,46.387,15.137
1573889652.809,46.875,25.879,597.656,45.410,150.391
1573889652.813,32.227,30.762,355.469,16.602,58.594
1573889652.817,29.297,36.621,149.414,10.742,-77.148
1573889652.821,42.480,38.574,359.375,28.320,4.395
1573889652.825,46.387,30.762,515.625,36.133,150.879
1573889652.829,34.668,27.832,297.852,15.625,81.543
1573889652.833,28.809,34.668,0.977,5.859,-79.590
1573889652.837,40.527,38.574,83.984,26.367,-69.824
1573889652.840,51.270,39.062,542.480,42.969,100.098
1573889652.844,44.434,39.062,562.500,30.762,129.395
1573889652.848,29.297,38.574,-32.227,4.883,-46.875
1573889652.852,33.203,32.227,-209.473,10.742,-92.285
1573889652.856,52.734,31.250,426.270,41.992,71.289
1573889652.860,55.176,34.668,581.543,41.504,150.391
1573889652.864,40.039,41.992,84.961,11.719,3.418
1573889652.868,41.992,47.363,-129.883,13.672,-117.188
1573889652.872,54.688,41.016,247.559,36.133,13.184
1573889652.876,56.152,39.551,508.301,38.574,163.086
1573889652.880,45.898,35.645,123.535,20.020,59.570
1573889652.883,41.992,36.133,-62.012,14.160,-86.426
1573889652.887,49.316,34.180,391.602,32.715,-8.789
1573889652.891,55.664,28.320,573.730,39.551,137.695
1573889652.895,50.293,30.273,-129.883,28.809,75.684
1573889652.899,35.645,34.668,-446.289,19.043,-66.895
1573889652.903,36.133,40.527,191.895,28.809,-33.203
1573889652.907,46.875,36.621,529.785,41.992,132.812
1573889652.911,37.598,26.367,293.945,25.391,167.480
1573889652.915,22.461,24.902,-220.703,4.883,-30.762
1573889652.919,27.344,33.203,-200.195,12.695,-109.863
1573889652.923,44.922,38.086,245.605,35.156,66.895
1573889652.926,49.316,35.645,-17.090,42.969,148.926
1573889652.930,34.180,31.250,-258.789,25.879,30.273
1573889652.934,17.090,24.902,-108.398,10.742,-96.191
1573889652.938,20.508,25.391,218.262,20.508,28.809
1573889652.942,30.762,28.809,371.582,31.250,176.758
1573889652.946,21.973,28.809,44.434,15.625,46.875
1573889652.950,8.301,25.391,-281.250,-0.488,-110.840
1573889652.954,15.625,22.461,-49.316,16.113,-41.992
1573889652.958,30.273,31.738,365.723,34.668,149.414
1573889652.962,26.855,38.574,58.594,19.043,123.047
1573889652.965,18.066,35.645,-402.344,5.859,-81.055
1573889652.969,20.996,37.109,-373.047,13.184,-77.637
1573889652.973,30.273,33.203,-118.652,23.438,85.449
1573889652.977,25.391,23.438,83.984,16.602,130.371
1573889652.981,13.672,21.973,-220.215,1.465,-15.137
1573889652.985,19.531,29.297,-299.805,12.695,-95.703
1573889652.989,31.738,40.039,205.566,35.645,68.359
1573889652.993,29.297,35.645,348.145,36.621,161.133
1573889652.997,17.578,26.855,-171.387,18.555,24.902
1573889653.001,10.254,31.250,-348.633,13.184,-80.078
1573889653.005,20.020,34.668,38.086,31.250,2.441
1573889653.008,33.203,27.344,145.020,44.922,133.789
1573889653.012,26.367,21.973,-322.754,31.738,62.988
1573889653.016,18.555,30.762,-705.566,19.531,-61.523
1573889653.020,23.926,31.738,-184.082,32.715,-26.367
1573889653.024,32.227,35.645,398.438,43.945,117.188
1573889653.028,26.367,33.691,135.742,30.762,116.699
1573889653.032,15.137,21.973,-268.066,15.137,-63.965
1573889653.036,15.625,26.855,-3.906,22.461,-90.332
1573889653.040,27.344,29.785,481.934,39.062,97.656
1573889653.044,28.320,26.367,314.453,33.203,161.133
1573889653.048,16.113,24.902,-141.602,8.301,-1.465
1573889653.051,24.902,27.832,-95.215,11.719,-120.605
1573889653.055,44.434,30.273,184.082,41.504,-1.953
1573889653.059,47.852,27.344,-25.879,41.504,126.953
1573889653.063,28.320,29.297,-520.020,10.254,24.414
1573889653.067,16.602,36.133,-293.945,1.953,-92.285
1573889653.071,30.762,33.203,290.039,25.879,4.883
1573889653.075,41.504,21.973,429.199,35.645,165.527
1573889653.079,33.203,20.020,183.594,19.531,124.023
1573889653.083,20.508,23.438,-22.949,8.789,-59.082
1573889653.087,25.391,24.414,185.059,29.297,-35.156
1573889653.090,38.086,24.414,434.082,47.363,135.742
1573889653.094,28.320,27.344,275.391,27.344,143.066
1573889653.098,13.184,38.086,-41.992,10.254,-28.809
1573889653.102,20.996,33.203,-143.066,23.926,-92.285
1573889653.106,27.832,20.020,-145.508,35.156,37.109
1573889653.110,24.414,25.391,2.930,33.203,138.672
1573889653.114,13.672,33.203,-75.195,18.066,6.836
1573889653.118,11.230,31.250,-233.398,8.301,-109.863
1573889653.122,24.414,34.668,108.887,23.926,41.992
1573889653.126,33.691,36.621,422.852,32.715,181.641
1573889653.130,22.949,29.297,104.980,14.160,69.336
1573889653.133,4.883,28.809,-177.734,-4.395,-63.965
1573889653.137,11.230,31.250,68.848,9.766,-20.508
1573889653.141,28.320,35.156,354.004,30.762,119.629
1573889653.145,19.531,37.109,110.840,12.695,87.402
1573889653.149,9.277,36.621,-356.934,-9.277,-70.312
1573889653.153,17.578,35.645,-288.086,3.418,-57.129
1573889653.157,29.785,31.738,210.449,21.484,106.934
1573889653.161,27.832,25.391,256.348,15.625,152.832
1573889653.165,15.625,20.996,-420.410,-3.906,-19.531
1573889653.169,21.484,27.344,-474.121,4.395,-105.469
1573889653.173,40.039,34.180,187.012,32.227,36.621
1573889653.176,51.758,35.156,87.402,39.551,125.977
1573889653.180,40.039,31.250,-289.551,19.531,35.645
1573889653.184,32.715,30.273,-195.312,13.672,-72.754
1573889653.188,44.922,28.320,295.898,38.574,46.387
1573889653.192,49.805,26.367,401.367,45.898,183.594
1573889653.196,38.574,25.391,-176.270,28.320,77.148
1573889653.200,28.809,28.809,-407.715,17.090,-30.273
1573889653.204,38.574,34.668,89.355,32.227,26.855
1573889653.208,52.734,30.273,297.363,47.852,148.438
1573889653.212,42.969,27.344,-307.129,27.344,101.562
1573889653.215,31.738,33.203,-499.512,11.230,-64.453
1573889653.219,33.203,33.691,-52.734,23.926,-74.707
1573889653.223,41.016,29.785,232.910,37.598,92.773
1573889653.227,32.715,28.320,73.242,26.855,122.559
1573889653.231,13.672,31.738,-278.320,3.906,-31.250
1573889653.235,17.090,38.574,-312.988,13.184,-109.375
1573889653.239,27.832,37.598,92.285,32.715,28.320
1573889653.243,27.344,32.715,170.410,29.785,174.805
1573889653.247,21.484,28.320,-247.559,16.113,57.617
1573889653.251,22.949,18.555,-339.355,13.184,-94.727
1573889653.255,33.691,16.602,-174.805,29.297,-19.043
1573889653.258,41.016,21.973,-91.797,39.551,120.117
1573889653.262,35.156,29.297,8.301,27.344,93.750
1573889653.266,25.879,34.180,-172.363,15.137,-62.988
1573889653.270,28.809,30.273,-16.113,27.832,-41.992
1573889653.274,41.016,23.926,406.250,47.363,146.973
1573889653.278,36.621,24.902,247.070,35.156,128.418
1573889653.282,21.973,28.320,-280.762,11.719,-80.566
1573889653.286,22.949,26.855,-277.344,17.090,-109.863
1573889653.290,38.086,25.391,113.281,40.039,85.938
1573889653.294,40.527,24.414,41.992,36.621,148.926
1573889653.298,33.203,32.227,-449.707,18.066,-25.391
1573889653.301,29.785,41.504,-749.023,19.531,-124.512
1573889653.305,28.320,29.297,-175.781,34.180,25.879
1573889653.309,28.809,21.484,361.816,35.156,168.457
1573889653.313,19.043,27.832,-29.785,15.137,64.941
1573889653.317,3.906,27.832,-240.234,7.324,-80.566
1573889653.321,7.324,26.855,237.793,23.438,2.930
1573889653.325,19.531,28.809,524.414,34.180,172.363
1573889653.329,13.184,28.320,115.234,19.043,111.328
1573889653.333,5.859,27.832,-243.164,5.859,-70.312
1573889653.337,15.625,29.785,-140.625,22.949,-78.613
1573889653.340,26.855,25.391,172.363,38.574,99.121
1573889653.344,23.926,21.973,-202.637,26.367,97.168
1573889653.348,13.184,22.949,-696.289,9.277,-69.824
1573889653.352,17.090,23.926,-120.605,22.461,-64.941
1573889653.356,34.180,28.320,400.879,49.805,93.262
1573889653.360,41.992,27.344,256.348,53.223,161.621
1573889653.364,29.297,24.414,-95.703,30.273,21.484
1573889653.368,27.832,23.926,-36.621,23.438,-79.590
1573889653.372,47.852,21.973,281.250,44.922,36.133
1573889653.376,55.664,22.949,269.531,55.176,145.020
1573889653.380,40.527,23.438,-11.719,29.297,60.547
1573889653.383,33.691,27.832,-210.938,19.531,-68.848
1573889653.387,50.293,29.785,-132.812,43.457,-38.574
1573889653.391,57.617,25.879,-12.695,51.758,120.605
1573889653.395,41.504,19.043,-50.293,33.691,107.422
1573889653.399,21.973,16.113,-132.324,9.766,-56.152
1573889653.403,25.879,18.066,-163.574,16.113,-74.219
1573889653.407,35.156,17.578,43.945,37.598,91.309
1573889653.411,26.855,18.066,179.199,24.902,140.625
1573889653.415,11.719,26.367,-99.609,2.930,-15.625
1573889653.419,6.836,31.250,-106.934,6.836,-80.078
1573889653.423,15.137,26.367,212.402,21.973,40.039
1573889653.426,22.461,20.996,351.074,25.879,154.297
1573889653.430,12.695,18.555,-174.316,8.301,17.578
1573889653.434,5.371,26.367,-471.680,1.953,-117.188
1573889653.438,17.578,24.414,59.570,22.461,0.000
1573889653.442,27.344,17.090,322.754,34.180,120.605
1573889653.446,19.531,20.508,62.988,18.066,53.711
1573889653.450,15.625,27.344,-479.004,1.953,-107.422
1573889653.454,22.949,27.832,-235.840,13.672,-37.109
1573889653.458,27.344,16.602,382.324,23.926,150.391
1573889653.462,20.996,17.090,64.941,6.348,102.539
1573889653.465,9.277,25.391,-269.531,-11.719,-57.617
1573889653.469,11.719,27.344,71.777,1.953,-54.199
1573889653.473,32.227,31.738,603.027,31.250,117.676
1573889653.477,36.621,25.391,314.453,25.391,143.555
1573889653.481,18.555,19.531,-451.660,-2.441,-32.227
1573889653.485,17.090,25.879,-229.004,2.930,-98.633
1573889653.489,30.273,22.461,515.625,27.344,46.875
1573889653.493,34.180,17.578,505.859,25.879,145.508
1573889653.497,23.926,16.602,29.785,3.418,27.344
1573889653.501,12.695,16.113,4.395,-3.418,-106.934
1573889653.505,28.320,20.996,506.348,23.926,-3.906
1573889653.508,41.992,22.949,699.219,42.969,166.016
1573889653.512,34.668,20.508,330.566,28.809,85.449
1573889653.516,22.461,21.484,33.691,11.230,-89.355
1573889653.520,28.320,26.367,357.422,26.855,-46.875
1573889653.524,42.969,23.926,634.277,47.852,132.324
1573889653.528,37.109,19.531,256.348,39.062,114.258
1573889653.532,23.926,24.414,17.090,19.043,-55.176
1573889653.536,28.320,29.297,334.473,27.344,-69.824
1573889653.540,43.457,35.645,436.035,46.875,57.129
1573889653.544,45.898,40.527,306.152,44.434,121.582
1573889653.548,31.250,38.574,255.859,20.508,29.785
1573889653.551,29.297,34.668,201.172,17.578,-83.496
1573889653.555,48.828,31.738,276.367,47.363,-2.441
1573889653.559,52.246,31.250,462.891,51.270,161.133
1573889653.563,40.039,36.133,355.957,31.250,83.984
1573889653.567,32.227,41.016,48.828,21.484,-96.191
1573889653.571,37.598,38.086,194.336,33.691,-17.090
1573889653.575,46.875,33.203,365.234,41.992,139.160
1573889653.579,32.715,30.273,131.348,14.648,114.258
1573889653.583,23.926,27.344,-250.488,-2.441,-77.637
1573889653.587,33.203,28.320,-76.172,15.625,-98.633
1573889653.590,47.363,37.598,403.809,38.086,86.426
1573889653.594,44.434,33.691,335.449,28.320,113.281
1573889653.598,26.367,24.902,-209.961,2.930,-40.527
1573889653.602,22.949,26.367,-407.715,3.906,-95.703
1573889653.606,30.762,25.879,274.414,25.879,98.633
1573889653.610,34.668,24.414,427.246,30.273,171.875
1573889653.614,24.902,27.832,-154.297,13.672,-12.695
1573889653.618,25.391,28.320,-375.977,19.531,-120.117
1573889653.622,40.039,31.738,-3.906,45.898,14.160
1573889653.626,46.875,37.598,279.785,51.758,142.090
1573889653.630,36.133,34.668,-282.227,25.879,46.387
1573889653.633,19.531,31.250,-634.277,4.395,-103.027
1573889653.637,31.738,34.668,27.344,27.832,-55.664
1573889653.641,45.410,29.297,340.820,46.387,105.469
1573889653.645,36.621,26.367,43.457,27.344,109.375
1573889653.649,25.879,30.762,-233.887,10.742,-70.312
1573889653.653,23.926,30.762,12.695,20.020,-83.008
1573889653.657,37.109,31.250,357.910,38.574,118.164
1573889653.661,44.434,30.273,179.688,36.133,163.574
1573889653.665,29.297,22.949,-280.273,11.719,1.953
1573889653.669,29.297,25.879,-302.246,12.695,-67.383
1573889653.673,41.504,31.250,20.508,32.227,70.801
1573889653.676,45.898,33.691,-182.617,33.203,141.113
1573889653.680,32.715,30.762,-411.621,13.184,11.230
1573889653.684,20.508,30.273,-326.660,6.348,-98.633
1573889653.688,32.715,37.109,-85.938,22.949,-22.949
1573889653.692,46.387,31.250,141.113,34.668,120.117
1573889653.696,36.621,25.391,-62.988,20.508,44.922
1573889653.700,19.531,22.461,-232.422,0.977,-98.633
1573889653.704,25.391,25.879,-2.441,16.113,-43.457
1573889653.708,34.668,27.344,207.520,30.273,118.652
1573889653.712,28.320,33.203,-53.711,20.020,119.141
1573889653.715,17.578,36.133,-301.270,7.812,-33.203
1573889653.719,23.926,31.250,-295.410,16.602,-71.777
1573889653.723,37.109,28.809,-74.707,31.250,68.848
1573889653.727,31.250,25.391,181.641,20.508,128.906
1573889653.731,25.391,24.414,-143.066,1.953,-38.574
1573889653.735,27.832,28.320,-221.191,6.836,-125.000
1573889653.739,40.039,36.133,298.340,31.250,44.922
1573889653.743,49.805,38.086,354.980,38.086,152.832
1573889653.747,43.457,31.250,-120.605,23.926,20.996
1573889653.751,34.668,29.785,-219.727,20.508,-107.910
1573889653.755,35.156,23.926,248.047,27.832,-3.418
1573889653.758,41.992,24.902,444.824,34.668,172.363
1573889653.762,35.645,31.738,-20.508,20.996,108.398
1573889653.766,23.926,30.273,-543.457,1.465,-87.402
1573889653.770,28.320,34.180,-136.719,13.672,-61.035
1573889653.774,39.062,35.645,512.207,32.227,131.348
1573889653.778,34.180,33.691,249.023,23.926,137.695
1573889653.782,17.578,28.809,-174.805,3.418,-40.039
1573889653.786,14.648,20.020,47.363,2.930,-83.984
1573889653.790,25.391,17.578,463.867,20.508,78.613
1573889653.794,35.156,30.762,284.180,25.879,137.207
1573889653.798,29.297,31.738,-255.859,13.672,-15.625
1573889653.801,22.461,26.367,-178.711,10.742,-102.539
1573889653.805,29.785,27.832,173.828,29.785,8.789
1573889653.809,38.086,27.832,-56.641,38.574,120.605
1573889653.813,34.180,27.832,-475.586,23.926,34.180
1573889653.817,21.484,26.367,-227.539,10.742,-66.895
1573889653.821,33.203,27.832,289.551,28.320,17.578
1573889653.825,49.805,25.391,386.230,43.457,170.898
1573889653.829,41.016,25.391,117.188,21.484,130.859
1573889653.833,30.273,27.832,-120.605,2.930,-72.754
1573889653.837,36.133,26.367,-11.719,16.113,-85.449
1573889653.840,49.805,26.855,305.176,37.598,121.582
1573889653.844,45.410,28.809,235.352,26.855,153.809
1573889653.848,36.133,37.598,-107.422,10.254,-35.645
1573889653.852,34.668,25.879,-225.586,14.160,-100.586
1573889653.856,40.527,15.137,-152.344,25.879,70.801
1573889653.860,39.551,21.973,22.949,24.902,169.922
1573889653.864,25.391,23.438,-97.168,4.883,11.230
1573889653.868,21.973,25.879,-194.336,4.395,-74.707
1573889653.872,37.598,28.320,163.086,29.297,46.875
1573889653.876,46.387,30.273,401.855,40.527,171.387
1573889653.880,34.668,32.715,24.414,23.438,56.152
1573889653.883,20.996,32.227,-241.699,10.254,-67.383
1573889653.887,18.066,21.973,91.309,20.996,20.996
1573889653.891,26.855,18.066,362.793,37.109,147.461
1573889653.895,30.762,22.461,21.973,33.203,71.289
1573889653.899,16.602,22.949,-448.730,13.184,-97.168
1573889653.903,11.719,34.668,-343.262,18.066,-81.055
1573889653.907,26.367,42.969,87.891,39.551,59.570
1573889653.911,18.555,25.391,94.727,24.414,116.211
1573889653.915,-0.488,13.672,-551.758,-3.418,-26.855
1573889653.919,-2.441,15.625,-708.496,0.000,-129.395
1573889653.923,7.324,20.020,52.734,20.996,30.273
1573889653.926,17.090,26.855,290.039,25.879,163.574
1573889653.930,14.160,33.203,-184.082,8.301,22.461
1573889653.934,5.859,36.133,-206.543,0.977,-99.121
1573889653.938,17.578,30.762,250.977,23.438,6.348
1573889653.942,29.297,14.160,380.859,33.691,164.551
1573889653.946,20.996,10.742,-124.512,16.602,102.539
1573889653.950,15.137,17.578,-474.609,8.301,-80.566
1573889653.954,20.996,20.996,-17.090,23.926,-50.781
1573889653.958,41.504,23.438,281.250,46.387,120.117
1573889653.962,47.363,20.996,-211.914,38.086,111.328
1573889653.965,31.250,15.137,-459.473,17.578,-45.410
1573889653.969,29.785,13.672,-175.781,23.926,-84.961
1573889653.973,46.387,21.484,242.676,46.387,106.445
1573889653.977,48.828,21.484,224.121,44.922,166.992
1573889653.981,31.738,20.020,-130.371,21.484,-19.531
1573889653.985,32.227,23.926,-72.754,24.902,-86.426
1573889653.989,42.969,27.344,257.812,45.410,53.223
1573889653.993,40.527,28.809,171.875,43.457,151.367
1573889653.997,25.879,18.066,-296.875,20.020,30.273
1573889654.001,15.625,14.160,-332.031,12.207,-91.797
1573889654.005,29.297,24.902,-200.684,31.738,-43.457
1573889654.008,41.504,29.785,-152.832,43.457,103.516
1573889654.012,27.832,26.367,-8.789,23.438,91.797
1573889654.016,13.184,31.738,-196.777,5.371,-95.215
1573889654.020,19.531,29.297,-79.102,12.695,-83.008
1573889654.024,26.855,20.508,278.320,18.555,125.977
1573889654.028,19.531,24.414,138.672,3.418,118.164
1573889654.032,8.789,26.367,-217.773,-14.648,-50.781
1573889654.036,12.695,28.809,-84.961,-5.371,-60.547
1573889654.040,29.297,32.227,285.156,20.508,105.469
1573889654.044,34.180,37.598,225.586,26.367,178.711
1573889654.048,25.879,43.457,-254.395,14.160,-15.625
1573889654.051,20.508,36.621,-563.477,6.348,-136.230
1573889654.055,27.832,29.785,83.984,23.926,49.805
1573889654.059,35.156,32.715,521.973,35.645,190.918
1573889654.063,29.297,37.598,-25.391,19.531,42.480
1573889654.067,17.090,29.785,-262.695,4.395,-98.145
1573889654.071,27.344,28.320,237.305,23.438,2.930
1573889654.075,42.969,29.297,496.582,40.039,152.344
1573889654.079,41.992,27.832,65.918,26.855,97.656
1573889654.083,33.203,28.320,-301.758,15.137,-80.078
1573889654.087,29.297,25.879,-147.949,24.414,-81.543
1573889654.090,44.922,29.785,190.430,44.922,93.750
1573889654.094,49.805,28.809,-67.383,31.738,134.766
1573889654.098,31.738,25.391,-606.934,1.953,-16.113
1573889654.102,30.273,31.250,-208.008,13.672,-80.078
1573889654.106,45.410,30.762,370.117,38.574,82.520
1573889654.110,44.434,27.832,311.523,31.738,176.758
1573889654.114,25.391,26.855,-93.750,6.836,17.090
1573889654.118,17.578,33.691,-120.117,3.906,-106.445
1573889654.122,29.785,34.668,158.691,24.414,-17.090
1573889654.126,30.273,21.484,274.414,23.438,142.578
1573889654.130,15.625,14.160,-22.949,0.977,72.266
1573889654.133,6.836,14.648,-354.004,-2.441,-112.793
1573889654.137,20.508,18.066,-141.602,20.996,-37.598
1573889654.141,37.598,25.879,170.410,39.062,147.949
1573889654.145,33.203,25.879,145.508,25.879,128.906
1573889654.149,14.160,20.508,-11.719,6.836,-26.855
1573889654.153,16.602,25.391,2.441,14.160,-49.805
1573889654.157,28.809,27.344,71.289,30.762,102.539
1573889654.161,31.250,27.344,177.734,31.738,147.461
1573889654.165,23.926,34.180,57.617,16.602,-4.395
1573889654.169,21.973,39.551,22.949,23.438,-83.984
1573889654.173,41.016,38.574,382.324,51.270,39.551
1573889654.176,48.828,28.809,542.480,53.223,145.020
1573889654.180,34.668,20.508,44.922,31.250,-6.348
1573889654.184,23.926,21.973,-502.930,17.578,-187.988
1573889654.188,31.250,25.879,-108.887,33.691,-53.711
1573889654.192,42.480,30.273,529.297,49.805,155.273
1573889654.196,34.668,33.203,243.652,29.297,72.754
1573889654.200,20.996,36.621,-37.109,11.230,-101.562
1573889654.204,31.250,40.527,371.094,29.297,-51.270
1573889654.208,46.387,41.992,793.457,45.410,125.000
1573889654.212,34.668,37.598,511.719,22.949,112.793
1573889654.215,17.578,34.668,20.020,-5.371,-82.520
1573889654.219,23.926,30.273,187.012,6.836,-117.676
1573889654.223,43.457,32.227,666.504,37.598,66.895
1573889654.227,43.945,34.180,419.922,34.180,122.559
1573889654.231,22.949,31.738,-317.871,0.488,-36.133
1573889654.235,14.160,31.250,-156.738,0.488,-118.164
1573889654.239,35.645,31.738,574.219,30.273,32.715
1573889654.243,41.016,32.227,599.121,28.809,152.832
1573889654.247,25.391,29.785,132.324,5.371,21.484
1573889654.251,18.555,30.762,-51.758,-0.977,-125.000
1573889654.255,25.879,35.645,374.023,17.090,-3.418
1573889654.258,42.480,39.062,615.723,36.133,162.598
1573889654.262,41.016,40.527,235.840,25.391,83.496
1573889654.266,26.367,37.109,31.250,8.301,-70.801
1573889654.270,32.227,37.598,347.168,21.973,-22.461
1573889654.274,46.387,38.574,485.840,41.992,127.930
1573889654.278,43.945,34.668,41.992,36.621,95.215
1573889654.282,28.320,28.320,-192.871,15.137,-54.688
1573889654.286,25.879,32.227,84.473,17.090,-87.402
1573889654.290,41.016,41.016,210.449,40.527,68.359
1573889654.294,44.922,38.086,95.703,38.086,152.344
1573889654.298,32.715,35.645,-18.066,17.090,14.160
1573889654.301,22.461,38.086,-18.555,14.160,-81.543
1573889654.305,25.391,32.227,178.711,25.879,19.043
1573889654.309,32.227,33.691,220.703,33.203,140.625
1573889654.313,20.508,43.945,-83.984,18.555,19.043
1573889654.317,12.695,47.363,-242.188,10.254,-99.609
1573889654.321,24.414,41.504,2.441,29.297,-3.906
1573889654.325,32.227,39.062,119.141,41.016,120.605
1573889654.329,30.762,41.992,-13.672,31.250,86.914
1573889654.333,22.461,37.109,-278.809,15.137,-59.570
1573889654.337,28.320,41.016,-407.715,20.508,-90.820
1573889654.340,36.621,50.781,-8.301,33.691,67.871
1573889654.344,38.086,49.316,127.441,31.738,125.488
1573889654.348,27.344,40.527,-242.188,8.301,-17.578
1573889654.352,24.414,40.527,-216.797,2.441,-82.031
1573889654.356,40.527,46.875,331.543,27.832,88.379
1573889654.360,49.805,46.387,359.863,35.156,178.223
1573889654.364,37.598,43.945,-270.508,15.137,-8.301
1573889654.368,26.367,39.062,-476.562,11.230,-105.469
1573889654.372,35.645,38.086,-51.270,31.250,54.688
1573889654.376,47.363,44.434,250.000,41.992,199.707
1573889654.380,42.480,40.039,-271.484,25.391,104.492
1573889654.383,33.691,32.715,-711.426,13.184,-91.797
1573889654.387,38.086,40.527,14.160,29.297,-17.578
1573889654.391,51.270,44.434,463.867,49.316,167.969
1573889654.395,47.363,41.504,29.785,39.551,102.051
1573889654.399,28.320,37.598,-251.953,10.742,-59.570
1573889654.403,31.738,35.645,18.066,20.508,-79.590
1573889654.407,49.805,38.574,301.758,44.922,77.148
1573889654.411,51.758,41.992,139.160,36.621,127.930
1573889654.415,38.574,41.992,-276.367,15.137,-11.719
1573889654.419,34.668,38.086,-318.848,14.160,-88.867
1573889654.423,53.223,40.039,-36.621,39.551,11.230
1573889654.426,59.082,41.992,-135.742,41.504,121.094
1573889654.430,34.668,32.227,-292.480,10.254,18.066
1573889654.434,21.973,31.250,-98.145,0.977,-97.168
1573889654.438,36.621,37.109,230.469,20.508,10.254
1573889654.442,45.410,31.250,389.648,33.203,160.645
1573889654.446,32.227,23.438,173.340,8.789,90.332
1573889654.450,14.648,26.855,-59.082,-13.184,-73.730
1573889654.454,25.391,31.250,141.113,4.395,-33.203
1573889654.458,44.434,32.715,432.617,26.855,137.695
1573889654.462,44.922,28.809,137.695,23.926,110.840
1573889654.465,29.785,22.461,-324.707,3.418,-67.871
1573889654.469,23.926,21.973,-422.363,2.930,-116.699
1573889654.473,39.551,30.762,-101.074,24.902,48.828
1573889654.477,44.922,40.527,205.566,28.809,155.273
1573889654.481,26.367,32.715,-77.637,9.277,-0.488
1573889654.485,18.555,27.344,-118.652,5.859,-91.797
1573889654.489,34.180,35.156,326.172,28.809,39.551
1573889654.493,40.039,36.133,528.320,34.180,167.969
1573889654.497,23.438,35.156,72.754,14.160,54.688
1573889654.501,11.230,37.598,-174.805,5.859,-75.684
1573889654.505,24.414,32.715,235.840,28.320,8.789
1573889654.508,38.574,27.344,366.211,45.898,154.297
1573889654.512,30.762,32.227,-169.434,27.832,68.359
1573889654.516,15.137,31.738,-654.785,5.371,-84.473
1573889654.520,14.648,27.344,-222.168,17.090,-43.457
1573889654.524,32.715,35.156,419.434,39.062,124.512
1573889654.528,31.250,32.715,145.996,27.832,115.723
1573889654.532,15.625,30.273,-395.508,7.812,-62.988
1573889654.536,22.461,35.156,-204.102,18.555,-76.172
1573889654.540,40.527,36.621,397.949,44.922,107.422
1573889654.544,36.621,33.203,270.020,41.504,148.438
1573889654.548,15.137,24.902,-222.656,10.742,-10.742
1573889654.551,11.230,20.508,-165.527,5.371,-72.754
1573889654.555,33.203,26.855,-10.254,36.133,6.836
1573889654.559,49.805,32.227,18.555,52.734,129.395
1573889654.563,34.668,29.785,-127.930,27.344,59.570
1573889654.567,20.020,29.785,-264.648,15.137,-118.652
1573889654.571,30.273,29.297,50.293,37.598,-49.805
1573889654.575,44.434,29.297,208.496,57.617,123.535
1573889654.579,33.203,28.320,-91.797,38.086,75.684
1573889654.583,11.719,27.344,-253.906,11.230,-72.754
1573889654.587,21.973,32.715,-29.297,25.391,-72.754
1573889654.590,45.410,37.109,-12.695,52.734,98.145
1573889654.594,47.363,42.480,-163.086,49.316,136.719
1573889654.598,27.832,34.668,-208.496,23.926,-23.438
1573889654.602,17.090,18.555,-253.906,20.996,-77.148
1573889654.606,27.832,19.043,25.391,40.527,62.500
1573889654.610,33.691,25.391,220.215,42.480,156.738
1573889654.614,21.484,33.691,-10.742,20.020,43.945
1573889654.618,15.625,32.715,-240.234,15.625,-83.496
1573889654.622,31.250,28.320,-199.219,39.551,-0.488
1573889654.626,35.645,29.785,175.781,46.387,169.922
1573889654.630,24.414,30.762,62.988,23.438,76.172
1573889654.633,18.555,23.926,-375.977,8.789,-131.836
1573889654.637,25.391,19.043,-156.250,23.438,-82.520
1573889654.641,41.992,28.320,301.270,43.945,112.793
1573889654.645,38.086,34.180,6.348,31.250,81.543
1573889654.649,22.461,36.133,-516.113,4.395,-84.961
1573889654.653,22.949,35.156,-347.656,6.348,-80.566
1573889654.657,35.645,29.785,136.230,26.855,67.871
1573889654.661,38.086,31.250,219.238,24.902,125.488
1573889654.665,28.320,31.250,-467.773,4.883,-44.922
1573889654.669,17.578,22.949,-631.348,0.000,-132.324
1573889654.673,27.832,21.973,156.738,18.066,33.203
1573889654.676,37.109,27.344,314.941,25.391,155.273
1573889654.680,23.926,30.762,-128.906,7.812,45.898
1573889654.684,20.020,30.273,-247.070,2.441,-110.352
1573889654.688,29.785,26.367,215.332,23.926,-5.371
1573889654.692,36.621,28.809,350.098,37.109,141.602
1573889654.696,28.320,31.250,-200.684,20.508,42.969
1573889654.700,18.066,32.715,-502.441,7.812,-93.750
1573889654.704,21.484,29.785,-137.207,22.461,-50.293
1573889654.708,36.621,28.320,159.668,44.434,101.562
1573889654.712,40.527,29.785,-395.020,36.133,56.152
1573889654.715,20.508,31.250,-611.328,9.277,-84.961
1573889654.719,19.043,38.574,3.906,11.719,-41.992
1573889654.723,35.645,38.574,291.992,31.250,84.473
1573889654.727,37.109,33.203,137.695,24.414,124.512
1573889654.731,24.902,31.738,-124.512,1.465,-9.277
1573889654.735,19.531,34.668,-85.938,-0.977,-93.750
1573889654.739,33.203,31.738,206.543,20.996,22.461
1573889654.743,39.062,30.273,192.383,28.320,154.297
1573889654.747,26.855,35.645,-303.223,7.324,16.602
1573889654.751,11.719,37.598,-337.402,-6.348,-94.727
1573889654.755,17.578,34.668,-120.605,9.277,-17.090
1573889654.758,39.551,32.715,-203.613,28.320,103.516
1573889654.762,31.738,29.297,-196.289,11.230,100.586
1573889654.766,11.230,28.809,-263.184,-14.648,-51.270
1573889654.770,20.996,36.133,43.457,3.906,-13.672
1573889654.774,34.180,38.574,481.445,26.367,150.879
1573889654.778,31.250,33.203,354.492,17.090,142.090
1573889654.782,21.484,31.250,-122.559,-0.488,-38.086
1573889654.786,21.973,38.574,-108.398,4.395,-90.332
1573889654.790,37.598,38.086,197.266,28.320,67.383
1573889654.794,39.062,37.598,168.457,26.855,154.297
1573889654.798,26.855,41.992,-273.438,4.395,-17.578
1573889654.801,27.832,42.969,-499.023,5.859,-130.859
1573889654.805,41.016,44.434,41.992,24.902,0.977
1573889654.809,46.387,47.852,383.301,33.203,132.324
1573889654.813,39.551,50.293,-94.727,22.461,59.570
1573889654.817,22.949,37.598,-545.898,0.977,-89.844
1573889654.821,20.020,26.855,26.367,12.207,-18.066
1573889654.825,36.133,33.203,494.629,34.668,156.250
1573889654.829,33.203,40.039,128.418,22.461,107.422
1573889654.833,18.555,37.598,-185.059,3.906,-45.410
1573889654.837,21.484,34.668,-9.277,13.184,-43.945
1573889654.840,35.645,34.668,252.930,32.715,104.980
1573889654.844,32.227,28.320,-159.668,24.902,95.215
1573889654.848,14.648,27.832,-639.648,4.395,-71.289
1573889654.852,14.160,29.785,-120.605,10.254,-87.891
1573889654.856,29.785,27.832,454.590,31.738,64.941
1573889654.860,37.109,27.344,343.750,33.691,126.953
1573889654.864,26.367,30.273,-23.926,14.648,-14.648
1573889654.868,18.066,33.691,88.379,8.301,-95.703
1573889654.872,25.879,28.320,424.805,24.414,22.949
1573889654.876,42.480,28.809,443.359,41.992,137.695
1573889654.880,35.645,28.809,267.090,27.832,80.078
1573889654.883,21.484,23.438,52.246,13.184,-66.406
1573889654.887,34.180,25.879,201.660,28.809,-21.484
1573889654.891,44.922,28.809,374.512,41.504,156.738
1573889654.895,29.785,24.414,281.250,20.508,125.000
1573889654.899,21.973,22.461,211.426,6.348,-50.293
1573889654.903,34.668,26.855,235.840,23.438,-85.938
1573889654.907,47.852,32.227,440.430,39.551,83.008
1573889654.911,41.992,36.133,540.039,29.297,141.113
1573889654.915,23.926,28.809,219.727,5.371,-46.387
1573889654.919,26.367,24.902,154.297,8.301,-132.324
1573889654.923,44.434,29.785,533.203,34.668,30.273
1573889654.926,41.504,27.344,687.988,32.227,158.691
1573889654.930,27.832,29.297,183.105,9.766,7.324
1573889654.934,25.391,34.668,-332.520,3.418,-147.949
1573889654.938,34.668,31.250,-66.895,21.973,-39.062
1573889654.942,47.363,32.715,546.387,40.527,152.832
1573889654.946,41.504,37.598,369.141,24.414,79.102
1573889654.950,24.414,32.715,-81.055,0.488,-128.418
1573889654.954,22.461,30.762,238.770,6.348,-60.547
1573889654.958,36.133,35.156,680.664,27.344,128.906
