timestamps,TP9,AF7,AF8,TP10,Right AUX
1573889497.505,20.508,15.625,-74.219,14.160,90.820
1573889497.508,12.207,18.555,-177.246,0.977,-61.035
1573889497.512,20.508,21.973,24.902,19.043,-70.312
1573889497.516,29.785,14.648,213.379,35.156,98.145
1573889497.520,25.391,4.883,128.906,20.020,119.629
1573889497.524,10.254,6.348,-371.094,-1.465,-86.914
1573889497.528,13.184,16.113,-241.211,9.277,-99.121
1573889497.532,28.809,17.578,161.133,27.832,81.543
1573889497.536,31.738,15.625,-41.016,20.996,139.648
1573889497.540,23.438,18.555,-79.590,4.883,36.133
1573889497.544,20.020,16.113,57.617,7.812,-63.477
1573889497.548,35.156,18.066,309.570,30.762,34.180
1573889497.551,49.316,20.996,431.152,40.527,155.762
1573889497.555,41.016,21.484,180.664,21.484,62.988
1573889497.559,28.809,21.973,-64.941,6.836,-88.379
1573889497.563,29.785,18.555,141.113,14.648,-22.461
1573889497.567,43.945,28.320,410.645,35.156,150.391
1573889497.571,44.434,43.457,79.102,27.344,102.539
1573889497.575,26.367,31.250,-344.727,3.906,-72.266
1573889497.579,21.484,19.531,-374.023,11.719,-76.172
1573889497.583,30.762,25.391,77.637,25.879,92.285
1573889497.587,30.273,26.367,344.727,19.531,145.508
1573889497.590,19.043,27.832,-101.074,7.812,-29.785
1573889497.594,9.277,31.250,-168.945,6.348,-102.539
1573889497.598,20.020,36.133,408.691,25.879,77.148
1573889497.602,28.320,38.086,561.035,25.879,193.848
1573889497.606,11.719,26.367,11.230,0.000,35.645
1573889497.610,0.977,13.184,-200.195,-1.465,-104.492
1573889497.614,13.184,16.113,174.316,26.367,-1.953
1573889497.618,27.344,18.066,205.078,42.969,141.113
1573889497.622,22.461,19.531,-189.941,22.461,67.871
1573889497.626,11.230,22.949,-461.426,11.719,-121.094
1573889497.630,14.160,23.438,-36.621,32.227,-45.898
1573889497.633,28.320,23.926,538.086,47.363,164.062
1573889497.637,29.297,18.555,57.129,35.156,127.930
1573889497.641,12.695,14.160,-575.684,6.836,-58.594
1573889497.645,9.277,22.949,-153.320,13.184,-76.172
1573889497.649,25.879,22.461,394.531,39.062,104.004
1573889497.653,31.250,13.184,243.652,32.227,159.668
1573889497.657,16.602,15.625,-194.824,6.836,-15.625
1573889497.661,12.695,16.602,-131.348,6.348,-103.516
1573889497.665,33.691,19.531,146.973,29.785,32.227
1573889497.669,46.387,27.344,-138.672,31.250,126.953
1573889497.673,33.203,26.367,-524.902,4.395,-11.719
1573889497.676,22.461,16.113,-246.582,-1.465,-98.145
1573889497.680,28.809,4.395,84.961,18.066,-4.883
1573889497.684,39.062,8.301,91.309,29.297,101.562
1573889497.688,28.809,11.719,-61.035,11.230,66.406
1573889497.692,14.648,13.184,-164.062,-2.441,-58.594
1573889497.696,15.625,19.043,21.973,15.625,-28.809
1573889497.700,23.438,20.508,280.273,29.785,130.371
1573889497.704,22.461,18.555,174.316,20.996,136.719
1573889497.708,16.113,13.184,-167.480,10.742,-39.551
1573889497.712,19.043,15.625,-297.852,21.484,-79.590
1573889497.715,26.855,20.020,-48.828,36.621,86.426
1573889497.719,29.297,18.555,131.348,34.180,152.344
1573889497.723,17.578,9.277,-92.285,18.066,16.602
1573889497.727,9.766,5.859,-372.559,11.230,-90.820
1573889497.731,25.879,15.137,-274.902,31.250,12.695
1573889497.735,41.992,30.762,243.164,42.969,187.500
1573889497.739,38.574,29.785,-109.375,29.785,55.664
1573889497.743,22.461,20.996,-470.215,13.184,-113.281
1573889497.747,26.855,27.344,72.266,23.438,6.836
1573889497.751,46.875,31.738,447.754,40.039,159.180
1573889497.755,42.969,27.832,147.949,21.973,115.234
1573889497.758,24.902,27.344,-322.754,-3.418,-63.477
1573889497.762,22.461,28.320,-271.973,2.441,-83.496
1573889497.766,36.133,37.109,141.113,22.461,89.355
1573889497.770,33.203,39.062,165.039,10.254,141.113
1573889497.774,14.648,25.391,-522.949,-21.973,-55.664
1573889497.778,15.137,24.414,-503.418,-15.625,-135.254
1573889497.782,30.273,33.691,261.719,17.090,60.547
1573889497.786,31.738,34.668,289.551,17.090,174.805
1573889497.790,19.531,29.785,-125.000,-7.812,38.574
1573889497.794,22.949,25.879,-152.344,0.977,-68.359
1573889497.798,34.668,23.438,116.699,24.902,20.020
1573889497.801,37.598,20.020,188.477,30.762,128.418
1573889497.805,28.320,18.555,-227.051,16.113,47.852
1573889497.809,15.625,24.902,-464.355,1.953,-86.914
1573889497.813,23.926,23.438,-41.016,27.832,-25.391
1573889497.817,39.062,17.090,94.727,44.434,103.516
1573889497.821,38.086,27.344,-393.555,23.438,60.547
1573889497.825,27.344,28.809,-420.898,9.277,-62.012
1573889497.829,26.855,13.672,-2.441,20.020,-49.805
1573889497.833,39.062,15.137,391.602,40.039,130.859
1573889497.837,41.992,19.043,354.980,34.668,181.152
1573889497.840,28.320,22.461,100.098,12.695,26.367
1573889497.844,25.879,26.367,133.301,19.043,-44.434
1573889497.848,40.527,16.113,425.293,39.551,85.449
1573889497.852,41.992,8.301,312.012,36.133,149.902
1573889497.856,26.855,9.766,-248.535,12.695,-29.785
1573889497.860,14.160,8.301,-440.430,0.488,-165.527
1573889497.864,22.949,9.766,11.719,18.555,-31.250
1573889497.868,33.691,18.555,486.328,24.414,156.250
1573889497.872,27.344,20.020,348.145,0.977,86.914
1573889497.876,18.555,21.484,-62.500,-9.277,-129.395
1573889497.880,28.320,27.344,-162.598,9.766,-111.816
1573889497.883,34.668,22.461,406.738,23.438,135.742
1573889497.887,24.902,10.742,545.898,7.324,144.043
1573889497.891,14.160,4.883,47.363,-10.254,-64.453
1573889497.895,15.625,4.395,215.332,-0.977,-60.547
1573889497.899,31.738,6.348,617.676,29.785,125.000
1573889497.903,38.086,12.695,491.211,35.156,152.832
1573889497.907,26.855,19.043,-63.965,12.207,-34.668
1573889497.911,23.926,11.230,-282.715,12.207,-126.953
1573889497.915,32.715,-0.977,478.027,31.250,59.570
1573889497.919,37.109,-3.418,791.504,33.203,188.477
1573889497.923,31.738,1.465,281.738,13.184,51.758
1573889497.926,26.855,5.371,54.199,8.789,-102.051
1573889497.930,28.809,8.789,483.398,30.762,-19.531
1573889497.934,41.504,15.625,726.074,43.457,153.320
1573889497.938,43.457,20.508,334.473,30.273,94.238
1573889497.942,30.762,11.719,-1.465,13.184,-97.168
1573889497.946,35.645,2.930,198.730,22.949,-56.641
1573889497.950,53.711,7.324,456.055,44.434,135.254
1573889497.954,49.805,7.812,-22.949,29.785,105.957
1573889497.958,29.297,5.371,-356.934,3.906,-65.918
1573889497.962,24.902,13.672,158.691,13.672,-71.777
1573889497.965,40.039,15.137,441.406,37.598,76.660
1573889497.969,40.527,10.742,333.496,30.762,148.438
1573889497.973,16.602,6.348,25.879,0.488,-24.902
1573889497.977,8.789,5.859,13.184,-0.977,-128.418
1573889497.981,24.414,11.230,309.082,20.508,16.113
1573889497.985,34.668,12.695,326.660,29.297,127.930
1573889497.989,29.297,16.113,95.215,16.602,45.410
1573889497.993,24.414,20.020,-187.012,16.113,-101.074
1573889497.997,39.062,13.672,-204.102,44.434,-60.547
1573889498.001,50.781,10.254,-84.961,51.270,101.562
1573889498.005,38.086,15.137,18.555,29.785,101.562
1573889498.008,32.715,16.602,-36.133,22.461,-51.270
1573889498.012,39.062,12.695,89.844,41.992,-43.945
1573889498.016,44.922,14.648,469.238,59.570,143.066
1573889498.020,41.504,17.578,355.469,50.781,166.504
1573889498.024,25.879,9.277,-168.945,26.855,-15.137
1573889498.028,19.531,4.883,-176.758,32.227,-78.613
1573889498.032,36.133,10.254,263.672,54.199,72.266
1573889498.036,42.480,15.625,251.953,50.781,141.113
1573889498.040,28.809,20.508,-312.012,30.762,-7.324
1573889498.044,23.438,18.066,-689.453,24.414,-115.723
1573889498.048,27.344,12.695,-261.230,36.621,0.488
1573889498.051,30.273,14.648,268.066,41.016,139.160
1573889498.055,26.855,16.113,-141.602,22.949,33.203
1573889498.059,18.555,14.160,-430.176,9.277,-102.539
1573889498.063,24.414,19.531,48.828,23.438,-18.555
1573889498.067,35.156,23.926,416.992,35.156,146.484
1573889498.071,24.414,17.578,68.848,19.043,104.492
1573889498.075,8.301,8.301,-342.285,-1.465,-73.730
1573889498.079,13.184,8.301,-171.387,9.766,-73.242
1573889498.083,26.367,12.695,307.129,31.738,111.816
1573889498.087,33.203,15.137,-7.324,30.762,121.582
1573889498.090,23.438,16.602,-603.516,7.324,-49.316
1573889498.094,13.672,13.184,-214.355,5.371,-81.543
1573889498.098,26.855,12.207,299.805,33.691,41.992
1573889498.102,39.062,12.207,180.176,41.016,133.301
1573889498.106,29.297,16.113,-191.895,17.090,30.273
1573889498.110,19.531,15.625,-121.582,8.789,-89.844
1573889498.114,27.832,10.254,237.305,30.273,-4.395
1573889498.118,32.715,16.602,355.469,37.109,142.090
1573889498.122,21.973,10.742,61.523,15.137,76.660
1573889498.126,10.742,4.883,-78.125,2.930,-66.895
1573889498.130,18.066,12.695,219.238,20.996,-12.207
1573889498.133,33.691,13.672,325.195,40.039,129.883
1573889498.137,24.414,10.742,-39.062,24.902,98.145
1573889498.141,10.254,13.672,-374.023,5.859,-70.801
1573889498.145,21.484,14.160,-184.570,24.414,-79.102
1573889498.149,35.645,7.812,18.066,40.527,83.984
1573889498.153,33.203,8.789,60.547,25.879,144.043
1573889498.157,20.996,16.113,-6.348,4.395,-13.184
1573889498.161,18.555,15.137,-104.004,5.371,-119.141
1573889498.165,27.832,10.742,224.121,24.414,23.926
1573889498.169,33.691,13.184,443.848,24.902,152.832
1573889498.173,28.320,25.879,136.230,6.836,38.086
1573889498.176,22.949,19.043,-154.297,1.953,-106.445
1573889498.180,26.367,2.930,56.152,22.949,-0.488
1573889498.184,35.645,8.301,240.723,33.203,146.973
1573889498.188,23.926,15.625,-25.391,11.230,61.035
1573889498.192,6.836,12.695,-453.613,-4.883,-108.398
1573889498.196,10.742,8.789,-404.785,6.836,-86.914
1573889498.200,22.949,14.648,287.598,28.809,107.910
1573889498.204,26.367,21.484,336.426,29.297,134.766
1573889498.208,15.137,21.484,-161.133,13.184,-51.270
1573889498.212,12.695,18.066,-82.031,19.043,-99.121
1573889498.215,25.879,16.602,472.656,39.551,98.633
1573889498.219,31.738,16.602,436.035,39.062,167.480
1573889498.223,23.926,16.602,-78.613,15.625,12.207
1573889498.227,18.555,20.508,-202.148,9.277,-71.777
1573889498.231,30.762,26.367,107.422,37.598,35.156
1573889498.235,35.645,31.250,203.613,42.969,149.414
1573889498.239,25.391,21.484,-424.316,17.578,19.043
1573889498.243,13.184,11.230,-558.105,4.395,-126.465
1573889498.247,13.672,10.254,67.383,18.555,-31.250
1573889498.251,31.250,9.277,149.414,35.645,110.352
1573889498.255,27.344,9.766,-70.801,16.113,89.844
1573889498.258,14.648,15.137,-128.418,1.953,-52.734
1573889498.262,22.949,20.996,144.531,18.066,-45.898
1573889498.266,44.434,25.391,370.117,38.574,106.445
1573889498.270,43.457,21.973,166.992,33.691,119.629
1573889498.274,26.367,15.137,-321.289,13.672,-55.176
1573889498.278,23.438,13.184,-210.938,20.020,-78.125
1573889498.282,38.574,13.672,162.598,38.086,79.590
1573889498.286,44.434,14.648,-138.672,35.645,122.559
1573889498.290,27.832,13.672,-272.949,17.578,3.418
1573889498.294,22.461,18.066,-54.199,14.648,-77.148
1573889498.298,36.621,20.020,238.281,36.133,27.344
1573889498.301,46.387,14.160,311.035,41.504,133.301
1573889498.305,32.715,12.695,44.434,13.672,87.402
1573889498.309,17.090,13.184,-183.105,-3.906,-62.500
1573889498.313,25.391,17.090,30.273,13.672,-43.945
1573889498.317,36.621,16.113,413.086,31.250,156.250
1573889498.321,33.691,7.324,90.332,16.113,118.652
1573889498.325,25.879,10.742,-466.797,3.418,-94.238
1573889498.329,27.344,17.090,-525.879,15.137,-116.211
1573889498.333,40.039,24.902,-20.508,33.691,80.566
1573889498.337,38.574,22.461,328.125,34.180,159.668
1573889498.340,19.043,8.789,-88.379,10.742,-1.953
1573889498.344,5.859,11.719,-171.875,6.836,-85.938
1573889498.348,23.926,17.090,327.148,36.621,53.223
1573889498.352,35.156,14.648,430.176,43.457,151.367
1573889498.356,17.090,14.160,-56.641,11.719,20.020
1573889498.360,7.812,18.066,-272.461,7.324,-91.309
1573889498.364,16.602,20.508,157.227,31.738,10.254
1573889498.368,30.762,21.973,328.125,43.945,141.602
1573889498.372,23.926,16.602,-217.285,23.926,73.730
1573889498.376,6.836,15.625,-720.215,0.488,-98.145
1573889498.380,12.695,22.949,-184.082,21.484,-44.922
1573889498.383,36.133,25.391,404.297,50.293,121.094
1573889498.387,38.574,21.484,83.984,33.203,91.309
1573889498.391,21.484,21.973,-277.832,6.348,-70.801
1573889498.395,19.531,20.996,23.926,13.672,-62.500
1573889498.399,42.480,22.949,469.727,40.527,123.535
1573889498.403,48.828,33.691,295.410,38.574,154.297
1573889498.407,29.297,33.691,-110.840,8.301,-5.371
1573889498.411,18.066,25.391,-69.336,3.906,-92.285
1573889498.415,33.203,22.461,202.148,29.785,48.828
1573889498.419,40.527,23.926,80.078,34.668,154.297
1573889498.423,23.438,26.367,-227.051,10.742,44.922
1573889498.426,16.602,26.855,-134.277,3.906,-78.613
1573889498.430,29.785,32.715,210.449,28.320,-10.742
1573889498.434,40.039,35.156,102.539,40.039,123.047
1573889498.438,29.297,28.809,-115.234,20.996,79.590
1573889498.442,17.578,25.879,-54.688,11.230,-73.242
1573889498.446,20.996,25.391,85.938,25.391,-73.730
1573889498.450,31.250,29.297,406.250,42.969,119.141
1573889498.454,35.156,29.297,444.336,37.598,154.297
1573889498.458,25.879,29.297,42.480,16.602,-43.457
1573889498.462,23.926,24.414,-168.457,23.926,-100.586
1573889498.465,31.738,14.648,107.422,42.480,60.547
1573889498.469,30.273,14.648,440.918,34.668,153.320
1573889498.473,17.578,16.113,144.043,10.742,20.996
1573889498.477,13.184,20.996,-185.059,9.766,-120.605
1573889498.481,24.902,31.250,271.973,32.715,9.277
1573889498.485,36.133,34.180,642.578,40.527,148.926
1573889498.489,27.832,17.578,235.840,16.602,7.324
1573889498.493,17.090,12.207,-87.891,0.000,-144.531
1573889498.497,26.855,21.973,278.809,22.949,-48.828
1573889498.501,40.527,22.949,673.828,42.969,121.582
1573889498.505,29.785,21.484,384.766,24.902,73.730
1573889498.508,10.254,24.902,-22.461,0.977,-71.289
1573889498.512,19.043,39.551,83.496,17.090,-69.336
1573889498.516,34.668,30.273,598.145,40.527,113.770
1573889498.520,30.273,6.348,476.562,28.320,120.117
1573889498.524,19.531,11.230,-154.297,8.301,-70.312
1573889498.528,22.461,20.020,79.102,18.066,-73.242
1573889498.532,41.016,26.367,524.902,48.828,55.664
1573889498.536,45.410,28.809,372.070,44.434,109.375
1573889498.540,27.344,23.438,-264.160,13.184,-21.484
1573889498.544,18.066,23.926,-219.727,10.742,-111.816
1573889498.548,31.250,26.855,454.102,37.109,17.578
1573889498.551,40.039,25.879,540.527,47.363,152.344
1573889498.555,35.156,25.879,-2.930,28.320,40.527
1573889498.559,21.973,28.320,-300.293,10.742,-120.605
1573889498.563,25.879,27.832,117.676,27.344,-35.156
1573889498.567,40.527,26.367,424.316,44.434,136.230
1573889498.571,32.715,27.832,230.957,26.855,125.977
1573889498.575,18.066,27.344,23.926,9.766,-30.762
1573889498.579,24.902,21.484,250.488,23.438,-37.598
1573889498.583,42.480,21.484,297.363,41.504,95.703
1573889498.587,38.086,30.273,-228.516,26.855,85.938
1573889498.590,15.137,29.297,-348.633,-3.906,-52.734
1573889498.594,10.742,24.902,-68.359,-2.441,-95.215
1573889498.598,24.902,31.250,239.258,26.855,36.133
1573889498.602,28.320,28.320,244.629,30.273,152.832
1573889498.606,17.090,25.391,-68.359,9.277,56.641
1573889498.610,11.719,33.691,-163.086,10.254,-96.191
1573889498.614,24.902,28.320,-156.738,28.809,-33.691
1573889498.618,34.180,19.531,63.477,37.598,143.066
1573889498.622,27.832,24.414,108.398,20.996,93.750
1573889498.626,18.555,24.414,-228.516,4.883,-68.359
1573889498.630,24.414,20.020,-25.879,21.484,-20.508
1573889498.633,39.062,25.391,364.746,43.945,136.230
1573889498.637,35.645,34.668,224.609,29.785,136.719
1573889498.641,18.555,26.855,-192.871,2.930,-12.695
1573889498.645,18.555,16.602,-249.512,16.602,-58.594
1573889498.649,38.574,21.973,43.457,41.992,88.867
1573889498.653,41.504,25.391,37.109,33.691,125.488
1573889498.657,24.902,20.508,-489.258,7.812,-54.688
1573889498.661,18.066,18.555,-715.332,5.859,-132.812
1573889498.665,27.344,25.879,61.035,29.785,46.875
1573889498.669,35.156,24.902,327.148,35.156,165.527
1573889498.673,20.020,20.020,-194.336,11.230,41.016
1573889498.676,8.789,15.137,-268.555,1.465,-81.055
1573889498.680,22.949,19.531,229.004,25.391,18.066
1573889498.684,35.645,21.973,441.406,40.527,152.344
1573889498.688,19.043,20.020,5.371,17.090,73.730
1573889498.692,5.859,26.855,-282.715,0.977,-95.703
1573889498.696,14.648,23.926,-111.328,18.555,-78.125
1573889498.700,27.832,20.020,162.109,31.250,111.328
1573889498.704,26.855,21.973,-227.051,15.625,95.215
1573889498.708,11.719,24.414,-572.754,-1.953,-76.172
1573889498.712,11.230,20.996,-42.480,6.348,-77.637
1573889498.715,27.832,18.066,290.527,27.344,48.828
1573889498.719,32.715,24.902,242.188,26.855,147.461
1573889498.723,18.066,28.809,17.090,2.930,23.926
1573889498.727,7.324,28.320,1.465,-2.930,-97.656
1573889498.731,19.531,31.250,236.328,24.902,7.812
1573889498.735,26.855,29.297,312.012,31.738,145.996
1573889498.739,16.602,19.531,110.840,10.254,65.430
1573889498.743,9.277,23.926,-208.984,3.906,-111.328
1573889498.747,8.301,30.273,-185.059,12.207,-59.082
1573889498.751,10.254,18.066,-70.312,15.625,91.797
1573889498.755,9.766,14.160,-53.711,4.395,72.754
1573889498.758,-3.418,20.020,-208.496,-14.648,-56.152
1573889498.762,-0.488,22.461,-46.875,-0.977,-47.852
1573889498.766,21.973,27.832,351.074,28.809,94.238
1573889498.770,22.461,27.832,311.523,18.555,118.164
1573889498.774,12.695,26.855,-61.035,-3.906,-37.598
1573889498.778,15.625,31.250,-91.797,10.254,-94.238
1573889498.782,21.973,30.762,372.559,33.203,81.055
1573889498.786,27.832,29.297,504.395,33.203,173.340
1573889498.790,25.391,26.855,-119.141,18.555,5.371
1573889498.794,17.090,25.391,-383.789,14.160,-111.328
1573889498.798,27.832,36.133,190.918,34.668,23.438
1573889498.801,32.227,37.598,429.688,40.527,138.184
1573889498.805,15.137,25.391,14.648,16.602,46.875
1573889498.809,12.695,19.531,-571.289,5.859,-109.863
1573889498.813,16.602,23.438,-360.840,18.066,-62.500
1573889498.817,26.367,31.250,285.645,30.762,127.441
1573889498.821,26.855,27.344,127.930,16.602,120.605
1573889498.825,10.254,22.461,-306.641,-5.859,-68.848
1573889498.829,9.277,20.996,-72.266,0.000,-93.262
1573889498.833,24.902,21.973,377.930,18.555,86.914
1573889498.837,24.902,26.855,72.266,10.742,118.652
1573889498.840,11.230,26.367,-419.922,-15.137,-32.227
1573889498.844,5.371,25.391,-215.820,-16.602,-104.004
1573889498.848,14.160,29.297,413.574,4.395,83.008
1573889498.852,27.832,26.855,246.094,14.160,168.945
1573889498.856,13.672,22.461,-507.812,-7.324,-5.859
1573889498.860,-0.977,20.996,-359.863,-16.602,-100.586
1573889498.864,9.766,21.484,206.543,13.184,12.695
1573889498.868,22.949,20.996,296.387,35.645,161.133
1573889498.872,15.625,10.742,-108.887,18.555,91.797
1573889498.876,-0.488,11.230,-250.488,7.812,-78.125
1573889498.880,4.395,16.113,46.387,26.367,-24.902
1573889498.883,23.926,14.160,184.082,44.434,142.578
1573889498.887,21.973,14.648,-25.879,32.227,127.930
1573889498.891,13.184,18.555,-229.004,16.602,-52.246
1573889498.895,23.438,21.973,-73.242,29.785,-87.891
1573889498.899,42.969,21.484,-14.648,47.363,72.266
1573889498.903,45.898,22.461,-68.359,39.551,141.602
1573889498.907,31.250,27.344,-112.305,14.160,7.812
1573889498.911,28.320,32.227,-168.945,13.184,-81.543
1573889498.915,37.109,29.297,176.758,34.180,58.105
1573889498.919,43.457,33.203,415.527,37.109,184.570
1573889498.923,32.227,35.156,76.172,12.207,65.918
1573889498.926,23.438,24.902,-218.262,6.348,-76.172
1573889498.930,37.109,22.949,9.766,30.273,20.508
1573889498.934,43.457,20.508,195.312,35.645,158.203
1573889498.938,27.832,11.719,-92.773,5.371,86.914
1573889498.942,16.113,8.789,-524.902,-15.625,-88.867
1573889498.946,22.949,14.648,-508.301,-0.488,-92.773
1573889498.950,37.598,28.809,138.672,18.066,95.215
1573889498.954,36.621,30.273,279.297,14.160,138.672
1573889498.958,17.090,17.090,-175.293,-5.859,-36.133
1573889498.962,9.277,11.230,-124.512,-2.441,-88.867
1573889498.965,23.438,12.207,335.449,28.809,57.129
1573889498.969,26.855,13.184,264.648,30.273,117.188
1573889498.973,15.137,16.602,-162.109,8.789,5.371
1573889498.977,11.719,20.020,-295.898,11.719,-84.961
1573889498.981,20.020,28.809,56.641,33.691,47.363
1573889498.985,38.574,45.410,178.711,48.340,142.090
1573889498.989,35.645,42.480,-454.102,31.250,9.766
1573889498.993,16.113,18.066,-626.465,11.230,-121.094
1573889498.997,22.461,15.625,94.238,31.738,-41.504
1573889499.001,38.086,19.531,372.559,46.387,122.559
1573889499.005,31.738,20.020,63.965,28.320,90.332
1573889499.008,15.137,21.484,-182.617,10.742,-100.098
1573889499.012,16.113,20.508,47.852,20.996,-101.074
1573889499.016,30.762,26.367,338.379,42.480,79.590
1573889499.020,29.297,28.320,173.340,30.762,107.422
1573889499.024,18.066,19.531,-294.434,6.836,-58.594
1573889499.028,16.113,21.484,-144.043,13.672,-71.289
1573889499.032,32.715,21.973,269.043,35.156,84.961
1573889499.036,36.133,19.531,71.777,27.344,144.531
1573889499.040,18.555,21.973,-177.246,2.930,9.277
1573889499.044,12.207,21.973,-97.656,1.953,-107.422
1573889499.048,27.344,26.855,291.016,28.809,5.371
1573889499.051,36.621,28.320,508.789,36.133,158.691
1573889499.055,28.320,23.438,296.875,12.207,77.148
1573889499.059,21.484,15.137,26.855,-2.441,-94.238
1573889499.063,30.273,10.742,255.859,16.113,-35.645
1573889499.067,44.434,17.090,620.117,35.645,141.602
1573889499.071,38.574,21.973,367.676,26.367,131.348
1573889499.075,23.926,22.461,-5.859,11.719,-10.742
1573889499.079,28.320,22.949,-137.207,21.484,-70.801
1573889499.083,44.922,25.879,12.207,41.992,28.320
1573889499.087,48.828,28.320,383.301,40.527,112.793
1573889499.090,37.109,26.855,142.090,21.973,-5.371
1573889499.094,35.156,24.902,-37.109,22.949,-106.445
1573889499.098,45.898,21.484,390.137,43.945,20.996
1573889499.102,48.340,23.438,672.363,44.434,153.809
1573889499.106,44.434,27.832,287.109,24.902,34.180
1573889499.110,41.504,31.250,61.035,22.949,-109.863
1573889499.114,45.898,29.297,494.141,39.551,-13.672
1573889499.118,50.293,29.297,643.555,46.875,153.320
1573889499.122,42.969,24.902,147.461,25.391,83.984
1573889499.126,29.785,23.438,-116.699,4.883,-92.285
1573889499.130,29.297,27.832,338.379,22.461,-28.320
1573889499.133,42.969,26.367,772.949,45.410,142.090
1573889499.137,40.527,26.855,279.785,29.297,107.422
1573889499.141,18.555,26.367,-382.324,-2.930,-70.312
1573889499.145,17.578,25.391,35.156,9.277,-79.102
1573889499.149,38.086,22.949,574.219,41.504,88.379
1573889499.153,42.969,20.996,393.555,38.574,152.832
1573889499.157,27.344,22.949,-28.809,15.137,-1.465
1573889499.161,28.320,28.320,12.207,19.043,-104.004
1573889499.165,49.805,32.227,283.203,50.293,20.508
1573889499.169,55.664,36.621,30.762,58.105,141.113
1573889499.173,41.504,36.621,-328.125,33.691,38.574
1573889499.176,29.785,25.391,-141.602,23.438,-96.191
1573889499.180,38.086,21.484,199.219,45.898,-11.719
1573889499.184,49.805,27.344,350.098,59.082,147.461
1573889499.188,41.992,25.391,200.684,35.645,120.117
1573889499.192,24.902,21.484,-18.066,18.555,-43.457
1573889499.196,30.273,25.879,76.660,34.668,-48.828
1573889499.200,42.969,29.297,298.340,50.293,104.492
1573889499.204,41.992,27.832,209.961,37.598,117.676
1573889499.208,27.344,24.902,-191.895,14.160,-39.062
1573889499.212,23.438,23.926,-325.195,19.531,-77.148
1573889499.215,35.645,24.902,-5.859,40.527,70.801
1573889499.219,32.227,24.902,125.488,34.180,138.672
1573889499.223,19.531,26.855,-98.633,14.648,17.578
1573889499.227,14.160,22.461,-387.207,8.301,-84.961
1573889499.231,22.461,22.949,-179.688,25.391,20.508
1573889499.235,32.227,25.879,212.402,34.668,148.438
1573889499.239,24.902,19.531,-47.363,18.555,52.734
1573889499.243,11.719,18.066,-528.809,7.324,-114.258
1573889499.247,17.090,20.996,-312.012,18.555,-54.688
1573889499.251,35.645,26.855,288.086,40.527,147.949
1573889499.255,33.203,36.133,81.055,29.297,108.398
1573889499.258,19.043,36.133,-462.402,6.348,-95.703
1573889499.262,19.043,24.414,-310.547,17.090,-62.012
1573889499.266,29.297,18.555,154.297,36.621,123.535
1573889499.270,33.203,22.949,74.707,29.785,141.113
1573889499.274,21.973,24.414,-402.832,9.766,-30.762
1573889499.278,20.020,31.250,-300.293,15.137,-107.422
1573889499.282,39.551,41.504,305.176,42.969,56.641
1573889499.286,49.316,36.133,292.480,45.410,155.762
1573889499.290,39.551,31.250,-491.211,22.461,-25.879
1573889499.294,32.715,26.855,-504.883,22.461,-129.883
1573889499.298,43.945,25.879,205.566,44.434,7.812
1573889499.301,55.176,29.785,330.566,52.246,142.090
1573889499.305,49.316,33.691,-144.531,36.621,70.312
1573889499.309,32.715,33.691,-363.281,21.973,-87.402
1573889499.313,28.809,29.785,160.156,28.809,-32.227
1573889499.317,44.922,27.344,347.168,39.551,125.488
1573889499.321,40.039,17.578,-216.797,21.484,82.520
1573889499.325,16.602,17.578,-379.883,-1.465,-74.219
1573889499.329,19.531,26.367,19.043,15.625,-95.703
1573889499.333,34.180,29.785,354.980,39.062,55.176
1573889499.337,37.598,32.227,316.406,32.715,135.254
1573889499.340,25.879,35.645,89.355,17.578,10.742
1573889499.344,22.461,34.180,71.777,25.391,-87.402
1573889499.348,33.203,27.344,418.945,44.434,65.918
1573889499.352,40.039,23.438,357.910,41.992,158.691
1573889499.356,32.715,16.602,-164.551,21.484,10.742
1573889499.360,20.508,14.160,-249.023,11.230,-114.258
1573889499.364,29.297,20.508,-117.188,27.344,-26.855
1573889499.368,38.574,22.461,130.859,39.062,143.555
1573889499.372,33.203,20.508,186.523,21.973,85.449
1573889499.376,22.461,23.438,-199.219,5.859,-106.445
1573889499.380,21.973,28.320,-94.727,16.602,-73.242
1573889499.383,30.762,24.902,403.809,32.715,121.094
1573889499.387,30.273,21.484,323.242,19.531,117.676
1573889499.391,14.648,19.043,-204.102,-4.883,-62.012
1573889499.395,9.766,18.066,-101.074,1.953,-68.359
1573889499.399,20.020,17.578,331.543,21.973,103.027
1573889499.403,19.531,13.672,183.105,17.090,141.602
1573889499.407,11.719,15.137,-419.922,0.977,-45.410
1573889499.411,9.277,23.926,-627.930,4.395,-136.230
1573889499.415,23.926,27.832,118.164,28.320,41.016
1573889499.419,36.133,20.020,500.000,36.621,179.688
1573889499.423,22.461,16.602,33.691,10.742,67.871
1573889499.426,12.207,17.578,-254.883,-2.441,-103.027
1573889499.430,31.250,20.020,227.539,23.438,-7.812
1573889499.434,50.781,18.555,402.344,39.551,147.949
1573889499.438,43.945,16.113,-59.570,22.949,78.125
1573889499.442,28.320,20.996,-238.281,7.324,-66.895
1573889499.446,35.645,26.855,-71.777,20.020,-56.641
1573889499.450,50.781,28.809,232.910,42.969,113.770
1573889499.454,46.387,26.367,-127.930,34.668,117.188
1573889499.458,31.738,22.949,-549.316,11.230,-53.223
1573889499.462,24.414,22.949,-118.652,14.648,-94.727
1573889499.465,38.086,24.414,250.000,41.504,46.875
1573889499.469,46.875,24.414,195.801,43.457,145.020
1573889499.473,31.738,25.391,-68.359,17.090,22.949
1573889499.477,22.461,27.344,-81.055,15.137,-89.844
1573889499.481,36.133,29.785,184.570,38.086,8.789
1573889499.485,46.387,31.738,239.746,43.945,122.070
1573889499.489,36.133,29.785,-52.734,22.949,27.832
1573889499.493,23.438,25.391,-292.480,8.789,-88.867
1573889499.497,31.250,29.297,-193.359,27.344,-13.184
1573889499.501,37.598,25.391,-109.863,38.086,111.816
1573889499.505,20.996,20.508,-91.797,19.043,87.891
1573889499.508,10.254,26.367,-185.547,5.371,-67.383
1573889499.512,18.555,34.180,-53.223,26.855,-67.871
1573889499.516,26.367,32.715,329.102,47.363,104.004
1573889499.520,25.391,24.414,331.543,33.691,140.625
1573889499.524,18.555,22.949,-100.586,15.137,-41.504
1573889499.528,18.066,18.555,-205.566,20.996,-122.559
1573889499.532,33.203,19.043,217.285,42.480,46.387
1573889499.536,48.340,24.902,372.070,46.875,148.438
1573889499.540,41.992,25.879,-186.523,28.320,9.766
1573889499.544,29.785,25.391,-402.832,19.531,-112.305
1573889499.548,41.504,28.809,-1.953,39.551,-24.902
1573889499.551,54.199,32.715,247.070,52.734,146.973
1573889499.555,39.551,27.344,6.836,30.273,77.637
1573889499.559,18.066,10.254,-708.008,2.441,-162.109
1573889499.563,18.555,11.719,-405.762,13.184,-94.238
1573889499.567,32.715,22.949,368.652,29.785,132.324
1573889499.571,33.203,22.461,106.445,16.113,103.516
1573889499.575,14.648,16.113,-325.195,-5.859,-75.684
1573889499.579,8.301,19.531,-40.527,-4.395,-82.520
1573889499.583,25.879,28.809,527.344,19.531,121.582
1573889499.587,29.785,27.344,221.680,16.602,158.203
1573889499.590,9.277,25.391,-481.445,-9.766,-36.133
1573889499.594,5.371,28.809,-239.746,-5.859,-109.863
1573889499.598,19.043,27.344,326.660,22.949,27.832
1573889499.602,26.855,26.367,197.754,25.391,114.258
1573889499.606,16.113,28.320,-278.320,5.859,22.949
1573889499.610,9.277,25.879,-182.129,4.395,-84.473
1573889499.614,23.926,28.320,332.031,29.785,13.184
1573889499.618,30.273,31.250,497.070,41.504,158.203
1573889499.622,20.996,24.902,187.988,18.066,91.309
1573889499.626,9.277,20.020,-24.414,0.488,-76.660
1573889499.630,15.625,29.297,258.789,20.996,-38.574
1573889499.633,27.344,31.250,505.371,39.551,145.508
1573889499.637,23.926,20.508,206.543,26.855,146.973
1573889499.641,15.625,20.508,-73.730,10.742,-12.695
1573889499.645,16.113,19.531,157.715,19.043,-54.199
1573889499.649,32.715,14.160,255.859,36.133,79.102
1573889499.653,36.621,16.602,209.961,32.227,144.531
1573889499.657,24.414,22.461,233.887,13.184,39.551
1573889499.661,17.090,21.973,142.578,7.324,-57.617
1573889499.665,22.949,21.973,386.230,24.414,37.109
1573889499.669,33.203,22.949,648.438,33.691,159.180
1573889499.673,29.297,20.996,338.379,13.672,38.574
1573889499.676,11.230,20.508,68.359,-2.930,-92.285
1573889499.680,17.578,25.391,267.578,20.020,-12.207
1573889499.684,35.645,40.039,470.703,37.109,132.812
1573889499.688,26.367,40.039,290.039,19.043,83.984
1573889499.692,9.766,24.414,-80.078,-2.930,-57.617
1573889499.696,9.766,24.414,53.223,5.371,-11.230
1573889499.700,22.461,27.832,692.871,28.809,154.297
1573889499.704,26.367,27.344,649.902,22.949,143.066
1573889499.708,18.555,30.762,-18.066,-2.930,-36.133
1573889499.712,17.090,34.180,-33.691,-1.465,-77.148
1573889499.715,27.344,36.621,636.230,22.949,95.215
1573889499.719,35.645,29.297,561.523,26.367,172.363
1573889499.723,25.879,24.414,-41.504,10.742,-1.465
1573889499.727,20.508,31.250,-122.559,10.742,-96.680
1573889499.731,32.715,28.809,266.602,36.621,33.691
1573889499.735,46.875,28.809,433.105,47.852,145.996
1573889499.739,37.109,33.203,-251.465,18.555,-3.418
1573889499.743,18.066,32.715,-480.469,1.953,-129.883
1573889499.747,21.484,33.691,252.441,22.949,-20.508
1573889499.751,33.691,33.203,536.133,36.621,149.902
1573889499.755,27.832,27.832,203.125,19.531,122.070
1573889499.758,5.859,23.926,-153.320,0.000,-95.215
1573889499.762,0.000,27.344,42.480,10.742,-99.609
1573889499.766,17.090,23.438,312.012,34.668,72.754
1573889499.770,21.484,23.438,190.430,32.715,131.348
1573889499.774,10.254,32.227,-154.297,12.695,2.930
1573889499.778,8.789,26.367,-262.207,15.137,-91.797
1573889499.782,22.461,20.996,38.574,43.457,50.293
1573889499.786,29.785,25.879,201.172,48.828,166.992
1573889499.790,18.066,26.855,-26.855,22.461,32.227
1573889499.794,11.230,22.461,-86.914,18.555,-89.355
1573889499.798,23.926,21.973,38.574,40.039,10.742
1573889499.801,34.180,23.926,-79.590,42.969,121.094
1573889499.805,23.926,21.484,-125.977,16.113,63.477
1573889499.809,13.672,20.508,-258.789,3.418,-89.355
1573889499.813,20.996,21.484,-108.887,24.902,-57.129
1573889499.817,31.738,22.461,296.875,41.992,140.625
1573889499.821,27.344,24.414,43.457,25.391,122.559
1573889499.825,15.137,26.367,-471.191,4.395,-61.035
1573889499.829,20.020,27.832,-301.758,12.695,-70.312
1573889499.833,34.668,25.879,91.309,34.668,79.590
1573889499.837,34.180,29.297,112.793,36.133,116.211
1573889499.840,25.879,27.832,-283.203,12.695,-57.617
1573889499.844,24.902,22.461,-646.484,4.883,-155.762
1573889499.848,37.109,29.785,-129.395,28.320,25.391
1573889499.852,39.551,31.738,411.621,36.133,188.477
1573889499.856,24.414,28.809,-62.500,9.277,46.387
1573889499.860,16.602,30.273,-366.699,3.418,-112.793
1573889499.864,23.926,26.855,146.973,26.855,1.465
1573889499.868,31.738,21.484,319.336,40.527,139.648
1573889499.872,24.414,17.578,-245.117,20.996,73.242
1573889499.876,18.555,24.902,-694.824,8.301,-93.262
1573889499.880,28.320,33.691,-136.230,31.250,-54.688
1573889499.883,39.551,33.203,443.848,52.734,108.887
1573889499.887,39.551,25.391,140.625,40.527,101.074
1573889499.891,28.809,25.879,-242.188,20.508,-62.012
1573889499.895,27.832,38.574,1.953,31.738,-104.004
1573889499.899,38.086,33.203,451.660,51.758,70.801
1573889499.903,44.922,26.367,329.590,50.781,132.324
1573889499.907,43.945,36.133,-46.875,37.598,-0.488
1573889499.911,36.133,38.086,12.207,32.715,-83.984
1573889499.915,42.480,35.156,299.805,47.852,36.133
1573889499.919,49.316,31.738,52.246,48.340,143.066
1573889499.923,35.156,27.832,-331.543,21.973,36.133
1573889499.926,21.973,35.156,-126.465,11.230,-82.520
1573889499.930,31.250,32.715,328.125,30.762,16.602
1573889499.934,40.039,18.555,418.457,40.039,156.250
1573889499.938,31.250,22.461,122.559,21.484,89.355
1573889499.942,18.066,26.367,-14.648,3.906,-49.805
1573889499.946,18.555,27.344,22.949,13.184,-58.105
1573889499.950,30.762,34.668,281.250,33.691,102.539
1573889499.954,31.250,30.273,321.777,25.391,138.672
1573889499.958,14.648,26.367,-1.465,0.977,-31.250
1573889499.962,13.184,31.250,-213.379,5.371,-100.098
1573889499.965,25.391,27.344,-73.730,24.414,25.879
1573889499.969,21.973,21.484,204.590,19.531,126.953
1573889499.973,4.883,19.531,-0.977,-3.418,8.789
1573889499.977,-5.859,20.020,-264.648,-6.348,-107.910
1573889499.981,9.277,19.043,19.531,17.578,4.395
1573889499.985,22.461,22.949,423.828,26.855,167.480
1573889499.989,14.648,27.832,141.602,8.789,83.008
1573889499.993,8.789,24.414,-191.406,6.836,-80.078
1573889499.997,23.926,23.926,67.871,37.109,-43.945
1573889500.001,45.410,26.367,298.828,54.199,107.422
1573889500.005,42.969,20.996,74.219,37.109,108.887
1573889500.008,23.438,13.184,-314.453,19.531,-45.410
1573889500.012,25.879,17.090,-229.004,32.715,-71.289
1573889500.016,44.922,22.461,350.586,53.223,111.328
1573889500.020,50.293,22.461,302.734,47.852,142.578
1573889500.024,43.457,24.414,-519.531,30.273,-59.082
1573889500.028,38.086,27.832,-520.020,29.785,-114.746
1573889500.032,42.969,28.809,293.457,46.387,58.594
1573889500.036,43.945,24.902,258.789,40.039,131.348
1573889500.040,29.297,15.625,-258.301,12.207,-4.395
1573889500.044,17.090,16.113,-232.910,8.301,-109.375
1573889500.048,24.902,21.484,185.547,30.273,-19.531
1573889500.051,33.691,21.484,278.320,37.598,117.676
1573889500.055,19.531,25.391,-183.594,16.113,58.105
1573889500.059,8.301,30.762,-437.012,1.953,-54.199
1573889500.063,16.602,26.367,-20.508,17.090,-7.812
1573889500.067,30.762,19.531,202.148,32.227,125.488
1573889500.071,30.273,20.020,-266.113,17.578,88.867
1573889500.075,15.137,23.438,-360.840,-1.953,-50.781
1573889500.079,14.648,33.691,56.641,8.789,-40.527
1573889500.083,30.273,32.227,296.387,27.344,79.590
1573889500.087,35.156,23.438,243.164,22.461,155.273
1573889500.090,21.484,20.508,-8.789,0.977,21.484
1573889500.094,15.625,20.020,-109.375,7.812,-108.887
1573889500.098,30.762,24.902,159.180,34.180,21.484
1573889500.102,39.551,26.367,194.336,39.062,152.344
1573889500.106,34.668,29.297,-234.863,29.297,23.438
1573889500.110,24.414,26.367,-381.348,24.414,-117.188
1573889500.114,34.180,20.020,-241.699,39.062,-26.367
1573889500.118,47.852,20.020,23.438,51.758,135.254
1573889500.122,39.551,23.926,120.605,37.109,85.938
1573889500.126,25.879,23.438,-240.234,20.020,-99.121
1573889500.130,30.762,27.344,-76.660,30.762,-61.035
1573889500.133,46.387,35.645,391.602,47.363,109.863
1573889500.137,41.016,26.367,281.738,33.691,109.863
1573889500.141,24.902,20.508,-187.500,6.836,-54.199
1573889500.145,26.367,25.391,-194.824,12.695,-91.797
1573889500.149,39.551,24.902,75.195,41.016,51.758
1573889500.153,39.062,28.320,73.730,35.645,117.676
1573889500.157,26.367,31.250,-390.625,8.789,-48.828
1573889500.161,21.973,29.297,-686.035,5.371,-164.062
1573889500.165,31.738,29.297,27.832,25.879,2.441
1573889500.169,43.945,25.391,428.711,36.133,146.973
1573889500.173,30.762,21.973,-36.133,12.207,50.781
1573889500.176,19.043,23.438,-203.613,1.465,-75.195
1573889500.180,32.227,23.926,278.320,27.344,0.488
1573889500.184,46.387,28.320,528.320,42.969,147.949
1573889500.188,39.551,31.738,112.305,24.414,78.125
1573889500.192,23.438,27.832,-205.078,10.254,-84.961
1573889500.196,29.785,23.438,-0.977,26.367,-43.457
1573889500.200,47.852,24.414,320.801,51.270,106.934
1573889500.204,45.898,24.414,-77.637,41.504,91.797
1573889500.208,30.762,29.785,-499.512,12.695,-47.363
1573889500.212,31.250,39.062,3.906,21.484,-92.285
1573889500.215,50.293,37.109,514.160,49.316,64.453
1573889500.219,57.617,32.227,508.301,50.781,162.109
1573889500.223,41.016,33.691,211.426,29.297,16.602
1573889500.227,30.762,36.133,111.816,26.855,-91.797
1573889500.231,40.039,39.551,356.445,42.480,5.371
1573889500.235,45.410,36.133,575.195,43.457,150.879
1573889500.239,34.180,25.879,383.789,22.949,87.402
1573889500.243,26.855,27.344,102.539,14.648,-55.664
1573889500.247,36.621,33.691,222.656,27.832,-0.977
1573889500.251,46.387,34.180,293.457,38.086,121.094
1573889500.255,38.086,36.133,278.320,24.414,105.469
1573889500.258,25.391,36.621,284.180,11.719,-16.602
1573889500.262,28.809,33.691,357.910,24.902,-41.992
1573889500.266,41.992,33.691,705.566,39.062,117.676
1573889500.270,42.969,25.879,714.844,33.691,154.785
1573889500.274,30.762,26.367,296.875,13.672,-7.324
1573889500.278,25.391,29.297,168.945,11.719,-111.816
1573889500.282,38.574,25.879,484.863,36.133,32.715
1573889500.286,47.363,25.879,604.980,39.551,170.898
1573889500.290,32.715,31.250,186.035,14.160,37.598
1573889500.294,22.461,35.645,-324.707,8.789,-119.141
1573889500.298,28.320,26.367,-20.508,26.367,-30.762
1573889500.301,34.668,16.113,573.242,34.180,129.883
1573889500.305,26.367,10.254,300.781,14.648,78.613
1573889500.309,11.230,9.766,-65.430,-5.859,-69.824
1573889500.313,17.578,19.531,254.395,13.672,-56.152
1573889500.317,26.855,22.949,646.484,33.691,109.863
1573889500.321,23.438,27.832,315.918,17.578,95.215
1573889500.325,8.301,27.832,-176.758,-2.930,-85.449
1573889500.329,8.301,28.320,93.262,12.207,-79.590
1573889500.333,28.320,32.715,663.086,39.551,130.859
1573889500.337,33.691,26.855,358.398,34.180,165.039
1573889500.340,19.043,21.484,-386.719,11.230,-22.949
1573889500.344,11.230,24.902,-304.199,11.230,-104.492
1573889500.348,22.461,27.344,318.848,32.715,32.715
1573889500.352,37.598,30.273,265.137,34.180,135.742
1573889500.356,31.738,31.250,-420.410,8.789,6.836
1573889500.360,21.484,28.320,-396.484,4.395,-132.812
1573889500.364,28.809,27.832,208.984,23.438,-14.648
1573889500.368,32.715,20.020,378.418,29.297,133.301
1573889500.372,26.367,20.996,9.277,15.625,54.688
1573889500.376,19.043,30.273,-157.227,2.930,-80.566
1573889500.380,21.484,34.180,110.840,13.672,-52.246
1573889500.383,36.133,28.809,254.395,31.738,108.887
1573889500.387,31.250,19.531,32.715,20.508,119.629
1573889500.391,12.695,17.578,-144.043,-2.441,-20.020
1573889500.395,12.207,18.555,-101.562,0.977,-78.125
1573889500.399,23.438,22.461,-145.508,17.578,39.062
1573889500.403,20.508,27.832,-103.516,14.160,146.484
1573889500.407,6.348,25.879,-146.973,-1.953,7.324
1573889500.411,1.953,15.137,-293.945,-2.441,-111.328
1573889500.415,13.672,15.137,2.930,19.043,12.695
1573889500.419,24.414,25.879,258.301,30.273,141.113
1573889500.423,15.137,23.438,25.391,12.207,65.430
1573889500.426,5.371,12.695,-249.023,1.953,-81.055
1573889500.430,18.555,16.602,-164.551,24.414,-50.781
1573889500.434,31.738,19.043,72.754,41.016,123.535
1573889500.438,24.414,13.184,21.973,26.367,126.953
1573889500.442,17.090,15.625,-335.449,15.137,-43.945
1573889500.446,23.926,24.414,-233.398,28.809,-52.734
1573889500.450,39.551,30.762,394.043,42.969,129.883
1573889500.454,43.457,28.320,320.312,34.180,158.203
1573889500.458,27.832,19.043,-427.734,10.742,-34.668
1573889500.462,25.391,23.438,-496.094,16.113,-118.164
1573889500.465,40.527,31.738,208.008,47.363,25.879
1573889500.469,46.875,25.879,415.039,47.852,155.273
1573889500.473,31.738,17.578,-31.738,14.648,18.555
1573889500.477,21.973,19.043,-326.172,4.883,-139.160
1573889500.481,34.180,29.785,41.016,29.785,-6.836
1573889500.485,44.434,33.203,338.867,38.086,145.508
1573889500.489,33.203,23.926,-4.883,10.742,62.500
1573889500.493,17.090,24.902,-213.867,-7.812,-104.004
1573889500.497,19.043,27.832,241.699,11.719,-33.203
1573889500.501,36.621,20.996,565.430,35.645,155.762
1573889500.505,36.133,17.578,-41.992,20.020,92.285
1573889500.508,16.602,20.996,-483.398,-1.953,-87.891
1573889500.512,15.625,24.414,-105.957,10.742,-89.355
1573889500.516,28.320,28.809,297.852,33.691,75.684
1573889500.520,28.320,25.391,223.633,32.227,119.629
1573889500.524,14.648,15.137,-153.320,11.719,-25.391
1573889500.528,12.207,14.160,-183.105,13.184,-92.285
1573889500.532,30.762,24.414,108.887,41.016,34.668
1573889500.536,37.598,29.297,37.598,45.898,137.695
1573889500.540,28.320,32.227,-57.617,25.879,44.434
1573889500.544,23.926,30.762,37.598,23.926,-68.848
1573889500.548,33.691,23.926,264.160,45.410,6.836
1573889500.551,42.480,24.414,416.016,52.246,140.625
1573889500.555,27.832,24.414,247.070,26.367,104.492
1573889500.559,12.695,19.531,-15.137,12.207,-48.828
1573889500.563,17.578,16.602,53.711,24.902,-62.500
1573889500.567,33.691,24.414,236.816,39.062,100.586
1573889500.571,32.715,35.156,74.707,30.273,144.531
1573889500.575,18.555,29.785,-245.605,15.137,-30.762
1573889500.579,19.531,16.113,-389.160,19.043,-97.656
1573889500.583,30.273,12.695,-11.230,33.203,80.078
1573889500.587,31.738,18.066,367.676,28.320,172.363
1573889500.590,17.578,21.973,-55.664,4.395,-0.977
1573889500.594,10.254,23.438,-268.066,1.953,-118.164
1573889500.598,19.043,24.902,243.652,22.461,39.062
1573889500.602,26.855,24.902,500.000,29.297,184.570
1573889500.606,16.113,18.066,-20.996,8.789,54.688
1573889500.610,0.000,14.160,-322.754,-2.441,-90.332
1573889500.614,9.766,21.484,140.625,16.602,3.418
1573889500.618,24.902,22.949,328.125,30.273,153.320
1573889500.622,16.602,18.066,-220.703,10.742,94.727
1573889500.626,8.301,20.020,-750.977,0.000,-101.074
1573889500.630,21.484,28.809,-256.836,22.461,-75.195
1573889500.633,34.668,30.273,342.773,43.945,100.098
1573889500.637,30.762,25.391,84.473,39.062,102.539
1573889500.641,14.160,13.184,-312.500,15.625,-54.688
1573889500.645,8.789,10.254,-110.840,20.508,-99.121
1573889500.649,20.996,17.578,349.121,44.922,73.730
1573889500.653,28.320,21.484,297.852,41.504,170.410
1573889500.657,17.090,18.066,-169.434,18.555,5.859
1573889500.661,12.207,20.996,-181.152,17.578,-95.703
1573889500.665,27.344,28.320,224.121,39.062,65.430
1573889500.669,45.898,26.855,-36.133,46.875,150.879
1573889500.673,34.668,24.414,-466.309,25.879,45.410
1573889500.676,15.625,24.902,-213.867,8.301,-54.688
1573889500.680,31.250,39.551,58.594,32.715,-8.789
1573889500.684,52.246,42.969,156.250,57.617,134.766
1573889500.688,40.527,25.391,77.148,32.227,113.281
1573889500.692,25.391,24.414,-75.195,10.742,-35.156
1573889500.696,30.762,36.621,69.824,27.344,-24.902
1573889500.700,44.434,40.039,367.676,46.875,125.977
1573889500.704,40.527,32.715,260.254,37.598,125.000
1573889500.708,25.391,34.668,-46.875,13.184,-13.184
1573889500.712,28.320,38.574,-279.785,19.531,-104.980
1573889500.715,37.598,32.227,-320.801,34.180,-20.020
1573889500.719,37.598,26.855,42.480,28.809,129.883
1573889500.723,23.926,26.367,-5.371,7.812,31.738
1573889500.727,16.113,23.926,-186.035,1.953,-82.031
1573889500.731,23.438,23.438,200.195,21.484,40.527
1573889500.735,32.715,25.391,336.914,29.297,143.555
1573889500.739,28.809,26.855,-89.844,13.672,57.617
1573889500.743,17.090,24.902,-315.430,-0.488,-87.402
1573889500.747,19.531,21.484,-8.301,13.672,-43.457
1573889500.751,29.785,24.414,404.297,31.738,138.184
1573889500.755,26.367,24.414,207.520,18.066,118.164
1573889500.758,15.625,24.902,-316.895,-3.906,-65.430
1573889500.762,19.531,29.785,-260.742,7.324,-69.336
1573889500.766,32.715,33.691,314.453,30.762,116.211
1573889500.770,30.273,29.297,340.820,19.043,154.297
1573889500.774,17.578,24.902,-433.594,-4.395,-24.414
1573889500.778,14.160,28.320,-495.117,-0.977,-80.566
1573889500.782,26.367,33.691,308.105,21.973,83.984
1573889500.786,37.109,36.621,429.199,32.715,173.828
1573889500.790,27.832,37.109,-51.270,13.184,35.645
1573889500.794,25.391,38.086,-227.051,11.230,-115.234
1573889500.798,39.062,36.133,204.590,37.109,-24.414
1573889500.801,46.387,37.109,473.145,46.875,144.043
1573889500.805,36.621,30.273,-5.371,25.879,50.781
1573889500.809,23.438,20.996,-333.008,8.301,-112.305
1573889500.813,26.855,23.926,129.395,25.391,-48.340
1573889500.817,42.969,28.320,521.484,45.898,134.277
1573889500.821,39.551,27.832,138.184,31.250,125.000
1573889500.825,19.531,29.785,18.066,7.812,-34.668
1573889500.829,20.020,33.691,344.238,15.137,-64.941
1573889500.833,32.715,27.344,654.297,33.691,85.938
1573889500.837,40.527,18.555,610.840,31.738,151.367
1573889500.840,29.785,22.949,281.738,8.789,-9.277
1573889500.844,26.367,30.273,240.723,9.766,-108.887
1573889500.848,34.668,29.785,462.891,33.691,12.207
1573889500.852,33.691,25.391,488.770,33.203,147.949
1573889500.856,27.344,29.297,104.980,12.207,24.414
1573889500.860,24.902,34.668,-114.258,8.789,-129.395
1573889500.864,30.762,29.785,28.809,25.879,-44.434
1573889500.868,38.574,28.809,291.992,36.621,104.004
1573889500.872,38.086,34.180,394.043,28.320,72.754
1573889500.876,31.250,35.156,120.605,20.020,-77.148
1573889500.880,31.250,26.855,273.438,35.645,-49.805
1573889500.883,43.945,29.297,726.074,52.734,121.582
1573889500.887,49.316,37.109,591.797,43.945,120.605
1573889500.891,36.133,33.203,58.594,22.461,-65.918
1573889500.895,32.227,31.738,93.750,21.484,-101.562
1573889500.899,41.992,29.297,473.145,43.457,78.613
1573889500.903,44.434,23.926,434.082,42.969,151.855
1573889500.907,31.738,27.832,-138.184,13.672,-21.484
1573889500.911,23.438,35.156,-498.535,3.418,-132.812
1573889500.915,35.156,37.598,144.531,29.297,4.883
1573889500.919,41.016,34.668,567.871,34.668,143.555
1573889500.923,30.762,35.645,142.090,13.672,54.199
1573889500.926,20.508,31.250,-162.598,5.859,-117.676
1573889500.930,25.879,23.926,209.961,20.996,-59.082
1573889500.934,38.574,26.855,563.477,38.574,141.602
1573889500.938,30.762,33.691,249.512,22.461,123.047
1573889500.942,13.184,38.086,-92.285,0.000,-40.039
1573889500.946,10.254,28.809,-45.410,9.766,-64.941
1573889500.950,24.902,20.020,293.945,30.762,109.863
1573889500.954,27.344,21.484,-43.945,17.090,121.582
1573889500.958,8.301,26.367,-556.152,-11.719,-49.316
1573889500.962,5.859,27.344,-163.086,0.488,-79.102
1573889500.965,20.508,29.297,101.562,27.832,27.832
1573889500.969,26.855,33.691,121.582,30.273,121.582
1573889500.973,18.555,27.344,-57.617,11.719,21.484
1573889500.977,11.719,22.461,-80.078,8.789,-84.473
1573889500.981,22.461,23.438,193.848,32.715,14.648
1573889500.985,34.668,31.738,383.301,43.457,176.758
1573889500.989,34.180,34.180,64.453,30.762,88.867
1573889500.993,22.949,25.879,-387.207,22.949,-98.145
1573889500.997,24.902,27.344,-333.984,32.715,-63.965
1573889501.001,37.598,29.785,-148.438,45.410,110.352
1573889501.005,36.133,26.367,-48.828,36.133,127.930
1573889501.008,23.438,22.949,-160.645,19.531,-37.109
1573889501.012,26.367,23.926,-147.461,28.809,-86.426
1573889501.016,46.875,31.738,217.285,50.293,78.613
1573889501.020,48.340,32.715,216.309,41.016,146.484
1573889501.024,32.227,27.832,-207.520,11.719,-28.809
1573889501.028,27.832,31.738,-264.160,6.836,-129.395
1573889501.032,39.062,36.133,181.641,25.879,38.574
1573889501.036,45.898,25.879,432.617,28.809,177.734
1573889501.040,37.109,23.926,-160.645,4.883,18.555
1573889501.044,24.414,26.367,-488.281,-6.836,-109.863
1573889501.048,29.297,32.715,70.801,14.648,3.906
1573889501.051,40.527,40.039,470.215,30.273,154.785
1573889501.055,33.203,34.668,158.203,17.090,81.055
1573889501.059,20.996,28.809,-513.184,2.930,-103.027
1573889501.063,23.438,27.832,-272.949,20.020,-58.594
1573889501.067,35.156,28.809,429.688,40.039,117.676
1573889501.071,36.621,30.273,217.773,31.738,104.980
1573889501.075,21.484,25.391,-309.570,13.184,-59.082
1573889501.079,16.113,25.391,-127.441,18.066,-68.359
1573889501.083,31.738,29.297,415.527,44.434,73.730
1573889501.087,40.039,27.344,175.293,47.363,120.605
1573889501.090,29.297,27.832,-481.445,29.297,-55.664
1573889501.094,23.438,26.855,-287.598,23.926,-142.578
1573889501.098,36.621,29.297,398.926,45.898,40.527
1573889501.102,44.922,29.785,435.547,52.246,172.363
1573889501.106,32.715,25.391,-43.945,25.879,50.293
1573889501.110,20.996,36.133,-122.070,12.695,-103.027
1573889501.114,32.227,44.922,207.031,29.785,-37.598
1573889501.118,44.922,30.762,347.168,44.922,110.352
1573889501.122,40.039,24.414,105.957,30.762,89.355
1573889501.126,28.809,30.273,-98.145,16.602,-65.918
1573889501.130,32.227,28.809,51.758,29.785,-77.148
1573889501.133,46.387,29.785,244.141,45.898,90.332
1573889501.137,45.898,35.645,-22.461,33.691,104.004
1573889501.141,32.715,31.250,-398.926,10.254,-60.059
1573889501.145,27.344,23.926,-180.176,11.719,-78.125
1573889501.149,36.133,26.855,74.219,29.297,55.176
1573889501.153,41.016,29.785,53.223,28.809,111.816
1573889501.157,26.367,31.738,-41.504,5.859,10.254
1573889501.161,16.602,33.203,-164.551,1.465,-99.121
1573889501.165,27.832,34.668,-100.586,22.461,-9.766
1573889501.169,38.086,36.133,208.496,34.668,165.527
1573889501.173,29.785,27.832,102.051,19.043,74.707
1573889501.176,15.625,30.273,-202.148,7.324,-75.684
1573889501.180,21.973,38.086,17.578,28.809,16.602
1573889501.184,34.180,34.180,283.203,46.875,167.969
1573889501.188,34.668,38.086,-21.973,36.133,106.934
1573889501.192,25.879,41.992,-520.996,19.043,-98.145
1573889501.196,23.926,35.645,-245.605,27.832,-94.238
1573889501.200,34.180,30.762,354.492,47.852,124.023
1573889501.204,32.227,30.273,307.617,40.039,155.273
1573889501.208,20.020,27.832,-294.434,12.207,-14.160
1573889501.212,16.602,30.762,-547.852,11.719,-102.539
1573889501.215,30.273,39.551,165.039,32.715,58.105
1573889501.219,39.551,37.598,358.398,36.621,154.785
1573889501.223,24.902,33.691,-108.398,16.113,40.039
1573889501.227,18.066,34.668,-321.289,11.230,-75.684
1573889501.231,32.227,29.297,-58.594,37.109,-4.883
1573889501.235,41.992,29.785,342.285,50.293,172.363
1573889501.239,35.645,33.691,-225.586,27.344,64.941
1573889501.243,19.043,34.180,-625.488,10.254,-109.375
1573889501.247,16.602,24.902,-24.414,28.320,-31.250
1573889501.251,38.574,17.578,283.203,58.594,127.930
1573889501.255,34.668,32.715,82.031,39.062,123.535
1573889501.258,0.488,30.762,-177.734,-8.301,-49.805
1573889501.262,1.465,27.832,23.926,-1.465,-75.195
1573889501.266,25.391,35.156,305.176,28.809,77.637
1573889501.270,30.273,38.086,185.547,23.926,126.953
1573889501.274,19.043,41.504,-274.902,1.953,-23.438
1573889501.278,18.555,45.898,-338.867,3.906,-123.047
1573889501.282,30.273,47.363,-50.781,21.484,-18.066
1573889501.286,39.062,37.598,-181.641,26.367,96.191
1573889501.290,29.297,30.273,-244.629,6.836,23.926
1573889501.294,17.090,29.297,-161.133,0.977,-104.980
1573889501.298,28.320,28.320,100.586,23.438,-19.531
1573889501.301,44.434,26.367,281.250,37.598,151.855
1573889501.305,33.203,25.879,103.027,21.484,107.910
1573889501.309,21.484,36.133,-134.766,5.371,-74.219
1573889501.313,29.785,42.969,14.648,21.973,-62.500
1573889501.317,41.992,33.691,390.625,38.574,123.047
1573889501.321,40.039,25.879,109.375,25.879,119.629
1573889501.325,25.879,25.879,-368.164,5.371,-63.477
1573889501.329,24.414,24.414,-431.152,10.742,-94.727
1573889501.333,39.062,27.344,-46.387,34.180,81.543
1573889501.337,40.039,36.133,335.938,33.691,175.781
1573889501.340,22.949,37.109,-122.070,10.742,-9.766
1573889501.344,14.648,27.832,-354.980,2.930,-139.648
1573889501.348,27.832,24.902,189.453,30.762,24.902
1573889501.352,41.504,31.738,515.625,41.016,189.941
1573889501.356,30.273,31.738,25.879,12.207,63.477
1573889501.360,16.113,30.762,-433.594,1.953,-125.000
1573889501.364,28.320,41.504,46.875,24.414,-20.508
1573889501.368,46.387,45.898,370.117,41.504,156.738
1573889501.372,45.410,41.504,-147.461,28.809,96.680
1573889501.376,27.832,41.016,-656.738,4.395,-83.984
1573889501.380,25.879,36.621,-201.660,14.160,-70.801
1573889501.383,44.434,32.715,492.188,41.504,131.348
1573889501.387,42.480,33.203,321.289,33.203,156.250
1573889501.391,24.902,31.250,-91.309,11.230,-8.301
1573889501.395,28.320,40.527,70.312,17.578,-71.289
1573889501.399,46.387,44.922,501.953,44.434,67.383
1573889501.403,45.410,37.598,470.703,40.039,152.832
1573889501.407,33.691,35.645,21.973,14.160,-15.137
1573889501.411,29.785,28.320,-38.086,13.672,-122.070
1573889501.415,41.504,24.902,286.621,35.645,0.000
1573889501.419,51.270,30.762,160.156,43.945,112.305
1573889501.423,39.551,29.785,-205.566,20.508,22.461
1573889501.426,30.273,32.227,28.320,12.207,-90.332
1573889501.430,37.598,43.945,441.895,35.645,-22.949
1573889501.434,48.828,45.410,642.578,56.152,125.488
1573889501.438,46.387,38.086,439.453,42.480,80.566
1573889501.442,33.203,38.086,188.477,22.949,-77.637
1573889501.446,29.785,35.156,270.020,35.645,-91.309
1573889501.450,47.852,38.086,551.758,54.688,75.195
1573889501.454,56.641,44.922,610.840,51.270,153.809
1573889501.458,39.551,41.504,248.047,27.344,-28.320
1573889501.462,30.273,35.156,14.648,21.484,-116.699
1573889501.465,40.527,36.133,355.957,41.992,57.617
1573889501.469,43.457,34.180,572.754,41.992,163.574
1573889501.473,28.320,33.203,151.367,16.113,-1.953
1573889501.477,28.809,34.668,-138.184,15.137,-133.789
1573889501.481,46.875,30.762,-55.664,36.621,-37.598
1573889501.485,52.734,33.691,375.000,38.086,128.418
1573889501.489,37.109,35.156,361.328,15.625,91.309
1573889501.493,23.438,32.227,-31.250,2.930,-90.332
1573889501.497,27.832,39.062,230.957,20.020,-41.016
1573889501.501,33.203,36.621,706.543,28.809,154.297
1573889501.505,25.879,27.832,500.488,11.230,144.531
1573889501.508,14.648,31.738,-124.023,-6.836,-58.594
1573889501.512,11.230,35.156,-222.656,1.465,-104.004
1573889501.516,21.973,42.480,269.531,25.391,71.289
1573889501.520,25.879,38.574,369.141,25.879,134.277
1573889501.524,7.812,23.438,-365.234,-2.930,-48.828
1573889501.528,1.465,24.414,-537.109,-4.883,-125.977
1573889501.532,19.531,30.762,292.480,27.344,60.547
1573889501.536,32.715,33.691,449.219,38.574,158.203
1573889501.540,20.020,33.691,-14.160,17.090,51.270
1573889501.544,6.348,31.738,-41.992,7.324,-55.176
1573889501.548,17.090,27.832,330.078,28.809,9.766
1573889501.551,29.297,24.414,460.449,40.527,154.297
1573889501.555,20.996,25.391,-13.184,24.414,86.914
1573889501.559,6.348,27.344,-392.090,6.348,-68.848
1573889501.563,14.160,37.598,-21.973,19.531,-25.879
1573889501.567,35.156,42.480,241.211,38.086,108.887
1573889501.571,30.273,37.598,-197.754,18.555,84.961
1573889501.575,12.695,31.738,-348.145,-5.371,-51.758
1573889501.579,14.160,27.832,-23.926,2.930,-70.312
1573889501.583,29.297,29.297,179.688,26.367,40.527
1573889501.587,30.273,28.809,-35.156,24.902,99.121
1573889501.590,9.766,26.367,-302.246,-2.930,-18.555
1573889501.594,1.465,29.297,-212.891,-2.930,-101.562
1573889501.598,18.555,26.855,140.137,22.949,34.668
1573889501.602,30.273,20.508,167.480,30.762,156.250
1573889501.606,12.695,19.043,-237.305,11.230,56.152
1573889501.610,-3.906,20.508,-448.242,3.906,-106.934
1573889501.614,4.395,21.973,-217.773,25.391,-37.598
1573889501.618,15.625,24.414,170.410,36.621,139.648
1573889501.622,10.742,19.043,67.383,18.555,91.797
1573889501.626,0.977,14.160,-292.480,4.395,-63.477
1573889501.630,10.254,17.578,-199.219,20.020,-49.316
1573889501.633,23.926,26.367,320.312,34.668,134.277
1573889501.637,27.832,26.855,416.504,29.297,171.387
1573889501.641,23.438,16.113,-159.668,15.625,-19.531
1573889501.645,24.902,21.973,-173.340,20.996,-88.379
1573889501.649,47.852,36.133,234.863,51.758,61.035
1573889501.653,56.641,36.621,257.324,55.664,142.578
1573889501.657,37.598,35.645,-215.332,26.855,-16.113
1573889501.661,24.414,30.762,-568.359,14.648,-144.043
1573889501.665,31.738,29.297,72.266,32.227,-1.953
1573889501.669,45.898,32.715,516.113,41.992,148.438
1573889501.673,41.016,30.762,84.961,27.344,50.293
1573889501.676,31.738,36.133,-144.043,17.090,-76.172
1573889501.680,35.645,38.086,326.172,28.809,6.836
1573889501.684,42.480,33.203,634.277,41.504,153.809
1573889501.688,32.715,33.203,238.281,23.438,100.586
1573889501.692,19.531,37.109,-128.906,1.465,-58.594
1573889501.696,27.832,35.156,-43.945,13.672,-76.172
1573889501.700,39.062,34.180,160.156,35.645,72.266
1573889501.704,35.645,33.203,12.695,23.438,119.141
1573889501.708,20.020,30.762,-320.312,1.953,-58.105
1573889501.712,13.672,37.598,-80.078,8.301,-106.934
1573889501.715,23.926,39.062,392.578,24.414,79.590
1573889501.719,32.227,38.086,328.125,27.832,170.410
1573889501.723,18.066,38.574,-45.898,9.766,27.832
1573889501.727,7.812,39.551,-34.668,6.348,-76.172
1573889501.731,24.414,39.551,231.445,34.668,18.066
1573889501.735,39.062,35.156,137.695,47.363,141.113
1573889501.739,30.273,33.203,-26.367,27.832,93.750
1573889501.743,17.090,32.227,-239.258,14.160,-68.848
1573889501.747,21.484,33.691,-175.293,23.926,-43.945
1573889501.751,34.180,40.039,265.137,36.621,138.184
1573889501.755,40.527,43.457,82.031,30.273,99.121
1573889501.758,29.785,36.621,-208.008,17.578,-60.547
1573889501.762,26.367,31.250,-166.016,24.902,-80.078
1573889501.766,43.457,30.273,-74.707,45.410,54.688
1573889501.770,47.852,33.691,209.961,44.434,163.574
1573889501.774,32.227,37.598,0.000,23.438,15.137
1573889501.778,23.438,37.109,-193.359,20.508,-106.934
1573889501.782,29.785,30.273,183.594,33.203,30.273
1573889501.786,39.062,27.832,364.258,38.574,140.625
1573889501.790,33.203,29.297,-95.703,21.484,37.598
1573889501.794,20.996,27.344,-654.785,11.230,-115.723
1573889501.798,29.297,32.227,-363.281,27.832,-44.434
1573889501.801,43.457,32.227,365.234,42.480,164.551
1573889501.805,35.645,22.949,131.348,27.344,93.750
1573889501.809,18.555,20.508,-435.547,5.859,-124.512
1573889501.813,20.508,25.391,-255.371,21.484,-98.633
1573889501.817,35.645,31.250,315.918,41.016,110.840
1573889501.821,35.156,24.902,178.223,26.855,125.000
1573889501.825,17.090,21.973,-287.598,2.441,-44.434
1573889501.829,14.648,29.785,-69.824,2.930,-64.941
1573889501.833,39.062,32.715,341.309,34.180,85.938
1573889501.837,49.805,29.785,-1.953,42.480,118.652
1573889501.840,36.621,32.227,-692.871,20.996,-34.668
1573889501.844,30.273,36.133,-479.980,17.578,-104.980
1573889501.848,37.109,29.297,197.266,41.504,27.832
1573889501.852,43.457,24.414,275.391,50.781,153.320
1573889501.856,30.273,32.227,-106.934,25.879,52.734
1573889501.860,14.648,29.785,-258.789,13.672,-113.770
1573889501.864,20.508,19.531,158.691,30.762,-7.812
1573889501.868,26.367,18.555,329.102,42.480,155.762
1573889501.872,22.949,24.902,-29.297,27.832,92.285
1573889501.876,13.184,32.715,-210.449,8.789,-61.523
1573889501.880,12.695,34.668,15.625,12.207,-57.617
1573889501.883,22.949,28.809,244.629,25.391,111.328
1573889501.887,24.414,22.949,12.207,15.625,138.672
1573889501.891,17.090,22.461,-218.750,-0.488,-8.301
1573889501.895,16.602,19.531,-67.871,5.859,-57.129
1573889501.899,30.273,21.973,164.551,22.949,65.430
1573889501.903,35.645,28.809,214.355,21.973,154.297
1573889501.907,23.926,29.785,-32.715,4.395,32.227
1573889501.911,19.043,29.785,-211.426,0.977,-104.492
1573889501.915,37.109,26.367,-153.320,28.320,9.766
1573889501.919,45.410,25.879,120.117,39.062,164.062
1573889501.923,29.297,26.367,-2.441,15.137,60.547
1573889501.926,20.996,26.367,-448.242,5.859,-113.770
1573889501.930,25.391,26.855,-214.844,24.414,-48.828
1573889501.934,40.039,27.344,152.832,46.387,122.070
1573889501.938,37.109,31.738,115.723,38.086,104.980
1573889501.942,20.508,27.832,-279.297,15.625,-54.199
1573889501.946,23.438,21.973,-413.086,24.414,-71.777
1573889501.950,33.691,25.391,271.484,44.434,128.906
1573889501.954,33.691,25.879,407.715,37.598,173.340
1573889501.958,21.484,22.949,-163.574,16.602,-5.859
1573889501.962,15.137,19.531,-182.129,16.113,-70.801
1573889501.965,27.344,21.973,346.191,37.598,74.707
1573889501.969,33.203,24.414,427.734,37.598,171.875
1573889501.973,19.531,22.461,-100.586,9.766,32.227
1573889501.977,10.742,19.043,-365.234,1.465,-95.215
1573889501.981,21.973,19.043,15.625,25.391,16.602
1573889501.985,34.180,26.367,228.516,40.527,143.555
1573889501.989,29.785,31.250,-377.441,20.996,32.227
1573889501.993,11.719,26.855,-608.398,-3.418,-101.562
1573889501.997,16.113,27.344,91.797,15.625,-34.180
1573889502.001,38.086,28.320,466.309,40.039,133.301
1573889502.005,38.574,26.855,202.637,28.320,125.977
1573889502.008,23.438,25.391,-103.516,12.207,-61.035
1573889502.012,29.785,30.762,115.723,26.855,-83.984
1573889502.016,52.734,41.992,447.266,52.734,85.449
1573889502.020,54.199,42.480,342.285,46.387,138.672
1573889502.024,45.410,38.086,-107.910,27.832,-35.156
1573889502.028,38.086,30.762,-147.461,25.391,-113.770
1573889502.032,45.898,24.414,235.840,41.992,22.461
1573889502.036,54.688,25.391,143.066,39.551,131.348
1573889502.040,41.992,26.855,14.160,16.113,37.109
1573889502.044,32.227,29.297,73.730,12.695,-101.562
1573889502.048,40.527,31.738,305.664,31.250,-31.738
1573889502.051,52.246,37.109,625.977,41.016,134.766
1573889502.055,48.828,43.945,532.715,30.762,104.980
1573889502.059,33.203,34.180,248.535,14.160,-65.430
1573889502.063,25.391,18.555,402.832,15.625,-30.273
1573889502.067,35.156,19.531,748.535,34.668,141.113
1573889502.071,36.621,21.973,485.352,23.926,137.207
1573889502.075,17.090,22.949,49.805,-5.371,-28.809
1573889502.079,13.672,26.855,-131.348,0.488,-113.770
1573889502.083,26.855,35.156,146.484,24.414,29.297
1573889502.087,33.691,35.156,577.148,27.344,147.949
1573889502.090,21.484,22.949,236.816,3.418,15.625
1573889502.094,8.301,17.578,-59.082,-1.465,-122.559
1573889502.098,17.090,24.902,448.242,24.902,25.879
1573889502.102,30.762,35.156,771.973,40.527,177.246
1573889502.106,26.367,34.180,308.105,22.949,68.359
1573889502.110,20.996,38.086,4.883,12.695,-75.195
1573889502.114,31.738,35.645,351.074,37.109,-24.414
1573889502.118,46.387,21.973,520.508,56.641,124.023
1573889502.122,47.363,21.484,-6.348,42.480,70.801
1573889502.126,30.762,30.273,-532.227,18.555,-102.539
1573889502.130,25.879,35.156,-70.312,24.414,-68.359
1573889502.133,44.434,38.574,614.258,46.387,127.930
1573889502.137,48.828,35.156,392.578,42.969,140.625
1573889502.141,34.668,31.250,-115.234,19.531,-44.922
1573889502.145,27.832,35.156,19.531,19.043,-101.562
1573889502.149,41.016,36.621,337.402,42.480,45.898
1573889502.153,49.805,30.273,261.230,42.480,153.320
1573889502.157,34.180,24.902,-69.824,20.020,19.043
1573889502.161,23.438,26.367,-118.164,17.090,-111.816
1573889502.165,39.551,27.832,92.773,38.086,-9.277
1573889502.169,50.293,33.691,155.762,45.898,128.418
1573889502.173,35.156,39.062,20.996,23.438,75.684
1573889502.176,19.043,29.785,-81.055,8.301,-56.641
1573889502.180,27.344,24.902,195.801,31.738,-15.137
1573889502.184,42.480,22.461,153.809,43.945,133.789
1573889502.188,34.180,22.949,-227.051,23.926,76.660
1573889502.192,20.020,29.785,-278.809,9.766,-86.914
1573889502.196,25.391,28.809,-127.930,22.461,-92.285
1573889502.200,37.598,22.949,118.164,42.969,53.223
1573889502.204,40.039,23.438,132.812,36.133,105.469
1573889502.208,29.297,29.297,-301.270,15.137,-58.105
1573889502.212,30.273,31.250,-477.539,19.531,-122.070
1573889502.215,44.922,29.785,-95.215,42.480,21.973
1573889502.219,53.223,29.785,123.047,46.387,105.469
1573889502.223,44.434,32.227,-102.051,27.832,5.859
1573889502.227,30.273,27.344,-426.758,14.648,-128.906
1573889502.231,33.691,23.926,-402.832,31.250,-66.406
1573889502.235,41.504,25.391,154.297,44.434,140.625
1573889502.239,36.621,28.320,156.250,29.785,108.398
1573889502.243,23.926,31.738,-262.695,14.648,-78.613
1573889502.247,24.414,39.062,-33.203,27.344,-41.992
1573889502.251,34.180,42.480,490.234,43.945,145.996
1573889502.255,30.273,37.109,251.465,32.227,136.230
1573889502.258,15.137,30.762,-412.109,6.348,-69.824
1573889502.262,12.695,25.879,-363.770,7.324,-95.215
1573889502.266,21.484,23.926,198.242,25.879,82.031
1573889502.270,19.531,27.832,279.297,19.043,117.188
1573889502.274,9.277,27.344,-409.668,-5.859,-39.062
1573889502.278,3.906,26.855,-492.188,-4.395,-114.258
1573889502.282,17.090,34.668,279.785,19.531,19.531
1573889502.286,26.367,34.668,483.887,22.949,169.434
1573889502.290,21.484,33.691,28.809,10.254,52.246
1573889502.294,13.184,38.086,-115.234,3.418,-108.887
1573889502.298,16.113,29.785,349.121,18.555,5.371
1573889502.301,34.180,25.879,528.320,37.598,157.715
1573889502.305,40.527,31.250,39.062,25.879,82.031
1573889502.309,34.668,37.109,-362.793,14.648,-87.891
1573889502.313,45.410,47.363,3.418,38.086,-49.805
1573889502.317,54.688,41.504,409.668,50.293,134.766
1573889502.321,40.039,26.855,-139.648,23.926,115.723
1573889502.325,25.879,24.902,-459.961,8.301,-70.801
1573889502.329,29.297,24.902,-64.941,20.020,-115.723
1573889502.333,41.992,23.438,306.152,41.016,55.176
1573889502.337,47.852,28.320,307.129,42.969,143.066
1573889502.340,34.180,28.320,30.762,22.461,16.602
1573889502.344,21.484,26.367,-8.789,14.160,-74.219
1573889502.348,41.016,24.902,265.625,38.086,27.344
1573889502.352,50.781,24.414,328.613,45.410,167.480
1573889502.356,28.809,25.391,-122.070,14.648,65.430
1573889502.360,9.277,24.902,-328.125,-1.465,-94.727
1573889502.364,19.531,25.391,-212.402,20.996,-44.922
1573889502.368,30.273,25.391,65.430,32.715,129.883
1573889502.372,21.973,29.297,209.961,14.160,113.770
1573889502.376,9.766,30.762,-171.875,-1.465,-55.176
1573889502.380,7.812,28.809,-104.004,13.672,-53.223
1573889502.383,19.531,34.668,419.922,32.715,118.164
1573889502.387,20.020,37.598,431.641,22.949,167.969
1573889502.391,6.836,30.273,-132.812,0.977,-21.484
1573889502.395,2.441,23.438,-212.891,3.906,-98.633
1573889502.399,17.090,21.484,146.484,28.809,61.523
1573889502.403,28.320,21.973,241.699,28.320,185.547
1573889502.407,20.020,25.391,-144.531,7.812,52.246
1573889502.411,12.695,25.879,-371.094,2.441,-93.750
1573889502.415,23.438,29.297,110.840,23.438,6.836
1573889502.419,32.715,34.180,439.941,32.227,157.715
1573889502.423,18.555,26.367,-122.559,9.766,73.242
1573889502.426,3.418,21.973,-669.922,-7.812,-80.566
1573889502.430,14.648,35.645,-104.004,6.348,-22.461
1573889502.434,25.879,37.598,284.668,23.438,129.395
1573889502.438,21.973,33.203,-37.598,12.695,108.398
1573889502.442,7.812,30.273,-327.637,-8.789,-64.453
1573889502.446,3.906,32.227,-248.047,0.488,-95.215
1573889502.450,22.949,42.969,97.168,21.973,87.402
1573889502.454,24.414,40.527,59.082,13.672,138.184
1573889502.458,7.324,34.668,-245.605,-8.301,-7.812
1573889502.462,2.930,34.180,-89.844,-11.719,-75.195
1573889502.465,16.602,37.109,294.434,9.277,65.430
1573889502.469,22.461,33.691,31.250,13.184,159.668
1573889502.473,3.906,29.785,-389.160,-10.254,24.414
1573889502.477,-3.418,41.016,-243.164,-11.230,-110.840
1573889502.481,7.812,37.109,56.641,10.254,-21.484
1573889502.485,20.996,28.809,279.785,26.367,151.367
1573889502.489,15.137,34.668,26.855,14.160,85.449
1573889502.493,1.953,37.598,-352.539,-2.441,-80.078
1573889502.497,16.113,41.504,-230.469,15.137,-42.969
1573889502.501,36.133,35.645,-134.277,36.621,83.008
1573889502.505,33.203,39.062,-60.059,28.320,104.004
1573889502.508,14.160,42.480,-47.363,10.254,3.418
1573889502.512,14.160,38.086,-21.973,15.625,-45.410
1573889502.516,38.574,41.992,304.688,42.480,87.402
1573889502.520,41.016,41.992,431.641,37.598,175.293
1573889502.524,21.484,40.039,62.988,3.906,38.574
1573889502.528,12.207,36.621,-124.512,-6.348,-75.195
1573889502.532,27.344,37.598,233.398,13.184,41.504
1573889502.536,40.039,38.086,478.516,20.996,181.152
1573889502.540,22.461,33.203,-0.488,-6.836,64.453
1573889502.544,7.812,35.645,-621.582,-20.996,-107.422
1573889502.548,15.137,35.156,-441.895,4.883,-43.457
1573889502.551,27.344,41.504,257.812,28.320,145.508
1573889502.555,26.367,42.480,194.336,20.508,115.723
1573889502.559,14.160,34.668,-300.293,3.418,-95.703
1573889502.563,14.160,32.715,-45.410,18.066,-81.055
1573889502.567,27.344,30.273,480.469,43.945,117.676
1573889502.571,33.691,33.691,260.742,38.574,131.348
1573889502.575,24.902,37.109,-267.090,18.066,-40.527
1573889502.579,21.484,44.922,-123.047,21.973,-81.543
1573889502.583,41.504,49.805,462.891,48.340,107.422
1573889502.587,55.176,40.039,249.023,52.246,159.668
1573889502.590,38.574,31.738,-556.152,21.484,-4.395
1573889502.594,28.809,31.250,-424.805,14.648,-90.820
1573889502.598,39.551,31.738,315.918,40.527,47.852
1573889502.602,46.387,30.762,401.367,47.363,169.922
1573889502.606,31.738,29.785,-117.188,24.414,40.039
1573889502.610,16.113,31.250,-191.895,11.719,-91.309
1573889502.614,26.855,31.250,208.984,30.273,-28.809
1573889502.618,37.109,27.344,380.859,39.551,117.676
1573889502.622,28.809,26.855,123.535,18.066,98.633
1573889502.626,15.625,30.273,-132.812,-0.488,-72.754
1573889502.630,11.719,25.879,50.781,7.324,-85.938
1573889502.633,21.973,21.973,336.914,28.320,94.727
1573889502.637,20.508,17.090,154.297,20.020,149.414
1573889502.641,4.395,13.672,-199.219,-5.859,-42.969
1573889502.645,1.953,22.461,-59.082,0.977,-122.070
1573889502.649,12.695,20.020,120.117,16.602,45.898
1573889502.653,16.602,12.695,102.539,13.184,133.301
1573889502.657,6.836,12.695,109.375,-6.348,29.785
1573889502.661,0.977,15.625,-108.398,-9.766,-105.469
1573889502.665,12.695,20.020,131.836,12.695,-28.320
1573889502.669,27.344,28.320,574.707,27.344,140.137
1573889502.673,19.531,27.832,345.703,14.160,53.223
1573889502.676,11.230,20.996,-0.977,3.418,-99.609
1573889502.680,23.926,25.391,149.414,22.461,-35.645
1573889502.684,38.086,22.949,496.582,43.457,129.395
1573889502.688,37.109,15.137,504.395,31.250,120.117
1573889502.692,28.320,19.531,92.285,14.160,-23.926
1573889502.696,34.668,32.227,-93.262,26.855,-75.195
1573889502.700,47.852,30.273,426.758,44.922,47.363
1573889502.704,49.805,18.555,623.047,41.992,127.930
1573889502.708,33.203,16.602,161.133,13.184,-5.859
1573889502.712,23.926,17.578,141.602,8.301,-79.102
1573889502.715,41.992,24.902,555.664,37.109,48.828
1573889502.719,50.781,30.273,596.680,43.457,145.020
1573889502.723,39.062,28.809,213.379,19.043,42.969
1573889502.727,26.855,31.250,-135.254,6.836,-108.398
1573889502.731,35.156,34.180,143.555,27.344,-20.020
1573889502.735,45.898,32.715,493.164,37.109,145.508
1573889502.739,33.203,34.180,-15.625,7.812,76.660
1573889502.743,17.090,37.598,-422.852,-13.184,-100.586
1573889502.747,17.090,37.598,171.387,2.930,-69.336
1573889502.751,34.180,33.203,559.082,29.785,115.234
1573889502.755,34.668,30.762,304.199,20.508,126.953
1573889502.758,22.461,27.832,-32.227,1.465,-57.129
1573889502.762,22.949,31.250,98.633,15.625,-104.492
1573889502.766,37.109,41.504,397.461,39.062,59.570
1573889502.770,42.480,38.086,373.047,40.527,163.574
1573889502.774,29.785,29.297,-99.609,23.926,-3.418
1573889502.778,30.762,28.320,-343.750,28.320,-140.625
1573889502.782,51.758,29.297,-33.691,59.082,12.695
1573889502.786,54.688,38.086,-68.848,56.641,124.023
1573889502.790,30.273,42.480,-169.434,17.090,38.086
1573889502.794,20.508,36.133,-69.824,8.301,-78.125
1573889502.798,36.133,35.156,168.457,37.598,-22.461
1573889502.801,54.199,37.109,393.066,54.199,129.395
1573889502.805,48.340,32.227,200.195,38.574,81.055
1573889502.809,27.344,27.832,-157.715,18.066,-86.426
1573889502.813,17.090,27.344,-18.066,19.043,-53.223
1573889502.817,27.832,28.320,358.398,34.668,121.582
1573889502.821,37.109,24.902,99.609,34.668,125.000
1573889502.825,28.809,22.949,-399.902,15.625,-54.199
1573889502.829,26.367,19.531,-546.387,12.695,-102.051
1573889502.833,33.691,14.648,-199.707,35.156,61.035
1573889502.837,35.156,17.578,236.816,35.156,161.621
1573889502.840,27.832,21.973,-139.160,10.742,15.137
1573889502.844,20.508,15.625,-363.770,2.441,-90.332
1573889502.848,22.461,12.207,87.891,16.602,20.020
1573889502.852,31.250,22.461,384.766,26.855,156.738
1573889502.856,30.273,23.438,-10.254,14.648,73.242
1573889502.860,20.996,17.578,-359.863,5.859,-90.332
1573889502.864,27.832,19.043,37.109,26.367,-28.320
1573889502.868,40.527,18.555,306.152,44.434,137.695
1573889502.872,35.156,18.066,-109.375,27.344,109.863
1573889502.876,21.973,17.090,-734.863,7.812,-87.891
1573889502.880,26.367,14.648,-373.535,22.949,-91.309
1573889502.883,41.504,21.484,332.520,48.828,95.703
1573889502.887,41.992,22.949,138.672,41.992,136.230
1573889502.891,26.367,9.766,-219.727,14.160,-20.020
1573889502.895,20.508,9.277,-78.613,16.113,-99.121
1573889502.899,36.133,19.043,384.766,43.945,52.246
1573889502.903,41.016,24.902,375.000,43.945,143.555
1573889502.907,29.297,24.414,-69.824,19.531,-1.953
1573889502.911,21.973,20.508,-135.742,17.090,-122.559
1573889502.915,32.227,19.043,199.707,36.133,3.418
1573889502.919,47.363,20.508,24.902,46.387,110.840
1573889502.923,41.504,20.996,-386.719,26.367,16.113
1573889502.926,24.414,20.020,-179.688,7.324,-82.520
1573889502.930,27.832,19.531,110.840,24.902,-73.242
1573889502.934,38.086,19.531,339.355,41.016,103.027
1573889502.938,33.691,26.855,296.875,26.367,128.906
1573889502.942,24.414,29.297,-83.008,8.789,-63.965
1573889502.946,23.438,28.320,-174.805,16.602,-105.957
1573889502.950,34.668,25.879,219.727,36.621,64.941
1573889502.954,37.109,20.996,393.555,35.156,153.809
1573889502.958,20.996,20.020,105.957,11.230,17.578
1573889502.962,20.508,27.832,-142.578,12.695,-78.125
1573889502.965,35.645,32.715,11.230,40.039,22.461
1573889502.969,42.480,23.926,325.684,41.504,140.137
1573889502.973,37.109,21.973,125.977,24.902,34.180
1573889502.977,28.809,23.438,-290.039,18.555,-123.047
1573889502.981,35.645,25.391,-208.008,35.645,-25.879
1573889502.985,44.922,27.832,318.359,48.828,148.438
1573889502.989,37.598,27.344,210.449,30.273,80.566
1573889502.993,21.973,31.250,-166.016,10.254,-73.242
1573889502.997,24.414,27.344,-42.969,21.484,-66.406
1573889503.001,36.621,20.996,299.316,39.551,92.285
1573889503.005,28.809,23.926,257.812,28.320,124.512
1573889503.008,12.695,22.949,-171.387,5.371,-19.531
1573889503.012,16.113,26.855,-243.652,5.371,-74.707
1573889503.016,32.227,34.668,277.344,28.809,83.496
1573889503.020,32.227,34.180,465.820,23.438,174.316
1573889503.024,17.090,27.832,-383.301,-1.953,-27.344
1573889503.028,9.277,24.902,-697.266,-4.395,-153.809
1573889503.032,21.484,24.414,165.527,25.391,26.367
1573889503.036,29.785,21.973,400.879,35.645,164.551
1573889503.040,15.625,20.508,-64.941,11.719,54.688
1573889503.044,6.836,20.020,-180.664,4.883,-77.148
1573889503.048,18.555,19.531,242.676,19.043,3.906
1573889503.051,37.598,29.297,459.961,39.551,162.109
1573889503.055,38.086,35.156,-23.438,29.297,92.285
1573889503.059,21.973,21.484,-519.531,7.324,-109.863
1573889503.063,26.855,23.926,-260.742,25.391,-83.984
1573889503.067,42.969,31.738,113.770,49.316,96.191
1573889503.071,41.016,21.973,-233.887,32.715,92.285
1573889503.075,26.367,23.926,-400.879,10.742,-42.969
1573889503.079,27.832,28.320,-83.984,27.344,-83.496
1573889503.083,42.969,25.391,208.496,50.781,40.039
1573889503.087,47.363,23.926,236.816,54.199,133.301
1573889503.090,39.551,22.949,-47.363,38.086,6.836
1573889503.094,23.926,18.555,-213.379,26.367,-131.348
1573889503.098,19.043,11.719,81.055,40.527,-10.742
1573889503.102,26.367,16.602,199.707,47.363,146.484
1573889503.106,18.555,25.391,-176.758,30.273,55.664
1573889503.110,6.348,27.832,-417.969,13.672,-77.148
1573889503.114,12.207,37.598,-178.223,26.855,-37.109
1573889503.118,25.391,34.668,316.406,40.527,150.879
1573889503.122,16.602,20.020,312.988,18.066,155.273
1573889503.126,-3.906,20.020,-132.812,-7.324,-52.246
1573889503.130,-2.930,19.531,-434.570,1.953,-107.910
1573889503.133,7.324,15.137,-36.133,21.973,85.449
1573889503.137,7.812,17.090,271.973,17.578,147.949
1573889503.141,-4.395,17.090,-246.094,0.000,-48.828
1573889503.145,-8.301,10.254,-313.965,2.930,-108.887
1573889503.149,16.113,17.578,183.594,34.180,69.336
1573889503.153,32.227,21.484,193.848,41.992,150.879
1573889503.157,17.578,12.207,-313.965,14.648,14.160
1573889503.161,5.859,11.230,-403.320,8.301,-101.562
1573889503.165,18.066,19.531,171.875,31.738,-0.977
1573889503.169,32.715,31.250,508.789,43.457,170.898
1573889503.173,26.855,30.273,-40.527,26.367,109.863
1573889503.176,17.090,26.855,-567.871,10.254,-64.941
1573889503.180,20.508,22.461,-62.012,26.367,-54.199
1573889503.184,37.598,16.113,444.336,47.852,113.281
1573889503.188,35.156,17.090,110.352,30.273,98.145
1573889503.192,19.043,17.090,-263.184,7.324,-57.617
1573889503.196,24.414,27.344,-167.480,20.020,-68.848
1573889503.200,37.598,33.691,194.824,36.621,76.660
1573889503.204,42.480,23.438,-112.793,33.203,91.309
1573889503.208,26.855,20.508,-712.402,9.277,-83.496
1573889503.212,16.113,28.809,-395.508,9.766,-169.922
1573889503.215,30.762,34.180,117.188,38.574,-22.461
1573889503.219,39.551,32.715,251.465,41.992,147.949
1573889503.223,28.809,32.227,-43.457,22.461,56.152
1573889503.227,15.137,30.762,-167.969,11.719,-83.008
1573889503.231,21.973,25.879,197.754,24.902,6.836
1573889503.235,34.180,26.367,385.254,36.621,144.043
1573889503.239,28.320,21.973,170.410,18.555,85.449
1573889503.243,14.648,17.090,-178.223,3.906,-66.895
1573889503.247,21.484,24.902,-169.922,25.391,-51.270
1573889503.251,40.039,37.598,10.254,46.387,101.074
1573889503.255,39.062,34.668,94.727,36.621,120.605
1573889503.258,21.973,28.320,-46.387,20.508,-46.875
1573889503.262,20.020,27.344,-74.219,25.391,-107.910
1573889503.266,34.668,22.949,329.590,44.434,55.664
1573889503.270,39.062,20.508,520.020,40.527,158.691
1573889503.274,25.391,20.020,197.754,20.020,25.879
1573889503.278,16.113,23.438,16.113,17.090,-84.961
1573889503.282,24.414,22.461,341.797,35.156,48.340
1573889503.286,41.504,20.508,598.145,49.316,169.434
1573889503.290,34.668,22.949,265.137,31.738,80.078
1573889503.294,22.949,19.043,-308.594,16.113,-91.797
1573889503.298,29.297,6.836,-77.148,28.320,-42.480
1573889503.301,37.598,4.883,656.250,41.016,157.227
1573889503.305,35.645,11.719,466.797,26.855,89.355
1573889503.309,18.066,9.277,-63.477,7.812,-102.539
1573889503.313,18.555,11.719,211.914,20.020,-70.312
1573889503.317,39.551,19.531,849.121,43.457,142.090
1573889503.321,41.504,24.414,648.438,39.551,147.461
1573889503.325,26.855,21.484,112.305,19.531,-30.762
1573889503.329,21.973,13.672,265.137,23.926,-65.430
1573889503.333,33.203,16.113,725.586,44.434,74.707
1573889503.337,39.551,19.043,553.223,42.480,158.691
1573889503.340,32.227,19.531,-242.188,21.973,-1.465
1573889503.344,23.438,24.414,-209.961,16.602,-116.699
1573889503.348,30.762,25.391,516.113,33.203,25.879
1573889503.352,44.922,24.414,666.016,44.922,172.363
1573889503.356,41.016,19.043,222.656,28.320,56.641
1573889503.360,30.273,22.461,49.805,17.578,-92.285
1573889503.364,31.250,27.344,357.910,35.645,-37.109
1573889503.368,41.504,23.438,542.480,48.340,112.305
1573889503.372,39.551,20.508,369.629,38.086,143.066
1573889503.376,25.391,22.949,71.289,20.508,-30.273
1573889503.380,26.855,26.367,104.492,31.738,-98.633
1573889503.383,38.086,35.645,381.348,53.711,90.820
1573889503.387,37.598,31.250,209.961,41.016,152.344
1573889503.391,21.973,14.160,-160.156,12.695,-27.832
1573889503.395,20.508,15.137,-148.926,19.531,-99.121
1573889503.399,37.109,21.484,-61.035,45.410,40.039
1573889503.403,39.062,23.926,19.531,44.434,147.461
1573889503.407,30.273,29.297,14.648,27.344,41.016
1573889503.411,21.973,31.250,-152.344,18.555,-89.355
1573889503.415,24.414,23.926,152.344,36.133,28.320
1573889503.419,33.691,13.672,486.816,52.246,178.223
1573889503.423,27.832,14.648,190.430,32.715,78.613
1573889503.426,22.461,21.973,-244.629,18.066,-88.379
1573889503.430,32.227,30.762,-158.691,38.574,-39.551
1573889503.434,46.387,35.156,139.648,57.617,116.699
1573889503.438,46.387,29.785,129.395,43.945,125.000
1573889503.442,29.297,23.438,-276.855,20.508,-19.043
1573889503.446,31.250,24.902,-453.125,24.414,-58.594
1573889503.450,46.387,25.879,20.508,47.852,76.172
1573889503.454,47.852,21.484,78.613,41.016,125.000
1573889503.458,34.180,20.508,-347.168,16.602,-21.973
1573889503.462,22.949,20.020,-352.051,10.742,-104.980
1573889503.465,35.645,27.344,158.203,31.250,28.320
1573889503.469,44.922,31.738,311.035,33.691,145.996
1573889503.473,25.391,29.297,-194.824,6.348,9.277
1573889503.477,15.625,28.320,-502.930,5.371,-111.328
1573889503.481,23.926,21.484,-159.668,22.949,-6.348
1573889503.485,31.250,21.973,119.141,31.738,105.957
1573889503.489,27.344,23.926,-340.820,18.066,55.176
1573889503.493,13.184,20.508,-664.551,6.348,-82.520
1573889503.497,20.020,26.367,-52.246,26.855,-58.105
1573889503.501,34.180,30.273,391.113,49.805,116.699
1573889503.505,30.273,29.297,183.105,35.645,133.301
1573889503.508,21.484,32.227,-243.164,17.090,-42.480
1573889503.512,24.414,31.250,-45.410,27.832,-60.059
1573889503.516,36.621,28.809,364.746,51.270,77.637
1573889503.520,41.016,27.344,246.582,49.805,142.578
1573889503.524,33.691,25.391,-157.715,29.297,31.738
1573889503.528,24.902,23.438,-273.926,27.344,-104.004
1573889503.532,29.297,21.973,104.004,41.504,14.648
1573889503.536,43.945,25.879,16.113,48.828,129.883
1573889503.540,36.621,28.809,-204.590,28.809,31.738
1573889503.544,24.414,26.855,-104.492,14.160,-93.262
1573889503.548,34.668,22.461,138.672,36.621,-34.668
1573889503.551,46.387,18.066,423.828,52.246,133.789
1573889503.555,38.574,15.137,298.828,34.180,106.934
1573889503.559,21.973,16.602,-12.207,11.230,-60.059
1573889503.563,22.949,25.879,-18.555,15.137,-91.309
1573889503.567,35.156,32.715,251.465,36.621,75.195
1573889503.571,29.297,18.066,241.211,24.414,154.785
1573889503.575,15.625,10.742,-179.688,-2.930,-8.789
1573889503.579,11.719,15.625,-469.727,-6.348,-126.465
1573889503.583,17.578,14.648,-129.883,10.254,31.738
1573889503.587,25.391,16.602,338.379,18.066,150.391
1573889503.590,17.578,17.090,15.625,-2.441,6.348
1573889503.594,12.207,22.949,-257.812,-3.418,-132.812
1573889503.598,28.809,25.879,200.684,22.949,-10.742
1573889503.602,47.363,23.926,595.703,40.039,176.270
1573889503.606,37.598,19.043,167.480,21.973,83.984
1573889503.610,26.367,23.438,-226.562,9.277,-90.332
1573889503.614,33.203,21.484,114.746,31.250,-46.875
1573889503.618,44.922,16.602,376.465,49.316,125.488
1573889503.622,44.922,24.414,-25.391,41.992,113.281
1573889503.626,30.762,21.484,-580.078,22.949,-54.688
1573889503.630,31.738,17.578,-215.332,31.738,-60.547
1573889503.633,43.457,17.578,481.445,55.176,109.863
1573889503.637,45.898,17.578,295.410,49.316,140.625
1573889503.641,31.738,24.414,-181.641,23.438,-16.602
1573889503.645,25.391,31.738,-52.246,20.020,-82.520
1573889503.649,41.504,28.809,338.379,39.062,37.109
1573889503.653,48.828,17.578,314.941,39.062,143.555
1573889503.657,32.227,7.812,-156.250,11.230,11.719
1573889503.661,16.602,7.812,-280.762,-0.977,-125.000
1573889503.665,26.367,16.113,3.906,20.996,-11.230
1573889503.669,38.086,21.973,16.113,34.180,129.883
1573889503.673,26.367,24.902,-239.258,8.301,42.480
1573889503.676,8.789,23.438,-394.531,-10.254,-103.027
1573889503.680,16.113,17.578,-134.277,11.230,-53.711
1573889503.684,32.227,15.625,-16.602,25.879,103.516
1573889503.688,29.297,16.602,-229.004,14.648,103.027
1573889503.692,18.066,17.090,-250.977,1.953,-56.152
1573889503.696,20.020,21.484,-156.738,11.719,-100.098
1573889503.700,40.039,30.762,229.980,41.016,91.309
1573889503.704,50.293,32.227,364.746,43.945,174.805
1573889503.708,40.527,32.227,25.879,19.531,28.809
1573889503.712,42.480,32.227,-253.906,26.855,-68.359
1573889503.715,55.176,22.461,-59.570,52.246,21.973
1573889503.719,56.152,19.531,288.574,53.711,159.180
1573889503.723,41.504,22.949,4.395,31.738,31.250
1573889503.727,29.785,27.832,-439.941,22.949,-143.555
1573889503.731,33.691,29.297,-341.309,39.551,-35.645
1573889503.735,42.480,28.809,160.645,49.805,171.387
1573889503.739,36.133,28.320,139.648,25.879,124.023
1573889503.743,20.020,28.320,-227.539,2.930,-61.523
1573889503.747,26.367,21.973,-99.609,20.508,-72.266
1573889503.751,45.898,18.066,308.105,38.574,79.590
1573889503.755,45.410,25.391,223.145,27.344,116.699
1573889503.758,32.715,30.273,-259.766,8.301,-18.555
1573889503.762,27.344,25.879,-364.746,7.812,-91.797
1573889503.766,35.645,18.555,184.082,20.996,64.941
1573889503.770,43.457,19.531,349.121,23.438,155.273
1573889503.774,32.227,20.508,-306.152,7.324,4.883
1573889503.778,22.949,19.043,-375.488,3.906,-75.684
1573889503.782,29.785,20.996,270.996,22.949,39.062
1573889503.786,41.992,24.902,393.066,39.551,149.902
1573889503.790,34.180,19.531,-202.148,23.438,51.270
1573889503.794,17.090,11.230,-438.477,6.348,-91.797
1573889503.798,25.391,13.184,119.629,30.762,-19.043
1573889503.801,42.480,19.043,427.246,50.781,140.625
1573889503.805,40.527,24.902,-6.836,37.598,93.262
1573889503.809,27.832,24.902,-412.598,20.020,-69.336
1573889503.813,28.320,23.438,-96.680,32.715,-76.660
1573889503.817,45.410,17.578,237.793,57.617,86.914
1573889503.821,42.969,15.625,46.387,44.922,137.695
1573889503.825,23.438,26.367,-175.781,21.484,-18.555
1573889503.829,20.508,30.762,-44.922,27.344,-91.797
1573889503.833,36.621,24.902,120.605,47.363,26.855
1573889503.837,43.945,24.414,-143.066,43.945,94.727
1573889503.840,26.367,26.367,-220.703,17.578,19.043
1573889503.844,20.996,30.273,-72.754,15.137,-60.059
1573889503.848,36.133,29.297,178.711,38.086,20.020
1573889503.852,39.062,20.996,267.578,38.574,155.762
1573889503.856,30.273,15.137,-61.035,20.508,86.914
1573889503.860,19.531,13.672,-241.211,5.859,-61.523
1573889503.864,24.902,13.184,-218.262,14.648,-56.641
1573889503.868,39.062,18.555,-27.832,33.691,85.938
1573889503.872,40.039,30.273,244.629,27.344,125.000
1573889503.876,31.250,34.180,-92.285,12.695,-81.055
1573889503.880,29.297,31.250,-153.809,20.020,-147.949
1573889503.883,35.156,25.879,420.898,38.086,72.754
1573889503.887,44.922,31.250,561.035,38.574,152.832
1573889503.891,33.691,32.227,72.754,15.625,-18.066
1573889503.895,23.926,24.414,11.719,13.184,-96.191
1573889503.899,40.039,18.555,370.117,38.574,38.574
1573889503.903,45.410,20.508,436.035,39.551,161.621
1573889503.907,38.086,32.227,-3.418,19.531,36.133
1573889503.911,33.691,35.645,-346.191,15.137,-112.793
1573889503.915,40.039,24.902,221.680,37.109,-25.879
1573889503.919,49.316,20.996,784.180,53.711,153.809
1573889503.923,48.340,21.973,462.891,41.992,106.934
1573889503.926,37.109,21.484,102.539,30.273,-76.660
1573889503.930,39.551,28.320,443.359,42.969,-52.246
1573889503.934,56.152,32.227,805.176,59.570,113.281
1573889503.938,48.828,33.203,568.359,41.992,128.906
1573889503.942,32.715,34.180,180.176,22.461,-8.301
1573889503.946,26.367,22.949,209.961,28.320,-56.641
1573889503.950,36.133,20.508,541.992,45.410,85.938
1573889503.954,44.922,22.949,265.137,44.434,137.207
1573889503.958,25.391,18.066,-205.566,14.648,-12.207
1573889503.962,20.996,24.902,33.203,19.043,-90.820
1573889503.965,36.621,32.715,529.297,48.340,47.363
1573889503.969,39.551,25.879,587.402,48.340,145.996
1573889503.973,32.227,25.879,223.633,27.344,30.762
1573889503.977,25.391,28.809,173.828,18.555,-70.312
1573889503.981,30.273,22.461,373.047,34.668,-14.648
1573889503.985,40.039,21.484,496.582,48.340,129.883
1573889503.989,35.156,29.785,364.746,35.645,112.793
1573889503.993,21.484,33.203,-29.785,19.531,-60.059
1573889503.997,25.391,24.414,-87.402,27.344,-77.637
1573889504.001,38.574,20.996,56.641,45.898,74.219
1573889504.005,35.156,28.320,102.051,38.086,101.562
1573889504.008,25.879,27.344,-62.500,15.137,-66.895
1573889504.012,26.855,25.879,-70.312,20.508,-115.723
1573889504.016,40.039,34.668,228.027,43.457,43.457
1573889504.020,41.992,38.574,263.672,42.480,132.324
1573889504.024,27.832,26.855,-14.648,17.090,13.672
1573889504.028,20.996,24.902,-121.582,14.648,-83.496
1573889504.032,34.668,34.668,199.707,36.621,14.648
1573889504.036,47.363,37.598,413.086,44.922,141.602
1573889504.040,39.551,36.133,0.488,32.715,59.082
1573889504.044,22.949,36.133,-561.523,19.531,-92.773
1573889504.048,23.926,33.203,-323.730,31.738,-34.180
1573889504.051,31.738,29.785,320.801,42.969,130.859
1573889504.055,29.785,31.250,167.480,29.297,111.816
1573889504.059,23.438,32.227,-320.801,10.742,-76.660
1573889504.063,27.832,33.691,-82.031,21.973,-69.336
1573889504.067,47.363,32.715,506.836,52.246,138.184
1573889504.071,49.805,34.668,289.062,46.387,142.090
1573889504.075,30.273,40.039,-315.430,17.090,-44.434
1573889504.079,26.855,33.203,-201.660,23.926,-94.238
1573889504.083,39.062,26.855,365.234,50.781,86.426
1573889504.087,46.875,30.762,243.164,53.223,174.316
1573889504.090,38.086,33.691,-334.961,29.785,24.414
1573889504.094,28.320,36.621,-370.605,23.438,-107.422
1573889504.098,36.621,39.062,107.910,41.016,-9.277
1573889504.102,41.504,36.133,187.012,40.527,138.184
1573889504.106,33.203,29.785,-473.145,18.066,34.180
1573889504.110,19.043,33.203,-605.469,0.000,-133.789
1573889504.114,20.508,34.668,-44.922,16.602,-61.523
1573889504.118,33.203,30.273,224.121,33.691,105.957
1573889504.122,29.785,34.668,22.949,16.602,114.258
1573889504.126,15.625,37.598,-173.340,-7.812,-37.598
1573889504.130,11.230,33.203,-208.008,-5.859,-123.047
1573889504.133,20.508,32.227,-28.809,16.602,41.504
1573889504.137,22.949,27.344,-48.340,13.672,129.395
1573889504.141,4.883,26.367,-260.742,-10.254,-13.672
1573889504.145,3.418,33.691,-74.707,-3.906,-81.543
1573889504.149,18.555,32.715,13.672,21.973,23.438
1573889504.153,22.949,28.809,-73.242,25.879,135.742
1573889504.157,12.207,29.297,-81.055,8.789,37.598
1573889504.161,4.883,29.785,-143.555,8.301,-100.098
1573889504.165,18.066,27.832,45.898,32.715,-24.902
1573889504.169,27.832,31.250,383.301,43.457,134.766
1573889504.173,28.320,30.762,304.199,30.762,103.516
1573889504.176,20.508,25.391,-128.906,11.719,-88.867
1573889504.180,24.414,30.273,-69.824,24.414,-68.848
1573889504.184,42.969,28.809,218.750,52.246,104.004
1573889504.188,36.621,29.297,103.516,34.180,108.887
1573889504.192,14.648,31.250,-263.184,-2.930,-50.781
1573889504.196,10.742,27.832,-372.559,-5.371,-94.727
1573889504.200,29.297,34.668,186.523,22.461,51.758
1573889504.204,41.992,32.227,409.180,23.926,126.465
1573889504.208,25.391,32.715,-85.449,-4.883,-24.414
1573889504.212,14.648,41.992,-147.949,-6.348,-103.027
1573889504.215,26.367,34.180,445.312,20.508,62.500
1573889504.219,32.715,28.320,609.863,22.949,187.500
1573889504.223,24.414,34.180,130.371,-2.930,72.266
1573889504.227,5.859,28.320,-303.223,-16.602,-116.211
1573889504.231,1.465,23.438,-84.961,-0.977,-49.316
1573889504.235,15.625,22.949,293.945,19.043,122.559
1573889504.239,12.695,20.020,-97.656,3.418,99.121
1573889504.243,-1.465,18.066,-627.441,-20.508,-65.430
1573889504.247,3.418,14.648,-228.027,-4.395,-92.773
1573889504.251,23.438,20.508,291.016,25.391,74.219
1573889504.255,27.832,28.320,139.160,20.020,106.934
1573889504.258,11.719,22.949,-121.094,0.488,-25.879
1573889504.262,12.207,18.066,67.383,11.719,-66.406
1573889504.266,33.203,18.066,393.555,41.504,75.684
1573889504.270,42.480,19.531,332.031,45.410,153.809
1573889504.274,24.414,17.090,-157.715,20.508,12.695
1573889504.278,18.066,21.973,-319.336,19.043,-85.449
1573889504.282,34.180,31.738,60.059,42.480,25.879
1573889504.286,39.551,33.691,37.109,42.480,149.902
1573889504.290,28.809,26.367,-145.508,18.066,88.379
1573889504.294,20.996,18.555,-40.039,12.207,-31.250
1573889504.298,29.297,15.137,84.473,31.250,-23.438
1573889504.301,42.969,15.137,231.934,46.387,125.977
1573889504.305,35.645,19.531,149.414,26.367,116.699
1573889504.309,16.113,21.973,-143.555,0.488,-58.105
1573889504.313,21.973,28.809,-68.848,14.160,-70.312
1573889504.317,35.156,29.785,295.410,39.062,95.215
1573889504.321,33.203,25.879,137.695,37.598,133.301
1573889504.325,16.602,21.973,-303.223,15.137,-13.672
1573889504.329,10.254,14.160,-351.074,15.625,-91.797
1573889504.333,24.902,15.137,54.199,38.574,42.969
1573889504.337,35.645,22.949,383.789,41.016,179.199
1573889504.340,29.785,28.320,30.762,20.508,35.645
1573889504.344,26.855,36.621,-524.414,17.090,-129.395
1573889504.348,38.574,39.551,-238.281,38.086,-18.066
1573889504.352,49.805,33.691,385.742,50.781,157.715
1573889504.356,42.480,26.855,-12.695,37.109,69.336
1573889504.360,29.785,22.949,-447.754,21.484,-113.770
1573889504.364,35.645,24.414,-32.715,37.109,-44.434
1573889504.368,48.340,27.832,326.172,55.664,140.137
1573889504.372,41.016,30.762,-24.902,40.039,122.559
1573889504.376,25.879,26.855,-422.363,19.531,-57.129
1573889504.380,23.926,19.531,-110.352,25.391,-83.496
1573889504.383,39.062,24.902,490.723,49.316,114.746
1573889504.387,50.781,22.461,232.422,49.805,140.625
1573889504.391,29.785,13.184,-536.621,17.578,-33.203
1573889504.395,14.648,20.508,-347.168,9.277,-95.703
1573889504.399,31.738,31.250,267.090,33.691,33.691
1573889504.403,40.527,27.344,332.031,39.551,162.109
1573889504.407,24.414,20.996,-42.480,14.648,51.758
1573889504.411,11.719,24.414,-177.246,-0.977,-85.938
1573889504.415,16.113,23.926,89.844,18.066,0.488
1573889504.419,25.879,27.832,30.762,33.691,132.812
1573889504.423,18.066,21.973,-384.766,15.625,50.293
1573889504.426,3.906,13.672,-295.410,-2.930,-90.332
1573889504.430,11.230,16.113,-16.113,15.625,-94.238
1573889504.434,25.879,19.531,279.297,34.668,89.844
1573889504.438,27.832,23.438,279.297,23.926,140.625
1573889504.442,17.090,23.438,-31.738,4.395,-40.039
1573889504.446,14.648,25.391,-49.805,10.254,-92.285
1573889504.450,31.250,32.715,277.832,37.598,75.684
1573889504.454,39.551,36.133,389.160,36.621,171.875
1573889504.458,32.227,31.738,64.453,14.160,29.297
1573889504.462,30.762,24.414,-332.520,14.160,-116.211
1573889504.465,42.480,22.949,-156.250,35.156,-4.395
1573889504.469,55.176,31.738,176.270,49.805,140.137
1573889504.473,48.828,32.715,-120.605,34.180,29.297
1573889504.477,32.227,32.227,-423.828,15.137,-123.535
1573889504.481,40.039,35.645,-149.414,38.086,-43.457
1573889504.485,57.617,30.273,379.883,60.059,145.996
1573889504.489,50.293,27.344,320.312,40.527,133.301
1573889504.493,38.574,33.691,-255.859,23.926,-54.688
1573889504.497,40.527,31.250,-311.035,37.109,-70.312
1573889504.501,48.340,27.832,376.953,52.246,127.930
1573889504.505,46.875,30.762,403.320,44.434,159.180
1573889504.508,29.785,30.762,-161.621,24.902,-29.297
1573889504.512,23.438,24.414,-291.504,24.902,-111.328
1573889504.516,33.691,23.926,241.211,45.898,33.203
1573889504.520,40.039,35.645,479.004,49.316,143.066
1573889504.524,24.902,38.574,-10.254,23.438,13.672
1573889504.528,9.766,30.762,-186.523,11.719,-107.910
1573889504.532,19.531,28.320,445.312,33.691,33.691
1573889504.536,28.320,26.855,722.656,41.504,164.062
1573889504.540,19.043,22.949,79.102,14.648,88.379
1573889504.544,9.766,23.926,-207.520,2.930,-68.359
1573889504.548,23.438,31.738,414.551,31.250,-29.297
1573889504.551,41.992,36.133,733.887,51.270,139.160
1573889504.555,39.062,31.250,311.035,32.715,95.215
1573889504.559,20.020,36.133,-23.926,9.277,-46.387
1573889504.563,17.578,42.480,300.293,23.438,-62.012
1573889504.567,36.621,33.203,607.422,50.293,72.266
1573889504.571,40.039,27.344,274.414,43.457,128.418
1573889504.575,25.879,29.785,-18.066,17.578,-30.762
1573889504.579,21.484,34.668,198.242,13.672,-102.051
1573889504.583,40.039,38.574,614.746,43.457,78.613
1573889504.587,47.852,40.527,625.000,49.805,161.621
1573889504.590,21.484,36.621,306.152,14.648,24.902
1573889504.594,7.324,28.809,187.012,0.488,-78.125
1573889504.598,19.043,26.367,418.945,18.066,1.953
1573889504.602,32.227,28.809,485.352,27.832,143.066
1573889504.606,25.879,33.203,96.680,9.277,78.125
1573889504.610,9.766,35.156,-112.305,-6.836,-103.027
1573889504.614,8.301,41.016,-99.609,6.836,-84.473
1573889504.618,23.438,50.293,84.473,23.438,89.844
1573889504.622,17.578,41.504,330.078,9.766,131.348
1573889504.626,-0.488,32.715,26.855,-9.766,-32.227
1573889504.630,3.906,43.457,-10.254,0.488,-80.566
1573889504.633,14.160,43.945,413.574,19.531,72.266
1573889504.637,15.137,41.504,472.168,13.672,151.367
1573889504.641,10.254,46.387,-114.258,-5.371,-3.906
1573889504.645,5.371,50.293,-265.137,-0.488,-96.680
1573889504.649,15.137,45.898,228.516,23.926,57.129
1573889504.653,23.926,41.016,311.035,31.250,172.852
1573889504.657,16.113,44.434,-230.469,12.207,36.621
1573889504.661,15.137,50.781,-694.336,6.836,-135.254
1573889504.665,21.973,51.270,-121.094,25.391,-24.902
1573889504.669,30.273,48.828,516.602,35.645,178.223
1573889504.673,26.855,42.480,189.941,16.113,134.766
1573889504.676,11.719,32.715,-259.766,-2.441,-68.359
1573889504.680,12.695,34.668,2.441,15.625,-72.754
1573889504.684,20.996,35.156,441.895,32.227,122.070
1573889504.688,14.648,36.133,186.523,19.043,129.883
1573889504.692,3.906,40.527,-280.273,3.418,-49.316
1573889504.696,-1.465,37.109,-246.582,9.277,-83.496
1573889504.700,10.742,35.156,71.289,32.715,76.172
1573889504.704,18.066,32.715,-126.953,30.273,144.043
1573889504.708,-0.977,25.879,-594.238,0.488,-13.672
1573889504.712,1.465,31.250,-320.312,3.418,-106.445
1573889504.715,20.996,40.039,224.121,24.902,47.363
1573889504.719,23.438,35.645,290.527,23.926,166.504
1573889504.723,17.090,34.668,-69.824,6.348,53.223
1573889504.727,15.137,37.598,-187.012,6.836,-79.102
1573889504.731,22.949,38.574,67.383,25.879,-14.648
1573889504.735,34.180,37.598,237.305,40.527,126.465
1573889504.739,34.668,42.480,51.270,28.809,92.773
1573889504.743,28.809,44.922,-362.305,16.113,-73.242
1573889504.747,29.785,42.969,-333.496,27.832,-73.730
1573889504.751,41.504,42.480,-153.809,43.945,82.031
1573889504.755,41.504,43.457,-172.363,35.156,104.980
1573889504.758,26.367,38.574,-267.090,11.719,-56.152
1573889504.762,21.484,33.691,-190.430,18.555,-94.727
1573889504.766,40.527,36.621,219.727,49.805,58.594
1573889504.770,54.199,41.992,455.078,55.664,172.363
1573889504.774,41.016,48.340,104.004,26.855,33.691
1573889504.778,35.156,47.363,-200.684,21.973,-130.859
1573889504.782,44.434,49.316,194.336,45.410,0.488
1573889504.786,47.852,56.152,467.285,48.340,164.551
1573889504.790,32.715,46.875,34.180,26.367,78.125
1573889504.794,19.531,39.062,-567.383,11.719,-104.980
1573889504.798,26.855,45.410,-363.770,26.367,-65.918
1573889504.801,41.992,48.340,388.184,45.898,128.906
1573889504.805,36.621,45.410,372.070,32.715,149.902
1573889504.809,17.578,45.898,-188.477,12.207,-47.852
1573889504.813,14.160,55.176,-83.984,17.090,-92.773
1573889504.817,26.367,53.223,528.320,37.598,105.957
1573889504.821,33.203,42.480,415.527,32.227,151.367
1573889504.825,22.461,38.086,-120.117,8.789,-16.602
1573889504.829,17.090,39.062,-39.551,13.672,-78.125
1573889504.833,29.785,37.109,461.426,37.109,68.359
1573889504.837,43.457,41.504,368.164,42.969,165.039
1573889504.840,32.715,40.039,-223.145,16.113,0.488
1573889504.844,12.207,34.180,-288.574,-2.441,-134.766
1573889504.848,25.391,40.527,260.254,21.484,-0.977
1573889504.852,48.828,39.551,355.469,46.387,141.602
1573889504.856,39.551,28.320,-295.410,26.855,56.641
1573889504.860,17.578,24.414,-383.789,5.371,-84.473
1573889504.864,28.320,33.691,56.152,29.297,-47.852
1573889504.868,47.852,37.109,201.172,55.176,93.262
1573889504.872,41.016,32.715,116.211,40.527,123.535
1573889504.876,26.855,40.039,-62.500,20.020,-20.508
1573889504.880,24.414,43.457,9.277,33.203,-86.426
1573889504.883,41.016,35.156,205.078,57.129,61.035
1573889504.887,40.527,30.273,86.426,46.387,148.438
1573889504.891,20.508,34.180,-173.828,13.672,3.906
1573889504.895,13.184,42.480,-94.238,8.789,-85.449
1573889504.899,19.531,43.945,47.363,26.367,41.504
1573889504.903,27.344,41.504,88.867,24.902,157.227
1573889504.907,20.996,44.434,9.766,6.836,55.176
1573889504.911,10.254,48.828,-225.098,2.441,-102.539
1573889504.915,14.648,51.758,26.855,15.137,-19.531
1573889504.919,27.832,47.363,376.465,23.438,153.809
1573889504.923,17.090,42.480,28.320,0.977,81.543
1573889504.926,-0.977,45.410,-390.625,-19.531,-92.773
1573889504.930,11.230,51.270,-259.277,1.953,-76.172
1573889504.934,35.156,50.293,102.051,29.785,103.027
1573889504.938,35.645,55.176,166.016,20.020,145.996
1573889504.942,23.438,58.105,-250.488,-3.906,-39.551
1573889504.946,23.438,48.828,-293.457,-1.953,-115.234
1573889504.950,39.062,42.969,269.531,26.855,65.430
1573889504.954,48.828,42.969,438.477,34.180,172.852
1573889504.958,39.062,44.922,-218.750,16.602,9.277
1573889504.962,34.180,38.086,-638.672,16.113,-131.348
1573889504.965,43.457,43.945,16.113,38.086,8.789
1573889504.969,55.664,51.758,416.016,49.805,163.574
1573889504.973,46.875,37.598,-95.215,34.180,65.430
1573889504.977,39.062,34.180,-527.832,26.367,-98.633
1573889504.981,51.270,39.062,-207.520,48.340,-47.852
1573889504.985,61.523,40.527,239.746,72.266,161.133
1573889504.989,51.270,36.621,-198.730,51.270,120.117
1573889504.993,25.391,34.668,-666.504,15.137,-90.820
1573889504.997,20.508,42.480,-161.621,27.344,-62.988
1573889505.001,38.086,43.945,300.293,55.176,114.258
1573889505.005,40.039,42.480,178.223,50.293,142.090
1573889505.008,20.020,44.434,-134.766,25.879,-11.719
1573889505.012,10.254,44.922,-13.184,16.113,-78.613
1573889505.016,20.996,44.434,296.875,27.832,56.152
1573889505.020,26.855,42.480,326.660,28.809,171.875
1573889505.024,16.602,37.598,-165.039,5.371,30.762
1573889505.028,7.324,35.156,-310.059,-4.883,-81.543
1573889505.032,19.531,41.504,56.641,15.625,18.066
1573889505.036,31.738,40.527,40.527,23.438,132.812
1573889505.040,21.484,33.203,-160.645,1.465,63.477
1573889505.044,10.254,27.832,-203.613,-13.184,-85.449
1573889505.048,16.113,32.227,-128.906,5.371,-66.406
1573889505.051,35.645,40.039,-81.055,28.320,94.238
1573889505.055,39.551,36.133,9.277,24.902,117.188
1573889505.059,21.973,32.715,-127.930,8.301,-44.922
1573889505.063,29.785,36.621,-92.285,28.320,-79.590
1573889505.067,47.852,35.645,284.180,56.641,85.449
1573889505.071,41.992,32.715,208.984,43.945,137.695
1573889505.075,32.715,33.203,-270.996,23.438,-12.207
1573889505.079,38.574,38.086,-220.215,37.598,-59.082
1573889505.083,48.340,35.645,243.652,61.523,57.129
1573889505.087,43.457,31.250,451.660,57.617,166.016
1573889505.090,29.297,27.344,80.566,33.203,69.824
1573889505.094,20.020,23.926,-542.969,18.555,-113.281
1573889505.098,30.273,30.273,-298.340,39.551,-40.039
1573889505.102,41.016,32.715,381.836,58.594,159.180
1573889505.106,31.250,24.902,83.008,35.156,90.332
1573889505.110,12.695,24.414,-358.398,9.277,-95.215
1573889505.114,17.090,31.738,2.441,27.344,-56.641
1573889505.118,34.668,34.668,294.434,53.223,103.516
1573889505.122,30.273,31.738,-106.445,33.691,83.496
1573889505.126,12.695,25.391,-689.941,5.371,-84.473
1573889505.130,3.906,25.391,-395.996,3.418,-104.004
1573889505.133,20.508,37.109,309.082,24.902,58.105
1573889505.137,33.691,34.668,263.672,25.879,139.648
1573889505.141,25.879,30.273,-156.250,2.441,-2.930
1573889505.145,21.484,38.086,-81.055,1.953,-94.727
1573889505.149,32.715,36.621,287.598,23.926,34.668
1573889505.153,45.898,34.668,342.773,36.133,159.668
1573889505.157,36.133,34.180,58.594,15.625,59.570
1573889505.161,26.367,40.039,-3.906,8.789,-83.496
1573889505.165,41.992,51.270,274.902,41.016,-8.789
1573889505.169,56.641,46.387,226.562,59.082,123.047
1573889505.173,41.016,33.203,-28.320,35.645,88.867
1573889505.176,19.043,25.879,79.102,15.137,-41.504
1573889505.180,25.879,24.902,361.328,33.691,-58.105
1573889505.184,47.363,31.738,517.090,58.594,83.008
1573889505.188,47.363,32.227,416.992,50.293,116.211
1573889505.192,26.855,27.832,270.020,23.438,-24.902
1573889505.196,22.461,34.180,264.160,24.414,-101.074
1573889505.200,38.574,28.809,464.355,49.805,25.879
1573889505.204,46.875,20.020,543.945,49.316,146.484
1573889505.208,28.320,27.344,199.219,20.508,26.367
1573889505.212,9.277,30.762,-41.016,5.859,-112.793
1573889505.215,20.996,26.855,65.430,25.879,-21.484
1573889505.219,34.180,29.785,437.988,37.598,134.766
1573889505.223,27.344,31.738,436.523,17.578,61.523
1573889505.227,16.113,27.832,96.680,3.418,-105.957
1573889505.231,24.414,34.180,408.203,24.414,-15.137
1573889505.235,36.621,35.645,870.605,38.574,166.504
1573889505.239,34.180,32.227,640.137,19.531,131.348
1573889505.243,21.484,36.133,126.465,-2.441,-50.781
1573889505.247,23.438,40.527,248.047,12.695,-55.664
1573889505.251,44.922,40.039,727.051,44.434,116.211
1573889505.255,43.945,29.297,606.934,36.133,145.508
1573889505.258,22.949,28.320,42.969,14.160,-2.930
1573889505.262,22.461,35.156,-103.516,17.090,-74.219
1573889505.266,41.016,36.133,327.637,42.969,49.805
1573889505.270,50.781,28.809,557.617,53.223,158.203
1573889505.274,41.992,22.949,-144.043,30.762,-6.836
1573889505.278,27.832,24.902,-482.910,18.066,-168.457
1573889505.282,38.086,31.738,203.613,38.574,-38.574
1573889505.286,55.176,39.062,510.254,53.711,139.648
1573889505.290,44.922,34.668,118.652,35.156,58.594
1573889505.294,27.344,28.809,-165.039,17.578,-115.234
1573889505.298,32.227,33.203,211.914,34.180,-36.133
1573889505.301,49.805,36.621,499.512,51.270,139.648
1573889505.305,46.875,34.668,63.477,40.527,103.027
1573889505.309,25.879,34.180,-386.230,17.578,-58.594
1573889505.313,17.578,33.203,-131.836,19.043,-87.891
1573889505.317,31.738,30.273,201.660,41.016,59.082
1573889505.321,36.133,32.715,-105.957,36.133,125.488
1573889505.325,21.973,34.668,-301.758,13.184,-9.277
1573889505.329,15.137,31.738,-63.965,15.137,-87.402
1573889505.333,30.762,35.156,194.824,36.133,26.367
1573889505.337,39.062,38.086,282.715,41.016,155.273
1573889505.340,31.250,33.691,49.805,22.949,58.594
1573889505.344,17.578,27.832,-129.883,6.348,-84.961
1573889505.348,18.555,27.832,128.906,21.484,9.766
1573889505.352,39.551,30.273,151.367,42.969,133.789
1573889505.356,34.180,31.738,-199.707,24.902,76.660
1573889505.360,4.883,27.832,-337.891,-1.465,-81.055
1573889505.364,9.277,22.461,-401.367,17.578,-105.469
1573889505.368,30.762,21.484,-216.797,41.504,62.012
1573889505.372,19.043,21.484,54.688,18.066,112.305
1573889505.376,1.465,20.996,-371.582,-5.371,-67.871
1573889505.380,4.395,21.973,-373.047,6.836,-109.375
1573889505.383,20.020,27.832,238.770,32.227,70.801
1573889505.387,30.273,35.156,343.262,35.156,141.113
1573889505.391,17.090,26.855,-146.973,5.859,-3.418
1573889505.395,9.766,24.902,-314.453,4.395,-107.422
1573889505.399,24.414,35.645,10.742,33.203,-12.695
1573889505.403,28.320,34.180,147.949,38.086,119.141
1573889505.407,21.973,28.809,-180.664,17.090,38.574
1573889505.411,20.020,31.738,-624.512,5.859,-119.141
1573889505.415,30.762,44.434,-83.008,30.762,-30.273
1573889505.419,46.387,41.504,457.520,52.734,138.672
1573889505.423,37.598,31.738,51.270,32.227,83.984
1573889505.426,24.414,38.574,-235.352,14.648,-81.055
1573889505.430,25.391,41.992,45.898,23.438,-62.500
1573889505.434,35.645,36.621,357.910,39.062,100.098
1573889505.438,37.598,30.762,276.367,30.762,140.137
1573889505.442,25.391,32.715,-45.898,12.207,-11.719
1573889505.446,24.902,44.434,-97.656,20.996,-83.984
1573889505.450,40.039,49.805,330.078,43.457,83.984
1573889505.454,46.387,42.480,180.176,40.527,154.297
1573889505.458,34.180,40.527,-394.043,16.113,-0.977
1573889505.462,25.391,40.039,-131.348,12.695,-88.867
1573889505.465,40.039,39.551,383.301,35.645,41.504
1573889505.469,48.828,45.898,481.445,48.340,172.852
1573889505.473,34.180,48.340,159.180,29.297,72.754
1573889505.477,16.113,35.645,-23.438,11.719,-77.637
1573889505.481,18.066,30.762,209.961,23.926,-17.578
1573889505.485,30.273,28.809,460.938,37.598,156.738
1573889505.489,24.902,27.344,180.664,26.367,121.094
1573889505.493,13.184,38.086,-334.961,10.254,-85.938
1573889505.497,15.137,41.016,-240.723,19.043,-84.473
1573889505.501,26.367,41.504,-76.660,34.180,73.730
1573889505.505,30.762,42.969,-3.418,24.902,130.859
1573889505.508,24.902,39.551,-12.207,10.742,3.906
1573889505.512,28.320,42.969,-102.051,21.973,-92.285
1573889505.516,42.969,42.480,252.930,46.387,49.316
1573889505.520,49.805,41.992,473.633,54.199,169.434
1573889505.524,42.480,41.504,41.992,37.598,13.184
1573889505.528,34.668,40.527,-220.703,29.297,-111.328
1573889505.532,46.875,46.387,149.414,52.734,7.324
1573889505.536,60.059,41.504,428.223,67.871,143.066
1573889505.540,52.246,33.691,19.531,50.781,74.707
1573889505.544,51.758,42.969,-647.949,33.203,-104.004
1573889505.548,61.035,47.363,-405.762,50.781,-43.945
1573889505.551,63.965,37.109,419.922,71.289,168.457
1573889505.555,54.688,33.203,343.262,54.688,154.785
1573889505.559,37.109,39.062,-183.105,31.738,-14.648
1573889505.563,36.621,40.039,-58.105,39.062,-42.969
1573889505.567,46.875,38.086,431.641,53.711,97.656
1573889505.571,48.828,37.598,272.461,47.852,129.395
1573889505.575,36.133,37.598,-275.391,24.902,-29.785
1573889505.579,19.043,39.551,-241.211,15.137,-97.656
1573889505.583,25.391,39.551,222.656,32.227,27.344
1573889505.587,37.109,38.086,181.641,37.598,155.762
1573889505.590,25.879,38.574,-377.441,15.625,40.527
1573889505.594,8.301,27.344,-380.859,0.488,-91.797
1573889505.598,15.625,16.113,139.648,20.996,-2.441
1573889505.602,32.715,20.508,134.277,41.016,107.422
1573889505.606,29.297,26.367,-381.836,24.902,57.617
1573889505.610,13.184,27.832,-348.633,7.324,-45.898
1573889505.614,19.043,35.645,35.156,23.438,-49.805
1573889505.618,42.969,46.875,248.535,43.945,77.637
1573889505.622,41.016,36.621,142.090,35.156,124.512
1573889505.626,25.879,25.879,-106.934,12.207,-21.484
1573889505.630,30.762,30.273,-190.918,17.578,-116.699
1573889505.633,46.875,30.762,-30.762,44.434,38.086
1573889505.637,57.617,29.785,65.918,47.852,155.273
1573889505.641,47.852,31.250,-117.188,26.855,21.973
1573889505.645,36.133,32.715,-93.262,23.926,-80.566
1573889505.649,46.875,32.715,-51.758,44.434,2.930
1573889505.653,51.758,27.832,-117.676,50.293,97.656
1573889505.657,40.039,24.414,-201.660,29.785,31.738
1573889505.661,24.414,22.461,-403.809,15.625,-107.910
1573889505.665,26.367,20.996,-79.102,35.156,-36.133
1573889505.669,37.598,20.020,323.242,52.246,133.789
1573889505.673,35.156,26.367,173.828,34.180,103.516
1573889505.676,24.902,34.668,-205.566,16.113,-53.711
1573889505.680,22.461,33.691,-279.785,23.926,-99.121
1573889505.684,28.320,23.926,19.043,32.715,67.383
1573889505.688,21.484,14.648,175.293,21.973,151.855
1573889505.692,8.301,15.137,-264.160,-4.395,-25.879
1573889505.696,7.812,20.508,-583.496,-5.859,-126.953
1573889505.700,20.020,25.879,33.203,20.020,47.852
1573889505.704,27.832,33.203,379.395,23.926,157.227
1573889505.708,21.973,38.574,-161.133,4.883,17.090
1573889505.712,10.742,31.738,-335.449,-2.930,-77.148
1573889505.715,20.020,20.508,158.691,16.602,33.203
1573889505.719,50.293,21.973,372.070,41.992,149.414
1573889505.723,47.852,26.855,0.488,34.668,54.688
1573889505.727,29.297,24.902,-392.578,13.184,-96.191
1573889505.731,39.551,26.367,-179.688,33.691,-55.664
1573889505.735,50.781,24.414,238.770,54.688,104.492
1573889505.739,36.621,13.672,72.754,26.367,106.445
1573889505.743,22.949,8.789,-331.055,7.812,-84.961
1573889505.747,31.250,19.043,-84.961,33.203,-102.539
1573889505.751,41.992,24.902,404.785,53.223,95.215
1573889505.755,41.016,18.555,12.207,41.504,136.719
1573889505.758,27.344,16.113,-465.332,21.973,-4.883
1573889505.762,25.879,18.555,-88.379,24.902,-60.547
1573889505.766,37.109,26.855,299.805,40.039,54.688
1573889505.770,38.086,26.855,201.172,37.109,149.414
1573889505.774,24.902,17.090,-250.977,8.789,17.090
1573889505.778,11.230,17.578,-444.336,-4.883,-134.766
1573889505.782,17.090,24.902,-104.004,19.531,-17.090
1573889505.786,30.273,26.367,208.008,35.645,142.090
1573889505.790,27.832,27.832,113.281,15.137,83.984
1573889505.794,13.184,34.180,-57.617,4.883,-80.566
1573889505.798,8.301,35.645,5.859,16.602,-62.988
1573889505.801,22.461,27.832,10.254,27.344,78.613
1573889505.805,22.949,20.996,47.852,16.113,99.609
1573889505.809,13.672,26.367,-40.527,1.953,-35.645
1573889505.813,21.973,37.598,18.555,15.625,-75.684
1573889505.817,42.480,38.086,433.105,39.062,80.566
1573889505.821,47.852,27.832,342.773,34.180,130.371
1573889505.825,32.227,26.367,-75.684,4.883,-19.043
1573889505.829,27.344,26.367,-255.371,2.930,-104.004
1573889505.833,41.992,26.855,61.035,25.879,26.855
1573889505.837,54.199,31.250,543.457,35.156,130.859
1573889505.840,45.410,33.691,207.031,19.043,17.578
1573889505.844,32.227,37.109,-57.129,8.301,-105.957
1573889505.848,40.039,41.992,420.410,31.738,-21.484
1573889505.852,52.246,33.203,861.328,50.781,157.227
1573889505.856,44.922,23.438,562.012,34.668,118.164
1573889505.860,31.738,26.855,121.094,16.113,-68.359
1573889505.864,36.621,30.273,377.441,31.738,-62.988
1573889505.868,46.875,24.414,716.797,52.246,123.047
1573889505.872,33.691,24.414,442.383,31.738,146.484
1573889505.876,13.184,34.180,-258.301,0.488,-72.266
1573889505.880,4.883,29.785,-32.227,3.906,-104.004
1573889505.883,13.184,21.484,661.621,26.367,88.867
1573889505.887,24.414,30.273,548.828,27.832,146.484
1573889505.891,13.672,31.250,174.805,7.324,7.324
1573889505.895,1.953,24.414,223.145,4.883,-84.961
1573889505.899,10.254,25.879,635.742,27.344,31.250
1573889505.903,14.160,30.273,690.918,31.250,167.480
1573889505.907,6.348,36.621,248.535,16.113,48.340
1573889505.911,0.977,33.203,4.395,6.836,-136.719
1573889505.915,7.812,27.832,248.535,24.902,-43.457
1573889505.919,20.996,28.809,267.578,40.039,136.719
1573889505.923,18.555,26.855,-99.609,21.973,84.961
1573889505.926,5.859,30.273,-133.301,4.395,-85.938
1573889505.930,11.719,32.227,176.270,16.602,-74.219
1573889505.934,29.785,29.785,479.004,41.016,99.609
1573889505.938,33.203,28.320,366.211,34.180,122.070
1573889505.942,22.461,23.926,-37.598,14.160,-15.137
1573889505.946,20.020,21.484,-81.055,22.461,-85.938
1573889505.950,34.180,23.438,222.656,45.898,20.996
1573889505.954,42.480,30.762,372.559,48.340,142.090
1573889505.958,29.785,28.809,94.238,27.832,29.297
1573889505.962,24.414,23.438,-248.047,25.391,-100.098
1573889505.965,38.574,28.320,-264.160,47.852,-20.996
1573889505.969,46.875,33.691,93.262,57.617,132.324
1573889505.973,35.156,33.691,171.875,35.156,106.934
1573889505.977,23.926,34.668,-187.500,19.531,-69.824
1573889505.981,29.785,35.156,-75.684,39.062,-70.801
1573889505.985,42.480,35.645,454.102,58.105,144.043
1573889505.989,41.504,35.156,416.504,45.898,178.711
1573889505.993,26.367,27.832,-139.648,22.461,-41.992
1573889505.997,21.484,26.367,-247.070,28.320,-84.473
1573889506.001,34.180,27.344,254.395,50.293,109.863
1573889506.005,38.086,27.832,241.699,46.875,149.902
1573889506.008,25.391,33.691,-380.859,25.391,-23.926
1573889506.012,25.879,48.340,-514.648,30.762,-108.398
1573889506.016,40.039,49.316,-16.113,56.641,26.367
1573889506.020,41.992,37.109,318.848,50.781,161.621
1573889506.024,27.344,26.367,-347.168,18.066,35.645
1573889506.028,12.207,20.020,-739.258,4.395,-115.234
1573889506.032,17.578,24.414,14.160,20.996,3.906
1573889506.036,35.645,37.598,356.934,33.691,159.180
1573889506.040,26.855,37.109,-57.129,13.184,83.984
1573889506.044,7.324,26.367,-326.660,-8.301,-88.379
1573889506.048,7.812,23.926,9.277,0.000,-56.152
1573889506.051,18.066,17.578,310.547,15.137,130.859
1573889506.055,15.137,18.066,-66.895,2.930,115.234
1573889506.059,-0.977,23.438,-551.270,-19.531,-91.309
1573889506.063,0.000,25.879,-364.258,-10.742,-108.887
1573889506.067,20.996,34.668,112.793,16.602,75.684
1573889506.071,29.297,35.645,-77.148,19.531,129.883
1573889506.075,14.648,31.250,-276.367,-2.930,0.000
1573889506.079,8.301,38.574,-90.332,-3.418,-108.887
1573889506.083,21.484,43.457,192.871,22.461,9.277
1573889506.087,28.320,43.457,361.816,31.738,159.180
1573889506.090,20.508,46.875,132.812,16.113,61.035
1573889506.094,14.160,43.457,-19.531,13.672,-69.336
1573889506.098,24.414,35.645,290.527,36.133,14.160
1573889506.102,47.363,33.691,376.465,55.176,142.090
1573889506.106,45.410,36.133,35.645,38.086,95.703
1573889506.110,28.809,40.039,-273.438,22.461,-75.684
1573889506.114,32.227,39.551,-304.688,37.109,-89.355
1573889506.118,48.828,39.551,21.973,58.594,80.566
1573889506.122,55.664,37.109,268.066,60.547,116.699
1573889506.126,47.852,30.273,-24.414,50.781,-39.062
1573889506.130,41.016,29.785,-84.473,54.199,-98.145
1573889506.133,46.875,35.156,445.801,66.895,87.402
1573889506.137,51.758,38.574,598.633,67.383,179.199
1573889506.141,40.527,36.133,80.078,47.363,23.926
1573889506.145,25.391,34.180,-83.008,38.086,-71.289
1573889506.149,26.855,41.016,253.418,53.223,33.203
1573889506.153,41.504,42.480,382.324,64.453,174.316
1573889506.157,31.738,29.785,2.930,39.551,74.219
1573889506.161,16.113,30.273,-588.867,14.648,-127.930
1573889506.165,20.020,34.180,-297.852,23.926,-69.336
1573889506.169,34.180,34.180,294.922,36.133,117.188
1573889506.173,29.297,37.598,125.977,23.438,110.352
1573889506.176,9.766,44.434,-193.848,3.906,-45.410
1573889506.180,12.695,41.992,93.750,15.137,-50.293
1573889506.184,28.320,26.367,488.770,40.039,108.398
1573889506.188,32.227,23.438,291.016,35.156,137.695
1573889506.192,24.414,37.598,-117.676,17.578,-7.324
1573889506.196,22.949,38.086,-207.031,20.996,-81.543
1573889506.200,32.227,34.668,153.809,41.016,52.246
1573889506.204,37.109,35.645,117.188,40.527,152.832
1573889506.208,26.855,26.855,-569.824,13.184,-31.738
1573889506.212,17.090,23.438,-433.594,1.953,-149.414
1573889506.215,30.273,36.621,145.996,28.809,-13.184
1573889506.219,42.969,43.457,318.359,45.898,142.090
1573889506.223,27.832,29.297,-54.199,21.973,67.383
1573889506.227,12.695,27.344,-268.555,9.277,-93.262
1573889506.231,18.066,30.762,37.109,28.320,-42.480
1573889506.235,29.785,22.949,331.543,42.969,141.113
1573889506.239,31.738,22.949,213.867,29.297,139.160
1573889506.243,22.949,38.574,-219.238,11.230,-32.227
1573889506.247,17.090,38.086,-324.707,19.531,-84.473
1573889506.251,26.367,31.250,-149.414,36.133,62.500
1573889506.255,29.785,41.504,-3.906,28.809,140.137
1573889506.258,12.207,40.039,-103.027,5.371,-2.930
1573889506.262,6.836,34.180,-221.191,5.859,-95.703
1573889506.266,20.020,36.133,104.492,28.809,29.785
1573889506.270,26.367,36.621,330.566,33.203,143.555
1573889506.274,14.160,34.668,20.020,9.277,41.992
1573889506.278,2.930,32.715,-247.559,-3.906,-75.195
1573889506.282,17.578,39.062,-27.832,20.020,-2.441
1573889506.286,37.598,40.039,293.945,38.574,127.441
1573889506.290,35.645,36.133,-40.039,26.367,80.078
1573889506.294,22.949,41.992,-565.430,7.324,-82.520
1573889506.298,25.879,43.457,-266.113,21.484,-66.406
1573889506.301,42.480,40.527,315.430,53.223,104.980
1573889506.305,43.457,41.504,297.852,48.340,135.742
1573889506.309,32.227,40.039,-400.391,24.414,-41.504
1573889506.313,30.762,39.062,-539.551,28.809,-113.281
1573889506.317,45.898,40.039,270.020,53.711,76.660
1573889506.321,53.223,37.109,309.570,54.688,140.625
1573889506.325,35.645,38.086,-220.215,31.738,-6.836
1573889506.329,28.320,38.086,-146.973,26.855,-70.801
1573889506.333,47.852,37.109,346.191,50.781,45.898
1573889506.337,69.824,43.945,297.852,65.918,150.391
1573889506.340,59.570,47.363,-364.746,43.945,18.066
1573889506.344,39.062,44.434,-496.094,22.461,-112.793
1573889506.348,43.457,42.480,111.328,37.598,-14.160
1573889506.352,50.781,37.109,337.402,46.875,139.160
1573889506.356,43.945,32.227,-272.949,26.855,74.219
1573889506.360,29.785,44.922,-433.594,12.207,-73.242
1573889506.364,29.785,46.875,68.848,21.973,-48.828
1573889506.368,41.504,35.645,330.078,42.480,97.656
1573889506.372,30.273,30.273,143.555,28.809,115.234
1573889506.376,10.742,21.973,-211.914,0.977,-70.801
1573889506.380,11.230,28.809,-145.508,10.742,-120.117
1573889506.383,29.297,38.574,193.848,38.086,63.477
1573889506.387,37.109,34.668,156.250,32.715,159.180
1573889506.391,26.367,34.180,-214.844,11.230,13.184
1573889506.395,17.090,28.809,-266.602,11.719,-90.332
1573889506.399,28.809,31.738,-49.805,26.855,20.508
1573889506.403,43.945,37.109,123.535,36.621,161.133
1573889506.407,36.621,31.738,89.844,24.414,87.402
1573889506.411,26.855,31.250,-219.238,18.555,-90.332
1573889506.415,32.715,33.691,-67.871,41.016,-60.059
1573889506.419,41.504,31.738,306.152,52.246,112.305
1573889506.423,36.621,26.855,217.285,34.180,113.770
1573889506.426,22.949,30.273,-166.016,18.066,-47.363
1573889506.430,22.949,37.109,-232.910,29.297,-88.379
1573889506.434,35.156,40.039,85.449,47.852,67.871
1573889506.438,39.551,35.156,240.723,42.480,137.207
1573889506.442,26.367,27.832,-162.109,20.508,-16.113
1573889506.446,18.066,24.902,-325.684,16.113,-97.168
1573889506.450,31.250,28.809,104.004,38.086,26.855
1573889506.454,32.227,32.715,365.723,39.062,150.391
1573889506.458,14.160,28.320,-114.746,7.812,12.207
1573889506.462,6.348,30.273,-600.586,-4.883,-135.742
1573889506.465,19.531,30.762,52.246,22.461,1.465
1573889506.469,35.156,27.832,564.453,38.574,160.156
1573889506.473,27.832,33.691,231.445,20.996,104.004
1573889506.477,12.207,32.227,-245.605,4.395,-95.215
1573889506.481,15.137,29.785,-34.180,16.113,-67.871
1573889506.485,27.832,29.297,404.785,41.504,117.676
1573889506.489,26.855,25.391,263.184,35.645,120.605
1573889506.493,20.020,23.438,-57.617,20.020,-53.711
1573889506.497,25.391,30.762,167.480,34.180,-93.262
1573889506.501,44.922,44.434,689.453,64.453,101.562
1573889506.505,51.270,38.574,356.934,62.012,161.133
1573889506.508,33.691,28.809,-136.230,33.203,12.695
1573889506.512,26.855,29.297,215.332,30.762,-63.965
1573889506.516,42.969,22.949,569.336,53.711,33.203
1573889506.520,54.688,25.391,586.914,60.547,149.902
1573889506.524,44.434,32.715,232.910,36.621,57.129
1573889506.528,36.133,39.551,-22.949,29.297,-97.656
1573889506.532,45.410,40.527,247.070,44.922,-19.531
1573889506.536,59.082,29.785,331.055,50.781,134.766
1573889506.540,43.945,27.344,260.254,30.273,115.723
1573889506.544,25.391,31.738,308.594,10.254,-0.977
1573889506.548,31.738,29.297,375.977,24.414,-34.180
1573889506.551,40.527,25.879,566.406,42.480,87.891
