timestamps,TP9,AF7,AF8,TP10,Right AUX
1573889413.130,3.418,16.602,-406.250,-3.418,-53.223
1573889413.133,2.930,19.531,-285.156,2.930,-102.539
1573889413.137,18.555,24.414,297.852,28.320,44.922
1573889413.141,24.414,17.578,422.852,28.320,165.527
1573889413.145,16.113,15.137,-24.902,9.766,58.105
1573889413.149,8.789,17.578,-349.121,1.953,-93.262
1573889413.153,18.555,19.531,-64.453,22.461,-10.742
1573889413.157,34.668,26.855,321.289,37.109,155.762
1573889413.161,23.926,21.484,-203.125,13.672,79.590
1573889413.165,4.395,16.113,-691.406,-10.742,-91.797
1573889413.169,7.324,18.555,-7.812,6.348,-27.344
1573889413.173,20.996,19.531,546.387,29.785,167.969
1573889413.176,17.090,14.648,148.438,14.160,149.414
1573889413.180,3.418,19.043,-361.328,-5.859,-50.293
1573889413.184,7.324,29.297,-39.062,2.930,-83.984
1573889413.188,26.367,28.809,392.578,27.344,78.125
1573889413.192,29.297,28.809,233.887,28.809,130.371
1573889413.196,15.625,30.273,-235.840,3.906,-3.906
1573889413.200,9.766,24.414,-274.414,-1.953,-83.008
1573889413.204,28.809,24.414,135.254,27.832,16.113
1573889413.208,38.574,28.320,32.715,35.645,128.906
1573889413.212,15.625,26.367,-173.828,9.277,56.641
1573889413.215,5.859,24.414,-19.043,3.906,-78.613
1573889413.219,17.578,22.949,281.738,22.461,-13.672
1573889413.223,27.344,21.484,510.254,35.156,142.090
1573889413.227,16.602,21.484,353.027,18.066,108.887
1573889413.231,0.977,23.926,119.141,-1.465,-52.734
1573889413.235,11.719,23.438,247.559,19.531,-68.359
1573889413.239,30.762,20.508,529.785,47.852,100.586
1573889413.243,24.902,20.020,340.332,34.180,129.883
1573889413.247,14.160,25.879,-11.230,11.230,-24.414
1573889413.251,14.160,30.762,-71.777,21.484,-98.145
1573889413.255,17.578,29.785,253.906,37.598,51.758
1573889413.258,21.484,29.297,642.578,34.668,164.551
1573889413.262,9.766,23.926,404.297,11.719,31.250
1573889413.266,-0.488,17.090,246.582,5.371,-75.684
1573889413.270,10.254,19.531,665.527,27.832,36.133
1573889413.274,20.996,17.090,911.133,37.598,178.223
1573889413.278,10.254,16.113,503.906,14.648,98.145
1573889413.282,0.000,20.020,161.621,0.977,-74.219
1573889413.286,12.207,21.973,524.414,26.855,-22.949
1573889413.290,25.391,22.949,684.082,49.316,129.883
1573889413.294,20.508,17.578,142.578,33.691,71.289
1573889413.298,1.953,5.371,-419.434,5.859,-101.074
1573889413.301,1.953,0.977,-22.949,16.113,-83.984
1573889413.305,23.926,10.742,717.773,43.945,103.516
1573889413.309,29.785,20.508,527.832,38.574,148.926
1573889413.313,16.602,25.391,76.660,14.648,-2.441
1573889413.317,7.812,30.762,249.023,11.230,-76.172
1573889413.321,20.996,28.809,683.105,33.691,62.988
1573889413.325,30.273,23.926,619.141,39.062,176.758
1573889413.329,15.625,22.949,109.375,13.184,31.738
1573889413.333,9.766,25.879,58.594,8.301,-91.797
1573889413.337,23.438,30.273,286.621,30.273,-13.672
1573889413.340,27.344,29.785,83.984,35.645,94.727
1573889413.344,12.695,28.320,-244.141,5.859,46.387
1573889413.348,-6.348,29.297,-290.527,-18.066,-98.145
1573889413.352,-3.906,23.926,51.270,2.441,-79.590
1573889413.356,21.484,22.461,164.062,32.715,90.820
1573889413.360,24.902,25.391,-100.586,21.484,114.746
1573889413.364,1.465,26.855,-158.203,-3.906,-47.363
1573889413.368,2.930,35.156,-15.137,4.395,-92.773
1573889413.372,23.926,32.715,313.477,30.762,78.613
1573889413.376,33.691,25.391,289.551,27.832,148.438
1573889413.380,26.367,27.344,-55.176,7.324,-0.488
1573889413.383,20.508,20.508,-262.207,7.324,-109.863
1573889413.387,39.551,21.484,-271.973,36.621,-3.906
1573889413.391,58.105,36.621,-79.102,50.781,125.488
1573889413.395,45.898,41.992,-148.926,30.273,20.508
1573889413.399,31.250,28.320,-358.887,18.555,-122.070
1573889413.403,34.668,20.508,-194.336,35.156,-56.152
1573889413.407,41.992,22.461,71.777,48.828,120.117
1573889413.411,32.715,17.578,-64.453,30.273,94.238
1573889413.415,15.625,11.230,-402.832,11.719,-79.590
1573889413.419,12.207,14.160,-175.293,22.461,-58.105
1573889413.423,20.020,20.996,274.902,41.992,119.629
1573889413.426,14.648,18.555,102.051,28.320,128.418
1573889413.430,-4.395,13.672,-452.637,-0.488,-43.945
1573889413.434,-10.742,16.113,-515.137,5.371,-106.934
1573889413.438,1.465,22.461,16.113,29.297,53.223
1573889413.442,10.742,21.484,162.598,30.273,132.812
1573889413.446,3.418,18.066,-533.691,3.418,-41.504
1573889413.450,-1.465,17.578,-739.258,-4.395,-146.973
1573889413.454,8.789,21.973,77.637,22.949,30.762
1573889413.458,18.555,21.484,387.695,31.250,187.988
1573889413.462,15.137,24.902,-128.418,12.207,77.148
1573889413.465,3.418,25.879,-335.449,0.977,-93.262
1573889413.469,10.254,25.879,158.203,19.531,-23.926
1573889413.473,25.391,29.297,435.059,40.527,156.250
1573889413.477,26.367,27.832,30.273,21.973,138.672
1573889413.481,16.113,28.809,-370.605,3.418,-55.664
1573889413.485,22.461,26.367,-20.020,25.391,-75.684
1573889413.489,44.434,24.414,375.977,50.781,112.793
1573889413.493,35.156,23.438,-72.266,37.598,95.703
1573889413.497,9.766,23.438,-301.758,5.859,-35.156
1573889413.501,12.207,28.809,38.574,14.160,-77.637
1573889413.505,28.809,32.227,270.508,42.480,41.016
1573889413.508,27.344,28.809,3.906,35.156,119.141
1573889413.512,5.371,21.973,-142.090,6.348,15.625
1573889413.516,2.930,20.020,-53.223,4.395,-79.102
1573889413.520,15.137,20.020,173.828,25.879,8.789
1573889413.524,13.672,21.973,303.711,24.902,162.598
1573889413.528,9.766,22.461,-122.559,8.789,62.012
1573889413.532,-1.953,21.484,-302.734,-2.441,-114.258
1573889413.536,-2.930,18.555,-105.469,5.371,-53.223
1573889413.540,4.883,17.578,29.297,16.113,112.305
1573889413.544,-2.441,23.926,130.859,4.395,115.723
1573889413.548,-2.441,30.762,-91.309,-4.883,-55.176
1573889413.551,5.371,25.879,-20.020,6.836,-77.148
1573889413.555,10.254,22.461,385.254,23.438,93.750
1573889413.559,15.625,27.344,404.297,23.926,161.621
1573889413.563,4.395,25.879,-51.758,3.906,-4.883
1573889413.567,-2.930,18.066,-127.441,-1.465,-92.773
1573889413.571,10.254,14.648,206.543,19.531,49.316
1573889413.575,30.273,20.996,211.914,34.180,166.504
1573889413.579,26.855,21.973,-253.418,18.066,30.273
1573889413.583,14.648,23.926,-669.434,7.812,-146.973
1573889413.587,27.832,28.809,-149.902,33.691,-36.133
1573889413.590,41.016,26.367,368.652,57.129,131.348
1573889413.594,31.738,21.973,-43.945,37.598,62.500
1573889413.598,14.648,16.602,-308.105,11.230,-74.219
1573889413.602,11.230,18.066,149.902,23.438,-23.438
1573889413.606,26.855,25.391,457.031,50.293,122.559
1573889413.610,27.832,21.484,94.727,45.410,110.840
1573889413.614,5.371,10.742,-271.973,19.043,-44.922
1573889413.618,-3.418,4.883,-168.945,17.090,-67.383
1573889413.622,9.766,8.301,275.391,36.133,126.953
1573889413.626,19.043,11.230,113.770,37.109,183.594
1573889413.630,7.324,14.648,-657.227,15.137,-33.203
1573889413.633,-10.742,20.508,-472.656,0.977,-128.906
1573889413.637,-3.418,17.090,234.863,14.160,45.410
1573889413.641,12.207,19.531,275.879,23.926,157.715
1573889413.645,2.441,23.926,-110.840,3.418,42.480
1573889413.649,-14.648,20.508,-176.758,-13.184,-103.516
1573889413.653,-8.301,23.926,91.797,5.859,-38.574
1573889413.657,12.207,29.785,245.117,20.508,136.719
1573889413.661,11.719,33.203,-61.523,2.930,86.426
1573889413.665,-0.488,33.203,-395.996,-14.648,-60.059
1573889413.669,5.371,33.691,-213.867,0.488,-43.945
1573889413.673,24.414,37.109,-183.594,20.996,58.105
1573889413.676,23.926,34.668,-209.473,12.207,105.469
1573889413.680,6.348,25.879,-166.016,-3.906,-20.996
1573889413.684,11.230,24.414,-131.348,10.742,-94.727
1573889413.688,27.344,25.391,35.156,40.527,21.973
1573889413.692,20.508,23.926,126.465,36.133,124.512
1573889413.696,6.348,26.367,-71.289,11.230,19.043
1573889413.700,6.348,24.902,-167.480,8.789,-93.262
1573889413.704,17.090,27.344,177.734,24.902,13.184
1573889413.708,22.461,30.762,316.895,28.809,129.883
1573889413.712,7.324,24.902,-122.559,2.441,49.805
1573889413.715,-7.324,20.996,-653.809,-18.555,-131.836
1573889413.719,-0.977,22.461,-486.816,-5.371,-94.238
1573889413.723,6.348,23.926,155.273,8.301,109.863
1573889413.727,4.883,24.414,151.367,-3.906,118.652
1573889413.731,-8.789,25.879,-250.977,-26.855,-65.430
1573889413.735,-19.043,30.762,-49.316,-21.973,-76.172
1573889413.739,-6.836,27.832,480.957,3.418,120.605
1573889413.743,-0.488,24.902,216.797,1.953,136.230
1573889413.747,-17.578,22.949,-321.289,-20.020,-38.086
1573889413.751,-25.391,17.578,-147.461,-20.996,-99.609
1573889413.755,-8.301,17.578,350.098,4.883,50.781
1573889413.758,9.277,19.531,230.957,19.531,146.484
1573889413.762,-0.977,15.137,-555.176,-4.395,-5.859
1573889413.766,-7.324,16.602,-563.477,-13.184,-128.906
1573889413.770,18.066,32.227,238.281,20.996,14.648
1573889413.774,41.504,35.156,374.512,43.457,160.156
1573889413.778,35.156,27.832,-86.914,20.508,69.336
1573889413.782,28.320,24.902,-218.262,3.906,-85.938
1573889413.786,50.293,29.785,114.258,35.645,-51.758
1573889413.790,66.895,35.645,362.305,56.641,132.812
1573889413.794,59.570,34.180,70.312,41.504,114.746
1573889413.798,42.969,34.180,-268.066,20.020,-83.496
1573889413.801,42.480,32.715,-117.188,30.273,-104.492
1573889413.805,56.152,32.227,31.738,54.688,77.637
1573889413.809,45.410,30.762,-151.367,37.109,137.207
1573889413.813,20.508,25.391,-194.336,4.395,0.000
1573889413.817,15.137,25.391,-40.039,6.348,-88.867
1573889413.821,25.391,29.297,215.820,27.344,25.391
1573889413.825,29.785,28.320,252.441,28.320,131.836
1573889413.829,12.695,21.973,-58.594,4.883,5.859
1573889413.833,-7.324,14.648,-129.883,-11.230,-97.656
1573889413.837,3.906,21.973,183.105,6.348,-13.184
1573889413.840,18.555,29.297,414.062,22.949,131.348
1573889413.844,8.301,25.879,200.195,8.789,75.195
1573889413.848,-5.859,25.391,-88.379,-8.789,-96.191
1573889413.852,7.324,28.809,63.477,10.254,-66.406
1573889413.856,25.879,29.785,303.223,35.156,93.262
1573889413.860,15.137,25.391,167.969,19.531,107.910
1573889413.864,2.930,27.344,-103.516,-5.859,-46.387
1573889413.868,5.859,33.203,-152.344,-1.953,-105.469
1573889413.872,18.066,34.668,330.566,23.438,67.383
1573889413.876,28.320,31.738,602.539,31.738,161.621
1573889413.880,20.508,24.902,234.375,14.160,13.184
1573889413.883,12.695,21.484,211.426,7.812,-87.891
1573889413.887,27.344,24.902,732.422,34.180,33.691
1573889413.891,39.551,28.320,893.066,44.434,177.246
1573889413.895,33.203,24.414,443.848,22.949,75.195
1573889413.899,18.555,17.578,93.262,8.789,-98.145
1573889413.903,24.414,21.973,346.680,24.902,-29.785
1573889413.907,47.363,28.809,671.387,49.316,129.883
1573889413.911,41.992,25.391,242.188,30.273,88.379
1573889413.915,23.926,23.438,-300.293,5.371,-87.402
1573889413.919,27.344,25.879,259.766,23.926,-73.242
1573889413.923,43.945,31.250,835.449,45.898,119.629
1573889413.926,41.504,27.344,489.258,34.180,113.281
1573889413.930,19.043,20.996,103.516,10.742,-51.758
1573889413.934,12.207,25.391,304.688,13.184,-100.586
1573889413.938,21.484,30.762,604.980,32.227,38.574
1573889413.942,25.391,33.691,481.445,34.180,122.070
1573889413.946,10.742,20.996,-3.418,12.695,3.418
1573889413.950,-1.953,5.859,-52.246,4.883,-88.867
1573889413.954,9.766,9.766,396.973,28.809,20.020
1573889413.958,29.297,20.020,230.957,44.434,138.672
1573889413.962,17.578,21.973,-80.566,20.508,55.664
1573889413.965,-1.953,24.414,107.422,8.789,-41.992
1573889413.969,8.301,29.297,310.547,30.762,-6.348
1573889413.973,22.949,22.949,425.293,41.992,125.000
1573889413.977,20.508,19.043,299.316,32.715,123.047
1573889413.981,7.812,21.973,-11.230,18.555,-54.688
1573889413.985,7.812,27.832,50.781,20.996,-79.590
1573889413.989,17.578,34.668,383.789,35.156,97.168
1573889413.993,23.438,31.738,120.117,35.645,120.117
1573889413.997,15.137,30.273,-345.703,14.648,-57.129
1573889414.001,12.207,38.086,-369.141,15.137,-120.605
1573889414.005,34.180,35.156,-110.352,42.969,29.297
1573889414.008,42.969,30.273,267.090,48.828,159.668
1573889414.012,25.391,36.133,65.430,18.066,54.688
1573889414.016,17.090,37.598,-147.461,2.930,-76.660
1573889414.020,33.691,37.109,165.039,32.227,-6.836
1573889414.024,43.945,37.109,418.945,43.457,150.391
1573889414.028,32.715,37.598,-50.293,17.578,87.402
1573889414.032,16.113,39.551,-379.395,-2.930,-74.219
1573889414.036,23.926,47.852,27.832,17.090,-41.504
1573889414.040,35.645,52.246,261.719,35.645,129.883
1573889414.044,28.809,39.062,-221.680,13.672,91.309
1573889414.048,9.277,30.273,-682.617,-11.719,-129.883
1573889414.051,9.277,28.320,-270.020,-1.465,-107.422
1573889414.055,28.320,27.344,324.707,26.367,94.727
1573889414.059,37.109,30.273,83.496,25.879,121.094
1573889414.063,21.973,28.320,-662.598,-3.906,-51.270
1573889414.067,11.230,28.320,-427.734,-3.906,-98.145
1573889414.071,32.227,34.668,289.551,32.715,55.664
1573889414.075,36.621,32.715,198.730,35.645,137.695
1573889414.079,14.648,25.879,-166.504,1.953,49.805
1573889414.083,6.348,23.438,-236.328,-4.883,-80.078
1573889414.087,20.508,26.367,-15.625,25.879,-20.508
1573889414.090,30.762,22.949,-76.172,41.016,108.398
1573889414.094,16.113,21.973,-521.484,15.137,34.668
1573889414.098,-2.441,28.320,-364.746,-4.883,-89.844
1573889414.102,5.371,31.250,121.582,16.602,-59.082
1573889414.106,22.949,33.203,337.402,38.574,95.215
1573889414.110,21.973,32.715,219.727,22.949,141.602
1573889414.114,9.277,33.203,82.520,0.977,23.438
1573889414.118,15.137,35.156,189.941,8.301,-32.715
1573889414.122,32.227,39.551,437.988,32.715,92.285
1573889414.126,40.039,42.969,406.738,29.297,163.574
1573889414.130,26.367,36.621,58.594,5.371,16.113
1573889414.133,19.043,40.039,-140.625,5.859,-104.492
1573889414.137,33.691,44.922,-103.027,28.809,8.301
1573889414.141,35.156,38.574,49.316,30.273,150.879
1573889414.145,22.949,32.715,57.129,10.254,72.266
1573889414.149,20.020,28.320,-86.426,10.742,-75.684
1573889414.153,34.180,28.809,179.688,33.691,-11.719
1573889414.157,54.688,35.645,522.461,51.758,147.461
1573889414.161,57.129,40.527,306.152,42.969,118.164
1573889414.165,47.852,37.598,-126.953,23.926,-74.707
1573889414.169,53.711,35.645,52.246,36.133,-65.918
1573889414.173,64.453,33.691,516.113,59.570,131.348
1573889414.176,56.641,28.320,300.293,52.246,120.605
1573889414.180,38.574,26.367,-380.859,28.809,-76.172
1573889414.184,26.367,24.902,-375.488,27.344,-96.680
1573889414.188,38.574,27.832,287.598,54.688,76.172
1573889414.192,48.340,30.273,408.203,61.035,171.875
1573889414.196,26.855,24.414,-87.402,33.203,50.781
1573889414.200,9.277,16.602,-249.512,20.996,-101.074
1573889414.204,25.879,20.996,247.070,47.363,3.906
1573889414.208,40.527,23.926,432.129,57.129,160.156
1573889414.212,25.879,20.020,-168.457,23.926,63.965
1573889414.215,7.324,26.855,-387.695,5.859,-80.566
1573889414.219,8.301,28.809,197.754,22.949,-1.465
1573889414.223,16.602,18.066,398.438,30.273,135.254
1573889414.227,11.230,12.207,-89.355,10.742,95.703
1573889414.231,-3.906,8.789,-500.488,-11.230,-62.988
1573889414.235,-0.977,12.695,-152.832,-2.930,-70.312
1573889414.239,20.508,19.531,322.266,25.391,116.699
1573889414.243,19.043,16.602,-152.344,18.066,129.883
1573889414.247,3.906,16.602,-488.770,-6.348,-29.785
1573889414.251,7.812,18.555,-124.023,0.977,-84.473
1573889414.255,27.832,19.531,97.168,32.227,31.250
1573889414.258,43.945,25.391,96.680,44.434,141.113
1573889414.262,33.203,30.762,-131.348,20.996,23.926
1573889414.266,26.367,28.809,-118.652,16.602,-69.336
1573889414.270,42.480,25.391,211.426,42.480,28.320
1573889414.274,52.734,29.785,212.402,56.641,154.785
1573889414.278,38.574,27.832,-187.500,33.691,90.820
1573889414.282,20.996,30.273,-351.074,13.672,-75.684
1573889414.286,34.180,33.203,-229.492,36.133,-57.617
1573889414.290,43.457,28.320,-82.520,48.340,108.398
1573889414.294,31.738,27.344,-23.438,30.273,120.605
1573889414.298,23.438,26.367,-292.969,17.578,-55.664
1573889414.301,25.879,25.879,-175.781,31.738,-81.055
1573889414.305,48.340,35.645,286.133,58.105,92.285
1573889414.309,58.594,45.410,273.926,58.105,166.992
1573889414.313,44.434,47.852,-262.207,40.527,-24.902
1573889414.317,37.598,46.387,-328.613,43.945,-134.766
1573889414.321,51.758,45.898,80.566,70.801,41.992
1573889414.325,61.035,47.852,240.234,74.707,186.523
1573889414.329,49.805,51.758,-74.219,51.758,69.824
1573889414.333,41.016,56.152,-564.453,42.480,-110.352
1573889414.337,42.480,55.176,-121.094,51.758,-11.230
1573889414.340,59.082,57.129,482.422,69.824,181.152
1573889414.344,61.523,54.688,-9.766,57.617,80.078
1573889414.348,44.434,47.852,-456.543,34.180,-119.629
1573889414.352,50.293,51.758,-30.762,52.734,-77.637
1573889414.356,70.801,59.082,388.672,79.590,106.445
1573889414.360,67.871,58.105,80.078,69.336,116.699
1573889414.364,52.734,47.852,-355.957,46.875,-63.965
1573889414.368,52.246,38.574,-258.301,54.199,-102.539
1573889414.372,62.988,41.504,195.801,74.707,98.145
1573889414.376,68.848,49.805,4.395,73.242,141.602
1573889414.380,48.828,55.176,-603.027,43.457,-34.180
1573889414.383,38.086,62.500,-280.762,39.062,-100.098
1573889414.387,50.781,65.430,307.617,68.848,25.879
1573889414.391,59.082,61.035,313.477,75.684,146.973
1573889414.395,47.363,53.223,-73.242,49.316,41.992
1573889414.399,31.738,47.852,-116.699,33.691,-85.449
1573889414.403,42.480,48.828,250.977,55.176,7.324
1573889414.407,58.105,51.758,372.559,73.242,143.555
1573889414.411,50.781,57.617,57.617,51.758,88.379
1573889414.415,37.598,57.617,-285.156,29.297,-54.688
1573889414.419,41.016,52.246,-188.477,33.691,-52.734
1573889414.423,54.199,50.781,-133.789,47.852,73.242
1573889414.426,52.246,52.734,-175.781,40.039,118.164
1573889414.430,36.133,51.270,-160.645,16.113,-21.484
1573889414.434,33.203,50.293,-149.902,23.926,-103.027
1573889414.438,46.875,57.129,204.102,53.711,56.641
1573889414.442,50.781,57.129,338.867,55.176,157.227
1573889414.446,42.969,43.945,-27.832,35.645,9.277
1573889414.450,32.715,33.691,-265.625,26.855,-139.648
1573889414.454,34.668,31.250,166.016,43.457,15.137
1573889414.458,48.828,34.180,437.500,56.641,165.039
1573889414.462,44.922,32.227,-10.254,41.016,71.777
1573889414.465,34.668,22.949,-504.883,27.832,-88.867
1573889414.469,42.480,26.855,-311.523,44.434,-63.965
1573889414.473,55.176,38.574,400.879,62.988,137.207
1573889414.477,50.293,34.180,338.867,50.781,126.953
1573889414.481,30.762,30.273,-138.672,28.320,-75.195
1573889414.485,22.949,31.250,142.578,31.738,-86.914
1573889414.489,39.062,22.949,715.332,49.805,102.051
1573889414.493,43.945,21.973,551.270,42.480,126.953
1573889414.497,26.367,22.949,62.012,15.137,-36.133
1573889414.501,20.020,20.508,203.125,12.695,-97.656
1573889414.505,31.738,18.555,635.254,35.156,41.992
1573889414.508,32.715,16.113,495.117,36.621,129.395
1573889414.512,19.043,13.672,-189.453,7.812,-4.883
1573889414.516,7.812,15.625,-170.410,-7.812,-125.977
1573889414.520,10.254,29.785,590.820,11.719,-18.066
1573889414.524,20.508,26.367,805.664,21.973,156.738
1573889414.528,14.648,10.742,405.762,2.441,89.844
1573889414.532,-0.977,9.766,272.949,-20.508,-66.406
1573889414.536,5.371,13.672,510.742,-5.371,-38.086
1573889414.540,27.344,16.602,692.383,26.367,125.000
1573889414.544,27.344,25.391,521.973,19.531,133.301
1573889414.548,6.348,24.414,234.375,-4.395,-47.852
1573889414.551,9.766,22.949,439.941,9.277,-71.289
1573889414.555,36.621,27.344,599.121,45.410,62.012
1573889414.559,38.086,24.414,322.754,47.852,117.676
1573889414.563,24.902,20.996,56.152,28.320,-23.926
1573889414.567,24.414,26.367,203.125,30.273,-118.164
1573889414.571,39.062,28.809,395.996,56.152,27.832
1573889414.575,48.828,27.344,307.129,61.035,139.160
1573889414.579,32.227,26.855,145.020,33.691,14.160
1573889414.583,17.090,18.066,57.129,20.996,-109.863
1573889414.587,21.973,18.066,329.590,37.109,-25.879
1573889414.590,32.227,25.879,460.449,48.340,118.164
1573889414.594,21.484,23.926,153.320,28.809,82.031
1573889414.598,6.348,23.438,-102.051,10.254,-85.938
1573889414.602,10.254,26.367,6.836,23.438,-77.637
1573889414.606,21.973,25.391,238.281,37.598,95.703
1573889414.610,23.438,22.461,198.730,27.344,124.023
1573889414.614,10.254,24.902,-167.480,9.766,-48.340
1573889414.618,6.348,26.367,-206.543,13.184,-110.352
1573889414.622,14.648,23.438,282.715,25.391,55.664
1573889414.626,10.742,22.949,412.598,17.090,164.062
1573889414.630,-1.953,20.996,-125.488,-10.254,21.484
1573889414.633,-7.812,23.438,-564.453,-20.020,-124.023
1573889414.637,6.348,22.461,6.836,7.812,10.742
1573889414.641,22.949,19.531,470.703,26.367,183.105
1573889414.645,16.602,23.926,33.203,5.859,87.891
1573889414.649,5.859,15.625,-374.023,-1.953,-94.727
1573889414.653,20.020,7.812,-82.520,24.902,-27.832
1573889414.657,40.527,11.230,246.582,41.992,159.180
1573889414.661,39.062,10.254,-254.883,26.367,101.074
1573889414.665,23.438,11.230,-746.582,6.836,-102.051
1573889414.669,25.391,18.066,-198.730,23.438,-86.914
1573889414.673,44.434,22.949,301.270,49.805,88.379
1573889414.676,43.945,20.020,60.547,38.086,125.000
1573889414.680,24.902,15.625,-271.484,10.254,-11.719
1573889414.684,18.066,16.113,-111.816,14.160,-78.125
1573889414.688,30.273,12.207,275.879,38.086,80.078
1573889414.692,37.109,13.184,166.992,40.039,158.203
1573889414.696,26.367,18.066,-326.660,17.578,21.973
1573889414.700,11.230,15.625,-365.723,5.859,-53.223
1573889414.704,15.625,11.719,-28.320,19.043,32.715
1573889414.708,28.809,17.578,-122.070,24.902,142.090
1573889414.712,17.090,27.832,-329.590,6.348,62.012
1573889414.715,1.465,24.902,-271.484,-8.301,-73.730
1573889414.719,10.254,20.508,-18.555,9.277,-23.926
1573889414.723,23.926,21.484,280.762,28.320,132.812
1573889414.727,16.113,20.508,129.395,11.719,101.074
1573889414.731,-0.977,19.531,-206.055,-8.789,-88.379
1573889414.735,3.906,23.438,-72.754,2.930,-97.168
1573889414.739,26.367,30.762,302.246,33.203,77.148
1573889414.743,49.316,35.645,212.402,50.781,138.184
1573889414.747,38.574,46.875,-282.715,24.414,-20.020
1573889414.751,20.020,41.504,-327.637,7.812,-103.516
1573889414.755,32.715,28.320,182.617,31.738,35.156
1573889414.758,39.062,30.762,395.508,35.156,143.555
1573889414.762,28.809,29.785,-84.961,15.137,-0.488
1573889414.766,19.043,23.438,-579.102,6.348,-156.738
1573889414.770,22.461,22.461,-213.379,26.855,-30.762
1573889414.774,29.785,30.762,450.195,39.062,168.945
1573889414.778,22.461,34.180,263.184,15.137,126.465
1573889414.782,12.695,36.133,-111.328,0.977,-46.875
1573889414.786,21.484,38.086,162.109,25.879,-54.199
1573889414.790,33.203,30.273,364.746,46.387,92.285
1573889414.794,21.973,29.297,18.066,26.855,105.957
1573889414.798,6.836,29.297,-524.902,-2.930,-46.387
1573889414.801,6.836,24.902,-301.270,-0.977,-86.914
1573889414.805,18.066,23.926,430.176,20.020,75.195
1573889414.809,22.461,22.461,338.867,19.043,154.297
1573889414.813,7.324,15.137,-117.676,-4.395,1.465
1573889414.817,0.000,16.602,-166.016,-6.836,-125.977
1573889414.821,4.883,29.297,180.664,10.742,9.766
1573889414.825,14.160,34.180,330.078,17.090,160.156
1573889414.829,5.371,29.785,-2.930,-3.906,67.383
1573889414.833,-8.301,24.414,-49.316,-17.090,-53.223
1573889414.837,5.859,19.531,162.598,10.254,-18.066
1573889414.840,22.461,18.555,9.277,31.738,104.492
1573889414.844,15.625,16.602,-436.035,14.648,60.547
1573889414.848,2.441,18.555,-437.012,-2.441,-106.445
1573889414.852,9.766,18.555,-8.789,15.625,-79.102
1573889414.856,30.273,22.461,305.664,42.480,112.793
1573889414.860,37.598,33.691,153.320,36.133,137.207
1573889414.864,15.625,34.668,-129.395,9.766,-29.297
1573889414.868,19.531,30.762,-35.156,14.160,-81.543
1573889414.872,42.969,27.344,257.812,39.551,64.941
1573889414.876,41.504,24.414,148.438,42.480,143.555
1573889414.880,26.855,20.996,-202.148,18.066,3.418
1573889414.883,17.090,22.949,-269.043,4.883,-84.473
1573889414.887,29.297,31.738,-227.539,28.809,15.137
1573889414.891,36.621,33.691,-57.129,36.621,132.324
1573889414.895,23.926,29.785,-50.781,12.695,60.547
1573889414.899,8.301,19.531,-264.648,-1.465,-79.590
1573889414.903,12.695,9.766,1.953,13.672,-13.672
1573889414.907,20.996,14.648,431.152,24.902,169.922
1573889414.911,14.648,24.414,248.047,4.883,146.973
1573889414.915,8.301,28.809,-269.043,-10.254,-57.617
1573889414.919,3.906,28.320,-140.137,2.930,-62.012
1573889414.923,13.672,24.902,342.285,23.438,106.445
1573889414.926,20.508,17.090,118.652,14.160,129.395
1573889414.930,8.789,11.230,-441.406,-7.324,-14.648
1573889414.934,6.836,12.695,-454.102,0.488,-86.426
1573889414.938,25.391,20.020,-78.613,29.297,23.438
1573889414.942,30.273,23.438,105.957,30.762,122.070
1573889414.946,19.043,20.996,-399.902,9.766,3.418
1573889414.950,13.184,15.137,-617.676,4.883,-121.094
1573889414.954,23.438,16.113,101.562,34.668,-1.465
1573889414.958,36.133,24.414,379.395,51.758,154.785
1573889414.962,29.785,27.344,-24.414,29.785,80.566
1573889414.965,17.578,23.438,-264.648,22.461,-87.891
1573889414.969,20.020,23.438,108.398,39.062,-41.016
1573889414.973,31.738,24.902,366.699,46.875,125.488
1573889414.977,36.133,20.020,-39.062,31.738,108.887
1573889414.981,22.949,19.043,-461.426,12.207,-46.387
1573889414.985,20.996,24.414,-199.707,19.043,-62.988
1573889414.989,37.109,24.414,112.305,42.480,69.824
1573889414.993,41.016,18.555,-288.574,39.062,110.840
1573889414.997,21.484,19.043,-511.230,14.160,-17.578
1573889415.001,16.602,21.484,-119.629,12.207,-80.078
1573889415.005,31.738,21.973,238.770,31.250,53.711
1573889415.008,39.551,30.273,219.727,39.551,151.367
1573889415.012,20.508,33.691,-43.945,12.695,38.574
1573889415.016,3.906,25.879,-100.098,-3.418,-86.914
1573889415.020,11.719,23.438,119.141,21.484,-17.090
1573889415.024,23.438,22.461,119.629,37.598,115.723
1573889415.028,22.461,17.578,-205.566,21.973,71.289
1573889415.032,10.742,20.508,-399.414,5.371,-108.887
1573889415.036,16.113,22.461,-291.016,18.066,-104.492
1573889415.040,29.785,19.531,-39.551,35.156,97.656
1573889415.044,28.320,19.043,64.453,27.344,134.277
1573889415.048,19.043,20.508,-268.066,14.648,-42.480
1573889415.051,19.043,20.020,-112.793,20.020,-68.848
1573889415.055,33.203,22.949,360.840,40.527,85.938
1573889415.059,34.668,26.367,338.867,35.645,134.766
1573889415.063,13.672,21.484,-132.812,4.883,-21.973
1573889415.067,10.254,19.531,-185.059,5.371,-98.145
1573889415.071,26.367,23.926,174.316,30.762,33.691
1573889415.075,33.203,27.832,181.152,37.598,135.742
1573889415.079,25.391,23.926,-245.117,16.113,29.785
1573889415.083,11.719,19.043,-673.340,0.000,-130.859
1573889415.087,19.043,24.902,-195.801,19.531,-46.387
1573889415.090,41.992,30.273,424.805,39.551,135.254
1573889415.094,38.574,20.996,22.461,22.949,64.453
1573889415.098,17.578,19.531,-416.016,-2.441,-131.348
1573889415.102,15.137,29.297,9.766,3.418,-60.059
1573889415.106,33.691,29.297,504.395,30.273,127.930
1573889415.110,41.992,27.344,214.355,29.785,98.633
1573889415.114,25.879,22.949,-166.016,5.371,-62.500
1573889415.118,20.020,20.996,-47.363,13.184,-106.934
1573889415.122,41.016,26.855,405.273,47.363,66.895
1573889415.126,50.781,28.809,382.324,51.270,158.203
1573889415.130,42.969,33.203,-88.867,30.273,1.953
1573889415.133,30.273,34.180,201.172,22.949,-83.008
1573889415.137,31.738,28.320,658.691,39.551,30.762
1573889415.141,42.480,24.902,543.945,48.340,151.367
1573889415.145,28.320,21.973,224.609,24.902,62.500
1573889415.149,21.484,23.438,234.863,15.137,-105.469
1573889415.153,33.203,29.297,578.613,40.039,-51.270
1573889415.157,48.340,40.039,752.930,57.129,133.301
1573889415.161,45.410,32.715,477.051,40.527,120.605
1573889415.165,25.391,24.414,155.762,22.461,-54.688
1573889415.169,17.090,21.973,277.344,27.832,-69.824
1573889415.173,30.273,20.020,360.840,41.992,83.008
1573889415.176,29.297,24.902,256.348,27.832,119.141
1573889415.180,12.207,27.832,283.203,3.418,-9.766
1573889415.184,12.695,30.273,328.125,13.184,-84.473
1573889415.188,22.461,31.738,598.633,34.668,30.762
1573889415.192,23.438,30.762,772.461,26.855,164.551
1573889415.196,12.695,24.902,436.035,0.000,45.410
1573889415.200,6.348,18.066,166.016,-1.953,-107.910
1573889415.204,18.066,18.555,485.352,20.020,5.371
1573889415.208,33.691,19.531,719.238,32.227,154.785
1573889415.212,32.227,21.973,185.547,21.484,40.527
1573889415.215,26.855,24.414,-387.207,11.719,-121.094
1573889415.219,32.715,22.461,-135.254,29.297,-48.340
1573889415.223,40.527,22.461,483.398,43.457,122.070
1573889415.227,38.574,22.949,466.797,33.691,142.578
1573889415.231,27.832,21.973,-9.277,16.113,-49.316
1573889415.235,23.926,25.879,123.047,22.461,-83.496
1573889415.239,38.574,28.320,662.109,47.852,117.188
1573889415.243,44.434,26.367,534.180,44.922,168.457
1573889415.247,24.902,18.066,48.828,18.066,28.320
1573889415.251,17.578,17.090,18.555,17.578,-74.707
1573889415.255,31.738,24.414,439.941,41.992,53.223
1573889415.258,30.762,18.555,366.211,41.016,164.551
1573889415.262,12.207,16.113,-546.875,10.254,-1.465
1573889415.266,1.465,19.531,-696.289,-5.859,-134.766
1573889415.270,15.625,23.926,95.703,20.996,4.395
1573889415.274,32.227,31.250,222.168,38.574,149.902
1573889415.278,24.414,32.227,-81.543,15.625,92.773
1573889415.282,4.883,28.320,-154.785,-6.348,-62.500
1573889415.286,14.160,35.645,135.742,12.207,-58.594
1573889415.290,40.039,44.434,356.934,43.945,104.492
1573889415.294,27.344,36.133,70.801,24.414,109.375
1573889415.298,6.836,27.344,-182.129,-3.418,-25.879
1573889415.301,5.859,20.996,-11.230,1.953,-62.988
1573889415.305,5.859,15.137,108.398,13.672,65.918
1573889415.309,18.066,16.113,-161.621,19.531,117.676
1573889415.313,14.160,16.602,-437.012,8.301,-22.949
1573889415.317,-2.930,14.160,-295.410,-1.465,-108.887
1573889415.321,7.324,16.602,-162.598,18.066,0.977
1573889415.325,23.926,18.555,-312.500,30.273,108.887
1573889415.329,14.648,18.555,-414.551,10.742,42.969
1573889415.333,5.371,21.973,-440.918,4.395,-98.145
1573889415.337,15.625,22.461,-110.352,29.297,-40.527
1573889415.340,23.438,14.160,247.070,41.016,148.926
1573889415.344,20.020,11.719,102.051,21.973,114.258
1573889415.348,12.695,16.602,-240.723,8.789,-42.480
1573889415.352,15.625,17.090,-188.965,21.484,-47.852
1573889415.356,28.320,13.672,67.383,38.086,94.727
1573889415.360,23.926,7.812,75.684,25.391,130.859
1573889415.364,7.324,4.883,-290.039,1.953,-40.527
1573889415.368,6.836,15.137,-366.699,9.277,-108.887
1573889415.372,22.949,26.367,224.121,33.203,65.918
1573889415.376,25.391,20.020,416.016,28.809,164.551
1573889415.380,9.277,6.348,-110.352,0.000,21.484
1573889415.383,5.859,11.230,-521.973,0.977,-107.422
1573889415.387,19.043,18.066,23.438,31.738,35.156
1573889415.391,32.715,15.625,451.172,43.945,166.504
1573889415.395,24.902,18.066,-18.555,21.484,32.227
1573889415.399,8.789,21.484,-365.723,2.930,-118.164
1573889415.403,17.578,21.973,-73.242,19.043,-53.223
1573889415.407,29.785,20.996,396.973,35.645,130.859
1573889415.411,24.902,20.020,66.895,19.531,115.234
1573889415.415,15.625,22.461,-606.934,-1.953,-94.727
1573889415.419,14.160,24.414,-100.098,6.836,-73.242
1573889415.423,29.297,23.438,540.527,32.227,122.559
1573889415.426,35.645,21.973,270.020,30.762,133.789
1573889415.430,20.508,21.484,-173.340,8.789,-50.293
1573889415.434,15.137,23.438,-11.719,11.230,-113.770
1573889415.438,30.273,26.367,423.340,37.109,62.012
1573889415.442,41.992,27.344,344.727,42.480,168.945
1573889415.446,33.691,32.227,-219.727,25.879,15.625
1573889415.450,30.273,38.574,-253.418,26.855,-83.496
1573889415.454,40.039,31.250,248.535,46.875,35.156
1573889415.458,47.363,23.926,265.625,50.781,140.137
1573889415.462,38.574,24.414,-25.879,30.762,61.035
1573889415.465,27.344,29.297,-124.023,23.926,-98.633
1573889415.469,37.109,34.668,43.457,42.969,-69.824
1573889415.473,52.734,36.621,41.992,57.617,98.633
1573889415.477,46.875,37.598,-69.336,44.922,104.492
1573889415.481,27.344,34.180,-104.492,18.066,-31.738
1573889415.485,24.902,30.762,-66.406,23.926,-83.984
1573889415.489,37.598,28.809,199.707,46.875,51.270
1573889415.493,36.621,25.879,102.051,34.668,125.977
1573889415.497,17.090,25.879,-392.578,7.324,-29.785
1573889415.501,12.207,26.855,-538.086,5.371,-120.117
1573889415.505,24.902,26.367,-173.828,28.809,28.809
1573889415.508,31.250,25.879,241.211,38.574,151.367
1573889415.512,20.996,20.996,-12.207,15.625,27.344
1573889415.516,15.137,22.949,-288.574,7.324,-121.582
1573889415.520,29.785,27.344,103.027,34.668,-23.926
1573889415.524,39.062,25.391,432.129,47.363,136.230
1573889415.528,37.598,27.344,94.727,29.297,83.984
1573889415.532,21.484,21.973,-304.199,11.719,-92.285
1573889415.536,22.461,20.020,-93.262,24.902,-96.680
1573889415.540,42.480,25.391,194.336,44.922,83.008
1573889415.544,41.504,26.855,-96.191,35.156,105.957
1573889415.548,25.391,25.391,-692.383,8.789,-68.359
1573889415.551,16.113,26.855,-500.000,8.301,-104.980
1573889415.555,28.320,28.809,167.969,34.180,53.711
1573889415.559,32.227,29.785,140.137,31.250,143.066
1573889415.563,17.090,26.367,-258.301,7.324,5.859
1573889415.567,13.184,21.973,-165.039,6.348,-106.934
1573889415.571,27.344,27.344,337.402,31.738,39.062
1573889415.575,43.945,28.809,338.867,43.945,165.039
1573889415.579,36.133,23.926,-160.645,21.484,40.527
1573889415.583,21.973,26.855,-248.047,7.812,-102.051
1573889415.587,33.691,26.367,2.441,29.297,-34.180
1573889415.590,43.457,20.020,-36.133,38.086,122.559
1573889415.594,32.715,19.531,-471.191,17.578,61.523
1573889415.598,19.531,22.949,-437.988,3.906,-82.520
1573889415.602,22.949,25.391,-23.438,22.949,-81.055
1573889415.606,34.180,26.367,265.625,46.875,91.797
1573889415.610,32.715,26.367,83.496,39.062,141.602
1573889415.614,17.578,26.367,-276.367,17.578,-17.578
1573889415.618,12.207,21.484,-51.270,19.531,-49.805
1573889415.622,22.949,18.066,248.535,43.945,56.152
1573889415.626,22.461,18.555,204.102,44.922,134.277
1573889415.630,16.113,17.090,-59.082,18.555,35.645
1573889415.633,18.555,22.949,-250.000,19.043,-84.961
1573889415.637,32.227,26.367,-251.953,45.898,1.465
1573889415.641,42.969,23.438,-41.504,52.734,139.648
1573889415.645,35.156,21.973,17.578,28.809,98.145
1573889415.649,26.855,24.414,-230.957,15.625,-61.523
1573889415.653,38.574,18.555,-46.387,40.039,-42.969
1573889415.657,52.734,14.648,364.746,58.105,132.324
1573889415.661,45.898,17.578,170.410,41.504,106.445
1573889415.665,32.715,17.578,-274.902,20.020,-52.246
1573889415.669,32.715,17.578,-216.797,28.809,-72.754
1573889415.673,39.551,20.508,253.418,47.363,75.684
1573889415.676,40.039,24.902,222.656,38.574,119.629
1573889415.680,26.367,22.949,-320.312,10.742,-41.016
1573889415.684,16.113,23.926,-359.375,3.906,-89.844
1573889415.688,22.461,24.902,175.293,24.414,54.199
1573889415.692,29.297,19.531,374.023,27.832,145.508
1573889415.696,20.020,10.742,-326.660,5.371,-6.348
1573889415.700,12.207,13.672,-718.750,1.465,-145.508
1573889415.704,24.902,25.879,-0.977,29.785,-16.602
1573889415.708,40.527,32.715,312.988,45.410,130.371
1573889415.712,26.855,30.762,-77.148,24.902,76.172
1573889415.715,7.812,24.414,-303.711,6.836,-94.238
1573889415.719,16.113,24.902,67.871,25.879,-65.918
1573889415.723,30.762,23.438,316.406,46.875,116.211
1573889415.727,33.203,25.879,-92.285,34.668,115.234
1573889415.731,20.508,32.715,-473.145,13.672,-48.828
1573889415.735,19.043,29.785,-213.867,18.066,-81.055
1573889415.739,40.527,28.809,298.340,42.969,104.004
1573889415.743,49.316,28.320,-73.242,40.527,141.113
1573889415.747,35.645,21.973,-449.219,16.113,-21.484
1573889415.751,27.344,18.555,-97.168,18.555,-95.703
1573889415.755,43.457,19.531,272.949,43.457,38.086
1573889415.758,55.176,19.531,313.965,47.852,158.691
1573889415.762,45.898,21.973,84.473,26.367,55.664
1573889415.766,34.180,23.926,25.879,17.578,-82.031
1573889415.770,36.621,21.484,341.797,33.691,-0.977
1573889415.774,43.945,19.043,468.262,38.574,168.945
1573889415.778,35.156,17.090,92.773,16.602,103.516
1573889415.782,17.578,13.672,-81.055,-6.348,-67.383
1573889415.786,19.043,16.113,111.816,0.977,-48.340
1573889415.790,29.785,17.578,257.324,20.508,88.379
1573889415.794,23.438,22.949,408.691,11.230,126.465
1573889415.798,10.254,23.438,218.750,-12.695,-33.691
1573889415.801,7.324,16.602,281.250,-8.301,-77.148
1573889415.805,25.391,21.484,737.305,18.066,90.332
1573889415.809,30.273,24.902,736.328,20.020,140.625
1573889415.813,12.207,20.508,301.758,-0.977,1.953
1573889415.817,7.324,21.973,182.129,-4.395,-102.539
1573889415.821,26.367,30.273,463.867,21.484,1.465
1573889415.825,38.086,33.203,568.848,30.273,150.879
1573889415.829,25.391,21.973,220.703,4.883,73.242
1573889415.833,18.066,19.531,-241.211,0.488,-113.770
1573889415.837,30.273,22.949,83.984,24.902,-49.805
1573889415.840,45.410,22.461,709.473,42.480,149.414
1573889415.844,46.875,22.461,452.148,32.715,103.516
1573889415.848,34.668,21.484,47.852,17.090,-77.637
1573889415.852,34.668,23.926,443.848,25.391,-43.457
1573889415.856,48.340,26.855,875.977,44.922,142.090
1573889415.860,44.922,25.391,565.430,37.109,144.043
1573889415.864,26.855,30.273,128.906,11.719,-15.137
1573889415.868,21.484,32.715,133.301,13.672,-67.871
1573889415.872,26.855,22.949,496.094,31.250,86.426
1573889415.876,34.180,20.020,365.234,27.832,160.156
1573889415.880,24.902,21.973,-339.844,4.883,-13.184
1573889415.883,16.602,25.391,-149.414,1.465,-103.027
1573889415.887,30.762,28.809,456.543,27.344,15.625
1573889415.891,42.969,30.762,434.570,38.086,122.070
1573889415.895,34.668,24.414,-92.773,20.020,30.762
1573889415.899,18.066,19.043,-182.129,6.348,-89.355
1573889415.903,26.855,20.508,284.668,24.902,3.906
1573889415.907,41.504,21.973,446.777,42.480,149.414
1573889415.911,38.574,21.484,172.852,32.715,119.141
1573889415.915,27.832,25.879,-216.797,23.438,-45.410
1573889415.919,19.531,22.949,-184.082,25.391,-78.613
1573889415.923,32.715,19.531,-62.012,40.527,75.195
1573889415.926,38.574,24.902,-61.035,40.039,148.438
1573889415.930,26.367,25.879,-119.141,22.461,-11.719
1573889415.934,26.367,28.320,-153.809,30.273,-104.492
1573889415.938,38.086,27.832,162.109,47.852,42.969
1573889415.942,47.363,26.855,341.309,51.270,163.574
1573889415.946,32.227,23.926,-40.039,24.902,54.688
1573889415.950,23.438,20.996,-421.387,11.719,-115.723
1573889415.954,39.062,19.043,-71.777,34.668,-20.508
1573889415.958,42.969,20.020,319.824,41.016,166.992
1573889415.962,24.902,20.508,-48.340,16.113,111.328
1573889415.965,11.719,18.555,-661.133,-4.395,-90.332
1573889415.969,18.066,20.020,-581.055,7.324,-96.191
1573889415.973,29.297,21.973,51.758,28.809,92.773
1573889415.977,24.902,20.508,63.965,18.555,112.793
1573889415.981,11.230,19.531,-338.867,-5.859,-41.992
1573889415.985,11.230,26.855,-162.109,3.418,-69.336
1573889415.989,30.762,29.297,314.941,36.621,74.219
1573889415.993,35.645,19.531,208.008,39.551,130.859
1573889415.997,22.949,20.508,-304.688,17.090,-29.297
1573889416.001,21.484,25.391,-292.480,19.043,-125.977
1573889416.005,34.180,25.391,227.051,43.457,20.996
1573889416.008,46.387,23.438,140.625,49.316,126.465
1573889416.012,32.227,21.973,-464.355,26.367,7.812
1573889416.016,18.555,22.949,-480.957,17.090,-111.328
1573889416.020,28.809,23.438,177.246,37.598,1.953
1573889416.024,47.363,28.809,423.340,58.594,148.926
1573889416.028,42.969,31.250,-322.754,39.062,34.668
1573889416.032,26.855,29.785,-536.621,18.066,-115.234
1573889416.036,35.645,30.762,128.906,37.598,-52.246
1573889416.040,50.781,26.367,384.277,56.152,103.516
1573889416.044,45.410,23.438,134.277,40.527,119.141
1573889416.048,28.320,25.879,-71.777,13.672,-24.414
1573889416.051,26.367,27.344,195.801,19.531,-41.504
1573889416.055,40.527,30.762,335.449,42.969,93.750
1573889416.059,40.039,22.461,-23.926,35.645,105.957
1573889416.063,21.973,12.695,-264.648,5.859,-20.996
1573889416.067,12.695,14.648,-122.559,3.418,-101.074
1573889416.071,20.996,16.113,180.664,23.926,-0.488
1573889416.075,32.227,25.391,311.523,32.715,153.320
1573889416.079,23.438,25.391,112.793,12.695,60.059
1573889416.083,15.137,24.414,-77.637,-4.395,-96.680
1573889416.087,28.320,30.273,158.691,18.555,-35.156
1573889416.090,35.156,23.926,403.809,35.156,132.324
1573889416.094,25.391,16.602,240.723,18.555,119.141
1573889416.098,17.090,17.090,-144.531,5.859,-73.242
1573889416.102,22.949,20.996,-122.070,23.438,-82.520
1573889416.106,36.621,25.391,131.836,45.898,88.379
1573889416.110,41.504,36.621,191.406,41.992,145.020
1573889416.114,30.273,36.621,-105.469,20.020,-5.859
1573889416.118,28.320,34.180,-296.387,22.461,-95.703
1573889416.122,38.574,31.738,78.613,44.434,43.457
1573889416.126,41.016,24.902,348.633,42.480,161.621
1573889416.130,33.691,21.973,-64.941,21.973,46.387
1573889416.133,29.297,27.344,-484.863,15.625,-90.332
1573889416.137,37.598,35.645,19.531,38.086,14.648
1573889416.141,52.734,39.062,419.434,52.734,151.367
1573889416.145,43.457,34.668,-53.711,27.832,60.059
1573889416.149,22.949,27.344,-398.926,8.301,-75.684
1573889416.153,27.832,29.785,-145.508,27.344,-39.551
1573889416.157,41.504,29.785,233.887,43.457,117.676
1573889416.161,41.504,27.344,-78.125,28.320,114.258
1573889416.165,24.902,25.391,-641.602,3.906,-74.219
1573889416.169,20.996,26.855,-108.887,11.230,-62.500
1573889416.173,38.574,30.273,440.918,38.574,107.422
1573889416.176,43.457,25.879,202.637,36.133,160.645
1573889416.180,24.902,20.996,-275.879,10.254,-26.367
1573889416.184,15.625,23.438,-142.090,8.789,-105.957
1573889416.188,30.273,31.250,292.480,37.598,56.152
1573889416.192,39.062,32.715,145.508,41.016,139.648
1573889416.196,27.832,27.344,-345.703,18.066,29.785
1573889416.200,18.066,24.414,-444.336,17.578,-89.844
1573889416.204,33.203,31.250,18.555,42.969,1.465
1573889416.208,48.828,37.109,-22.461,52.246,133.789
1573889416.212,36.621,29.297,-292.969,27.832,87.402
1573889416.215,24.902,26.855,-199.219,11.230,-63.965
1573889416.219,33.203,28.809,22.949,26.855,-41.504
1573889416.223,43.945,22.949,284.668,44.434,141.602
1573889416.227,38.086,20.508,175.293,30.762,133.301
1573889416.231,22.461,21.973,-206.543,7.324,-25.879
1573889416.235,19.043,29.297,-268.555,13.184,-79.590
1573889416.239,28.809,31.250,170.410,31.250,69.824
1573889416.243,35.645,27.344,124.023,30.762,153.320
1573889416.247,20.996,22.949,-312.012,5.371,-7.812
1573889416.251,11.719,14.648,-395.508,0.000,-96.191
1573889416.255,27.832,12.207,-187.988,20.996,22.461
1573889416.258,36.621,19.043,211.914,25.879,161.621
1573889416.262,27.344,17.578,11.230,5.371,55.176
1573889416.266,15.625,15.137,-315.918,-8.789,-117.676
1573889416.270,25.391,13.184,41.992,13.672,-28.809
1573889416.274,38.086,12.207,410.156,38.086,137.207
1573889416.278,30.762,17.578,62.012,28.809,76.172
1573889416.282,17.090,16.602,-326.172,13.672,-73.242
1573889416.286,14.160,18.555,11.719,26.855,-35.156
1573889416.290,29.785,28.320,216.797,57.129,80.078
1573889416.294,34.668,26.855,-116.211,54.688,105.469
1573889416.298,22.461,13.184,-676.270,26.367,-49.805
1573889416.301,25.879,9.766,-520.508,27.832,-119.629
1573889416.305,40.039,16.602,270.508,47.852,70.801
1573889416.309,45.898,19.531,210.938,48.828,149.414
1573889416.313,34.668,21.484,-232.422,28.320,18.555
1573889416.317,24.902,23.926,-120.605,19.531,-70.801
1573889416.321,33.691,25.879,319.824,38.086,39.062
1573889416.325,41.504,21.973,297.852,46.387,150.391
1573889416.329,24.902,16.113,-153.320,21.484,45.898
1573889416.333,12.207,23.926,-283.691,5.371,-113.770
1573889416.337,22.461,33.691,-49.805,26.367,-41.992
1573889416.340,36.133,38.574,85.449,41.992,133.789
1573889416.344,29.785,32.227,-151.855,21.484,98.633
1573889416.348,10.742,21.484,-405.762,-5.859,-69.824
1573889416.352,9.277,25.391,-2.441,4.883,-63.965
1573889416.356,26.367,26.367,104.980,27.832,67.871
1573889416.360,25.879,20.508,-292.480,17.578,87.891
1573889416.364,5.371,18.555,-317.383,-3.418,-40.039
1573889416.368,3.906,21.484,-106.445,4.395,-104.004
1573889416.372,18.555,19.531,190.918,27.832,37.109
1573889416.376,22.461,19.531,257.324,29.785,157.227
1573889416.380,18.066,24.414,-37.109,12.695,39.062
1573889416.383,11.230,18.066,-302.246,3.418,-106.934
1573889416.387,22.461,19.531,-304.688,23.438,-22.949
1573889416.391,39.551,29.297,-66.895,41.016,126.465
1573889416.395,33.203,25.391,-4.395,25.879,79.102
1573889416.399,25.391,19.043,-243.164,11.719,-74.219
1573889416.403,34.180,19.531,-87.891,28.320,-27.344
1573889416.407,46.875,16.602,328.613,49.805,147.949
1573889416.411,43.945,15.625,216.309,36.621,127.441
1573889416.415,27.344,23.926,-187.500,17.090,-35.645
1573889416.419,21.973,29.785,-71.289,24.902,-66.406
1573889416.423,36.621,26.367,359.863,47.363,84.961
1573889416.426,38.086,19.043,334.961,41.504,159.180
1573889416.430,20.996,17.090,-154.785,12.207,8.301
1573889416.434,19.531,18.555,-360.352,12.207,-127.441
1573889416.438,27.344,20.996,184.570,35.645,31.738
1573889416.442,26.367,24.902,571.777,35.156,189.453
1573889416.446,16.113,26.855,-102.539,11.719,12.207
1573889416.450,7.324,26.367,-501.465,2.930,-148.438
1573889416.454,16.113,22.949,288.574,23.926,-11.230
1573889416.458,22.461,20.020,563.477,34.180,131.348
1573889416.462,15.137,26.855,72.266,15.625,41.504
1573889416.465,7.812,33.203,-27.344,8.301,-102.539
1573889416.469,13.184,30.762,433.105,27.344,-52.734
1573889416.473,30.273,33.691,745.117,44.434,110.352
1573889416.477,31.250,28.320,381.348,30.762,108.887
1573889416.481,12.695,18.066,-107.422,2.930,-73.730
1573889416.485,19.531,24.414,240.234,14.648,-80.078
1573889416.489,41.504,30.762,815.430,46.875,123.535
1573889416.493,43.457,27.344,408.691,41.504,163.574
1573889416.497,30.762,20.020,41.504,13.184,21.484
1573889416.501,21.484,16.113,349.609,14.160,-69.336
1573889416.505,38.574,20.508,599.609,42.969,20.020
1573889416.508,45.898,30.762,610.352,47.852,145.020
1573889416.512,30.762,33.203,390.137,25.879,65.918
1573889416.516,20.508,28.809,244.629,17.090,-50.781
1573889416.520,25.879,27.344,457.520,29.785,-1.465
1573889416.524,36.133,24.414,525.879,39.551,122.070
1573889416.528,21.484,21.484,144.531,15.625,82.520
1573889416.532,-1.953,20.020,-10.254,-11.230,-62.012
1573889416.536,5.371,22.949,106.445,4.883,-71.289
1573889416.540,23.926,22.949,252.930,26.855,94.727
1573889416.544,20.020,24.902,394.043,16.113,142.090
1573889416.548,2.441,21.973,105.957,-5.859,-45.898
1573889416.551,-0.977,19.043,29.785,-0.488,-118.652
1573889416.555,14.160,24.902,412.598,23.438,47.363
1573889416.559,19.043,24.414,511.230,21.484,152.344
1573889416.563,16.602,28.320,104.492,5.859,19.043
1573889416.567,15.625,33.691,-14.648,10.254,-84.473
1573889416.571,28.320,32.227,243.652,29.297,12.207
1573889416.575,42.969,30.762,301.270,40.527,150.879
1573889416.579,32.227,31.250,-143.066,26.367,58.594
1573889416.583,20.020,34.180,-448.730,12.695,-116.699
1573889416.587,30.273,31.250,41.992,31.250,-46.387
1573889416.590,46.875,33.203,489.746,50.781,134.766
1573889416.594,44.434,29.297,140.137,40.527,110.352
1573889416.598,36.621,22.461,-527.344,21.973,-72.266
1573889416.602,42.969,28.809,-232.910,34.668,-85.449
1573889416.606,61.035,35.645,384.277,63.477,83.496
1573889416.610,61.523,34.180,159.668,54.688,119.141
1573889416.614,40.527,24.414,-347.656,20.996,-49.316
1573889416.618,36.621,25.391,-316.406,21.484,-108.887
1573889416.622,50.293,28.809,68.848,44.434,38.574
1573889416.626,53.711,30.273,-64.941,40.527,138.672
1573889416.630,38.574,27.832,-647.949,14.648,0.000
1573889416.633,26.855,29.297,-430.176,12.207,-105.469
1573889416.637,35.645,35.645,169.434,37.109,-1.465
1573889416.641,46.875,38.086,191.895,45.410,122.559
1573889416.645,41.992,40.527,-138.184,25.391,69.336
1573889416.649,23.438,33.203,-227.539,8.301,-74.707
1573889416.653,26.855,30.762,34.668,22.461,-46.875
1573889416.657,41.016,36.621,208.496,40.527,105.469
1573889416.661,33.691,31.250,30.762,25.879,114.746
1573889416.665,19.043,23.926,-357.422,4.883,-47.852
1573889416.669,16.113,25.879,-257.812,15.137,-70.801
1573889416.673,32.227,29.297,-167.480,34.668,58.105
1573889416.676,33.691,25.879,-507.812,25.879,86.426
1573889416.680,16.113,26.855,-443.848,5.859,-21.484
1573889416.684,14.160,32.227,-173.340,9.766,-66.895
1573889416.688,27.344,33.203,253.418,34.668,93.750
1573889416.692,40.039,29.785,482.422,42.480,194.824
1573889416.696,27.344,25.391,147.461,17.090,72.754
1573889416.700,15.625,27.344,-115.723,7.324,-78.125
1573889416.704,29.297,30.762,76.172,31.250,-41.504
1573889416.708,35.645,24.414,388.672,40.527,134.766
1573889416.712,26.367,20.996,57.129,23.438,97.656
1573889416.715,16.113,23.438,-487.793,6.348,-81.543
1573889416.719,16.602,21.484,-337.891,17.090,-62.012
1573889416.723,25.391,23.926,349.609,36.621,137.695
1573889416.727,21.973,25.879,361.328,21.973,147.949
1573889416.731,3.418,24.902,-165.039,-4.883,-59.082
1573889416.735,-1.953,25.879,18.555,0.977,-72.266
1573889416.739,9.766,26.855,536.621,20.508,95.215
1573889416.743,14.648,22.949,273.438,18.555,127.930
1573889416.747,0.488,20.996,-176.758,-5.371,8.301
1573889416.751,-0.977,25.391,-8.301,-7.812,-64.453
1573889416.755,12.695,31.738,491.211,23.438,59.570
1573889416.758,18.555,34.180,369.629,32.227,154.785
1573889416.762,10.742,30.273,-226.074,8.789,25.391
1573889416.766,7.812,30.273,-269.043,6.348,-125.000
1573889416.770,22.949,27.344,246.582,34.668,-29.785
1573889416.774,38.574,27.344,413.086,50.293,140.137
1573889416.778,33.203,28.809,-104.004,34.180,81.543
1573889416.782,13.184,27.344,-272.949,10.742,-72.266
1573889416.786,18.066,30.273,149.414,25.879,-58.105
1573889416.790,39.062,31.738,355.469,55.664,107.910
1573889416.794,31.738,27.344,-63.965,38.574,126.953
1573889416.798,11.719,26.855,-405.762,10.742,-45.410
1573889416.801,9.766,31.738,-164.062,16.602,-90.332
1573889416.805,22.461,37.109,76.172,32.227,52.734
1573889416.809,24.414,33.203,-41.992,26.855,145.508
1573889416.813,11.719,26.855,-111.816,0.488,36.621
1573889416.817,10.254,31.250,-77.637,-4.883,-102.051
1573889416.821,26.855,34.180,131.348,20.020,-2.930
1573889416.825,36.133,26.855,179.688,26.855,149.414
1573889416.829,20.020,24.902,-27.344,4.395,78.125
1573889416.833,9.277,30.273,-135.742,-3.418,-62.500
1573889416.837,20.508,33.691,59.082,16.113,-32.227
1573889416.840,28.320,30.273,320.801,28.809,131.836
1573889416.844,20.508,24.902,199.219,16.602,136.230
1573889416.848,11.719,25.879,-180.176,2.930,-54.199
1573889416.852,19.531,30.273,-212.891,16.602,-90.332
1573889416.856,33.691,32.715,41.016,40.039,87.402
1573889416.860,36.133,37.598,7.324,39.062,146.973
1573889416.864,28.809,39.062,-323.242,20.508,-23.438
1573889416.868,20.508,29.785,-491.699,15.137,-94.238
1573889416.872,23.438,25.879,4.883,29.297,73.730
1573889416.876,39.062,32.715,345.215,43.457,165.527
1573889416.880,30.762,31.250,-136.230,25.391,26.855
1573889416.883,-3.906,19.043,-345.703,-2.930,-109.375
1573889416.887,-4.883,19.531,137.207,8.789,0.000
1573889416.891,17.090,22.461,335.938,24.902,141.602
1573889416.895,13.184,20.508,-119.141,10.742,59.082
1573889416.899,-4.883,20.996,-443.848,-6.348,-79.590
1573889416.903,-3.418,23.926,-172.363,9.277,-31.250
1573889416.907,13.184,28.320,295.898,26.855,159.180
1573889416.911,20.508,31.250,-36.621,19.043,143.555
1573889416.915,12.207,28.809,-660.645,-3.906,-67.383
1573889416.919,8.789,25.391,-150.879,-0.977,-62.012
1573889416.923,23.926,27.832,450.195,22.949,120.117
1573889416.926,25.879,27.344,177.246,16.113,140.137
1573889416.930,12.207,30.273,-251.953,-4.395,-14.648
1573889416.934,8.301,34.668,-97.656,1.465,-86.426
1573889416.938,21.484,37.109,282.227,25.879,44.922
1573889416.942,31.738,33.691,278.320,33.203,167.969
1573889416.946,25.391,28.809,-235.352,17.090,43.457
1573889416.950,22.461,34.668,-478.027,12.207,-116.211
1573889416.954,37.109,34.180,3.906,31.250,-14.648
1573889416.958,52.246,29.297,-0.488,48.828,130.859
1573889416.962,40.527,24.414,-354.004,32.715,51.758
1573889416.965,23.438,22.949,-292.480,11.719,-103.516
1573889416.969,29.297,28.320,-135.742,28.320,-81.055
1573889416.973,39.062,28.320,183.594,51.758,114.258
1573889416.977,34.180,27.344,187.500,39.062,134.277
1573889416.981,20.508,33.691,-185.059,15.137,-64.453
1573889416.985,20.508,30.273,-166.504,21.973,-103.516
1573889416.989,36.133,19.531,218.262,43.457,74.707
1573889416.993,38.086,16.113,47.363,41.504,116.211
1573889416.997,22.461,20.508,-345.703,15.137,-13.672
1573889417.001,12.695,26.855,-394.043,6.348,-100.098
1573889417.005,25.879,30.762,-266.113,25.879,-15.625
1573889417.008,34.668,30.273,139.160,29.297,141.602
1573889417.012,20.020,20.996,28.809,3.418,73.730
1573889417.016,14.160,21.484,-266.602,-8.789,-95.215
1573889417.020,24.902,23.926,69.824,11.230,-25.879
1573889417.024,35.645,21.973,360.352,25.879,145.508
1573889417.028,28.320,22.949,17.578,11.230,95.703
1573889417.032,14.648,27.344,-272.461,-6.348,-72.754
1573889417.036,22.949,22.949,-51.758,7.812,-68.359
1573889417.040,38.574,14.160,193.848,32.715,88.867
1573889417.044,44.922,20.020,-55.664,34.180,113.770
1573889417.048,40.039,23.926,-513.672,15.137,-67.871
1573889417.051,25.879,28.809,-241.699,6.348,-105.469
1573889417.055,27.832,36.133,435.547,22.461,85.938
1573889417.059,35.156,35.156,328.125,22.461,160.645
1573889417.063,28.809,36.133,-429.199,5.371,-15.625
1573889417.067,14.160,31.738,-434.570,-0.488,-141.602
1573889417.071,13.184,23.926,221.680,17.578,4.395
1573889417.075,23.926,22.949,367.676,31.250,166.992
1573889417.079,19.043,23.438,-48.340,10.254,62.012
1573889417.083,2.441,27.344,-282.227,-5.859,-98.633
1573889417.087,9.277,28.809,8.301,13.672,-36.133
1573889417.090,23.926,30.273,70.801,29.297,105.957
1573889417.094,13.672,28.320,-358.887,10.254,74.707
1573889417.098,-5.859,21.973,-341.797,-9.766,-59.570
1573889417.102,-1.953,25.391,92.773,5.371,-66.895
1573889417.106,15.625,36.133,395.020,31.738,91.797
1573889417.110,20.508,33.203,282.715,29.785,144.531
1573889417.114,20.020,41.504,-9.277,15.625,-16.602
1573889417.118,36.133,62.988,41.504,31.738,-96.680
1573889417.122,64.941,76.172,350.098,69.336,41.992
1573889417.126,80.078,76.660,430.664,79.102,154.297
1573889417.130,66.895,69.824,154.785,52.246,38.086
1573889417.133,48.828,61.035,-94.238,35.156,-97.168
1573889417.137,53.711,54.199,85.938,51.758,-17.090
1573889417.141,65.918,53.223,436.523,66.406,149.902
1573889417.145,53.711,46.875,330.078,47.363,89.355
1573889417.149,43.945,45.898,63.965,37.109,-77.637
1573889417.153,56.641,45.898,47.852,55.664,-39.062
1573889417.157,67.871,41.992,431.152,66.406,139.648
1573889417.161,66.406,39.551,533.203,55.176,142.578
1573889417.165,54.688,33.691,131.348,33.203,-25.391
1573889417.169,53.711,38.086,164.062,37.598,-84.961
1573889417.173,73.242,47.363,613.770,62.012,64.941
1573889417.176,80.078,47.363,605.469,63.477,122.559
1573889417.180,57.129,40.527,-78.125,30.762,-56.152
1573889417.184,42.480,36.621,-174.805,18.066,-107.910
1573889417.188,52.734,36.133,591.309,41.016,56.152
1573889417.192,57.617,33.691,718.262,47.363,153.809
1573889417.196,46.387,32.227,97.656,26.367,31.250
1573889417.200,30.762,33.691,-65.430,10.254,-118.652
1573889417.204,33.691,30.273,528.809,25.391,-11.230
1573889417.208,46.387,27.832,759.766,43.945,144.043
1573889417.212,35.645,30.762,278.809,21.973,58.105
1573889417.215,18.555,27.832,14.648,-1.465,-91.797
1573889417.219,17.578,21.973,359.863,16.602,-59.082
1573889417.223,35.645,23.926,625.977,41.016,95.703
1573889417.227,41.992,23.926,268.066,35.156,109.375
1573889417.231,29.297,17.090,-257.812,13.672,-64.453
1573889417.235,24.414,15.625,-98.633,19.043,-116.211
1573889417.239,41.504,19.531,359.375,48.828,35.645
1573889417.243,45.410,20.996,4.395,48.340,94.238
1573889417.247,30.762,23.926,-416.992,22.461,-37.598
1573889417.251,27.832,28.809,-178.223,20.508,-114.258
1573889417.255,42.969,26.855,121.094,43.945,-2.441
1573889417.258,58.105,28.320,236.328,56.641,129.395
1573889417.262,46.387,34.668,94.727,32.715,61.523
1573889417.266,31.250,34.180,-55.176,18.555,-89.844
1573889417.270,37.598,30.273,167.480,34.668,-26.855
1573889417.274,43.945,24.902,205.078,41.992,106.445
1573889417.278,30.762,22.949,-157.227,20.020,75.684
1573889417.282,14.160,23.926,-315.430,-1.953,-76.172
1573889417.286,16.602,22.949,-212.402,6.836,-91.309
1573889417.290,27.832,21.484,-85.938,26.855,69.336
1573889417.294,27.344,21.973,61.035,22.461,117.188
1573889417.298,14.160,23.438,-134.766,0.488,-32.227
1573889417.301,9.277,27.832,-151.367,3.418,-95.703
1573889417.305,24.902,26.855,131.348,25.391,37.598
1573889417.309,27.832,20.996,98.145,25.879,118.164
1573889417.313,11.719,22.461,-229.492,3.906,1.465
1573889417.317,6.836,26.855,-262.695,-1.465,-80.566
1573889417.321,17.578,29.785,61.523,17.090,47.852
1573889417.325,25.879,29.785,98.633,27.832,171.387
1573889417.329,18.066,28.809,-248.535,12.207,64.941
1573889417.333,10.254,28.320,-737.305,-4.883,-120.605
1573889417.337,17.578,28.809,-388.184,13.672,-52.246
1573889417.340,33.691,35.156,314.941,42.480,152.344
1573889417.344,36.621,35.645,12.207,36.133,117.676
1573889417.348,25.879,29.297,-396.484,14.648,-57.617
1573889417.352,26.855,32.715,-90.820,25.391,-69.824
1573889417.356,42.969,36.133,344.238,48.828,102.539
1573889417.360,47.363,33.203,179.199,42.480,158.691
1573889417.364,34.668,29.297,-298.340,18.066,-4.883
1573889417.368,36.133,29.785,-330.566,23.438,-90.332
1573889417.372,52.734,36.133,70.801,49.316,62.988
1573889417.376,58.594,39.551,145.996,49.316,179.688
1573889417.380,41.504,42.969,-137.695,23.438,70.801
1573889417.383,26.855,43.945,-163.086,11.230,-90.820
1573889417.387,37.109,40.039,278.809,36.621,-0.977
1573889417.391,46.387,36.621,245.605,46.387,155.273
1573889417.395,23.926,27.344,-318.359,10.742,74.707
1573889417.399,3.906,19.531,-267.578,-11.230,-80.566
1573889417.403,14.648,19.043,114.258,11.719,-53.223
1573889417.407,24.902,22.949,328.613,28.320,113.281
1573889417.411,18.555,23.926,123.047,5.859,98.633
1573889417.415,5.859,19.531,-262.695,-12.207,-62.012
1573889417.419,1.953,15.137,-206.055,-4.395,-91.309
1573889417.423,11.719,14.648,-82.520,15.137,38.574
1573889417.426,11.230,20.508,-40.527,11.230,128.418
1573889417.430,-0.488,27.832,-21.484,-9.277,-4.883
1573889417.434,-0.977,33.203,-65.918,-3.418,-115.723
1573889417.438,15.625,34.668,316.895,25.879,44.922
1573889417.442,30.273,30.273,561.523,41.504,184.570
1573889417.446,22.949,21.973,230.469,24.414,65.430
1573889417.450,9.766,18.066,-57.129,12.695,-90.820
1573889417.454,15.625,15.625,251.465,29.785,-1.953
1573889417.458,32.715,12.207,478.027,45.410,157.227
1573889417.462,31.738,20.020,94.238,33.203,115.234
1573889417.465,10.254,19.043,-456.055,6.836,-90.332
1573889417.469,12.207,16.113,-435.547,15.137,-112.305
1573889417.473,28.320,20.508,294.434,38.086,118.164
1573889417.477,26.855,21.484,259.277,27.832,138.672
1573889417.481,11.230,25.391,-213.867,7.324,-35.645
1573889417.485,6.348,22.461,-46.387,12.207,-90.332
1573889417.489,20.020,22.949,393.066,40.039,46.875
1573889417.493,28.320,26.367,382.812,44.434,149.902
1573889417.497,16.113,20.020,-96.191,13.672,10.742
1573889417.501,3.418,19.043,-147.949,1.953,-104.004
1573889417.505,20.020,26.367,347.656,26.367,37.109
1573889417.508,38.086,28.320,296.387,38.086,144.043
1573889417.512,20.508,21.484,-520.508,8.301,7.324
1573889417.516,-2.930,18.066,-717.773,-13.184,-153.320
1573889417.520,4.883,29.297,1.953,8.301,-66.895
1573889417.524,26.367,38.086,338.867,28.809,129.395
1573889417.528,20.996,38.086,23.926,14.160,102.051
1573889417.532,4.395,29.297,-260.742,-4.883,-64.941
1573889417.536,8.301,20.996,-73.242,8.301,-68.359
1573889417.540,23.926,21.484,327.637,36.621,129.395
1573889417.544,27.344,18.555,144.531,27.832,153.320
1573889417.548,20.020,26.855,-175.293,6.836,-19.531
1573889417.551,27.344,37.598,-25.879,18.555,-83.984
1573889417.555,43.945,25.391,120.605,41.992,57.617
1573889417.559,41.016,10.742,-74.707,35.156,148.438
1573889417.563,22.461,11.719,-193.848,13.672,32.715
1573889417.567,13.672,15.625,-95.215,10.742,-72.754
1573889417.571,22.949,23.438,99.121,29.785,16.113
1573889417.575,35.156,26.367,160.645,41.504,145.020
1573889417.579,19.043,23.926,1.953,16.113,75.195
1573889417.583,6.836,23.926,-229.492,-3.418,-101.562
1573889417.587,17.090,21.973,23.438,16.602,-39.551
1573889417.590,26.367,23.926,261.230,31.738,147.949
1573889417.594,22.461,22.461,55.176,17.578,123.047
1573889417.598,5.859,18.555,-249.512,-0.977,-63.965
1573889417.602,6.348,22.461,-190.918,8.301,-77.148
1573889417.606,17.090,26.855,106.445,20.996,102.539
1573889417.610,13.184,24.414,16.602,7.324,127.930
1573889417.614,0.000,19.531,-294.434,-15.137,-33.691
1573889417.618,-5.371,23.438,-529.785,-20.020,-125.977
1573889417.622,8.301,21.484,-159.180,0.977,-1.465
1573889417.626,20.996,19.043,240.723,15.137,125.977
1573889417.630,13.672,24.902,-170.410,-1.465,13.672
1573889417.633,0.488,34.668,-354.492,-6.836,-119.141
1573889417.637,8.789,37.598,158.203,20.996,-19.043
1573889417.641,19.043,23.926,467.285,35.156,157.715
1573889417.645,10.254,21.484,111.816,20.996,114.746
1573889417.649,-4.395,23.926,-360.840,5.371,-67.871
1573889417.653,-6.836,20.996,-181.152,12.695,-58.105
1573889417.657,10.742,29.297,302.246,31.738,106.934
1573889417.661,15.137,35.156,-36.621,23.438,104.004
1573889417.665,5.859,30.273,-631.348,-2.930,-72.754
1573889417.669,11.719,29.785,-316.406,8.301,-115.723
1573889417.673,26.367,29.785,191.406,35.645,42.480
1573889417.676,27.344,29.297,133.789,29.297,124.023
1573889417.680,17.578,33.691,-167.969,7.324,8.789
1573889417.684,15.137,40.039,-83.984,7.324,-100.098
1573889417.688,23.438,40.039,228.516,27.344,-3.418
1573889417.692,27.832,33.691,217.285,26.855,127.441
1573889417.696,12.695,30.273,-201.660,3.418,40.039
1573889417.700,2.441,39.551,-374.512,-5.371,-102.051
1573889417.704,10.742,40.527,-37.109,18.555,-38.574
1573889417.708,21.973,29.297,21.484,32.227,129.883
1573889417.712,14.648,32.715,-197.266,8.789,87.402
1573889417.715,2.930,39.062,-125.488,-9.766,-68.848
1573889417.719,10.254,36.621,149.414,5.371,-28.809
1573889417.723,25.391,38.086,434.082,25.879,145.996
1573889417.727,21.973,35.645,383.301,15.625,169.434
1573889417.731,8.789,32.227,47.363,-4.395,0.488
1573889417.735,14.648,34.668,-26.855,9.277,-83.984
1573889417.739,29.785,34.180,292.480,33.203,67.871
1573889417.743,41.504,39.062,208.008,39.062,164.062
1573889417.747,30.762,37.109,-219.727,18.066,18.555
1573889417.751,17.090,29.297,-392.090,8.301,-121.582
1573889417.755,24.414,31.250,-196.289,27.832,-11.719
1573889417.758,36.621,33.203,201.172,37.109,150.391
1573889417.762,29.297,26.855,-30.273,20.508,54.199
1573889417.766,17.090,29.297,-245.605,10.742,-104.492
1573889417.770,16.602,34.180,83.984,21.973,-61.035
1573889417.774,17.578,31.250,524.414,26.855,140.625
1573889417.778,17.578,29.297,352.539,17.090,149.414
1573889417.782,2.930,22.461,-157.715,-3.418,-70.801
1573889417.786,8.301,24.902,-10.254,4.883,-100.586
1573889417.790,28.320,32.227,250.000,37.598,46.387
1573889417.794,26.367,29.785,-21.484,25.391,71.777
1573889417.798,13.184,24.902,-618.652,-7.324,-77.148
1573889417.801,10.254,22.949,-563.477,-5.371,-158.691
1573889417.805,21.973,28.809,302.246,17.090,14.160
1573889417.809,35.645,34.180,389.160,23.438,117.188
1573889417.813,30.762,32.227,-87.891,5.859,-20.996
1573889417.817,18.555,27.832,-41.016,-2.441,-105.957
1573889417.821,34.668,34.668,460.449,28.320,5.371
1573889417.825,53.223,38.574,555.176,44.434,116.699
1573889417.829,33.203,31.738,247.559,16.113,73.730
1573889417.833,17.090,29.297,179.688,1.465,-62.988
1573889417.837,30.273,30.273,447.266,20.508,-17.578
1573889417.840,41.016,31.738,470.215,35.645,136.230
1573889417.844,36.621,36.621,92.285,21.484,119.141
1573889417.848,15.625,34.180,39.551,-4.883,-41.992
1573889417.852,13.672,32.715,410.156,0.977,-61.035
1573889417.856,37.598,37.598,751.465,30.273,120.117
1573889417.860,45.410,41.992,641.602,34.180,165.527
1573889417.864,28.320,39.062,322.266,8.301,-1.465
1573889417.868,17.578,31.738,351.074,1.953,-83.008
1573889417.872,25.391,30.273,625.000,25.879,71.289
1573889417.876,24.902,31.738,594.727,28.809,170.898
1573889417.880,13.672,33.691,301.270,5.859,61.035
1573889417.883,14.160,31.738,43.945,3.906,-80.078
1573889417.887,27.344,31.250,239.746,28.320,-18.066
1573889417.891,34.668,27.832,577.148,34.180,143.066
1573889417.895,21.484,22.461,391.113,11.230,83.008
1573889417.899,9.277,25.391,75.195,-1.953,-85.938
1573889417.903,15.137,28.809,23.926,12.207,-53.711
1573889417.907,29.785,32.227,401.367,31.250,140.137
1573889417.911,32.227,34.668,448.242,24.414,125.000
1573889417.915,20.508,30.762,-38.574,3.418,-57.129
1573889417.919,17.578,26.367,34.668,7.812,-81.055
1573889417.923,32.715,27.344,522.461,37.598,79.590
1573889417.926,40.527,26.367,519.043,42.969,163.086
1573889417.930,26.367,20.996,-99.609,17.578,2.441
1573889417.934,21.484,21.484,-351.074,18.555,-119.141
1573889417.938,36.621,32.715,63.477,48.340,11.719
1573889417.942,44.434,39.062,395.508,54.199,166.016
1573889417.946,30.273,29.297,-53.223,27.344,68.848
1573889417.950,16.113,23.438,-602.051,9.277,-141.602
1573889417.954,22.461,28.320,-10.254,27.832,-63.965
1573889417.958,33.203,29.297,433.105,42.480,117.676
1573889417.962,22.949,27.832,4.395,23.926,58.594
1573889417.965,8.789,33.203,-336.426,4.883,-119.141
1573889417.969,9.766,34.180,73.242,13.672,-66.406
1573889417.973,21.973,31.738,480.957,31.738,133.789
1573889417.977,19.531,28.320,169.434,21.973,159.180
1573889417.981,1.953,25.391,-312.988,-1.465,9.277
1573889417.985,0.977,28.320,-379.395,-0.977,-107.910
1573889417.989,21.484,32.715,-60.059,24.414,28.320
1573889417.993,29.785,35.645,-275.391,28.809,112.793
1573889417.997,6.836,35.156,-602.539,0.000,-18.555
1573889418.001,-5.859,31.738,-205.078,-5.859,-62.988
1573889418.005,7.324,26.855,182.129,15.625,60.547
1573889418.008,12.695,26.855,189.453,23.926,162.598
1573889418.012,-1.465,25.879,-46.387,0.000,79.102
1573889418.016,-15.137,25.879,-172.363,-15.625,-61.035
1573889418.020,0.488,32.715,65.430,13.184,-14.160
1573889418.024,28.320,40.527,160.645,46.387,131.348
1573889418.028,31.250,47.852,-161.133,40.527,112.305
1573889418.032,20.020,45.898,-301.270,19.531,-51.270
1573889418.036,24.414,34.180,-219.727,23.438,-83.008
1573889418.040,43.457,38.086,-98.145,44.434,78.125
1573889418.044,47.363,39.551,-32.227,42.969,128.906
1573889418.048,31.738,35.156,-231.445,21.484,-25.879
1573889418.051,33.691,40.527,-178.711,21.484,-95.215
1573889418.055,45.898,42.480,293.945,43.945,79.102
1573889418.059,55.176,42.969,489.746,47.363,199.707
1573889418.063,41.992,40.527,52.734,26.367,48.340
1573889418.067,27.344,37.598,-137.207,19.043,-78.613
1573889418.071,41.504,39.551,41.992,43.457,-17.090
1573889418.075,49.316,42.969,129.883,57.617,114.258
1573889418.079,39.062,39.551,-104.980,38.574,61.523
1573889418.083,25.879,40.039,-396.973,20.020,-125.488
1573889418.087,21.973,41.016,10.742,28.320,-78.125
1573889418.090,29.297,38.086,454.102,41.992,121.582
1573889418.094,30.273,39.062,196.289,29.297,130.371
1573889418.098,19.043,33.203,-443.359,3.418,-53.711
1573889418.102,9.766,32.227,-145.508,5.859,-49.805
1573889418.106,21.484,38.574,630.371,30.273,139.160
1573889418.110,24.902,34.180,339.844,24.414,130.859
1573889418.114,5.859,28.320,-160.645,-7.324,-36.621
1573889418.118,3.906,31.250,-182.129,-4.395,-115.723
1573889418.122,22.949,37.598,258.789,27.832,41.504
1573889418.126,35.645,39.062,342.285,34.668,175.781
1573889418.130,27.832,36.133,-298.340,12.207,31.738
1573889418.133,14.160,37.598,-191.406,3.418,-88.379
1573889418.137,31.250,35.645,359.375,30.762,5.859
1573889418.141,49.805,34.180,473.145,49.316,160.645
1573889418.145,34.668,37.109,146.484,24.902,102.539
1573889418.149,17.090,40.527,-37.598,4.395,-64.941
1573889418.153,22.949,42.969,279.785,19.043,-10.742
1573889418.157,42.480,40.039,445.312,38.574,144.531
1573889418.161,42.480,41.016,146.973,28.809,115.723
1573889418.165,26.367,41.504,-261.230,10.254,-62.500
1573889418.169,26.855,42.480,-224.121,16.113,-102.051
1573889418.173,41.992,36.621,-79.590,37.109,47.852
1573889418.176,40.039,26.367,-111.328,31.250,121.094
1573889418.180,23.926,28.809,-124.512,6.836,-5.859
1573889418.184,22.461,32.715,-164.062,8.301,-113.281
1573889418.188,38.086,36.621,108.398,33.691,1.953
1573889418.192,41.992,37.598,368.652,36.133,160.645
1573889418.196,28.809,33.691,150.391,16.602,84.473
1573889418.200,12.695,25.879,-189.453,9.766,-82.031
1573889418.204,15.625,27.344,39.062,26.855,-14.160
1573889418.208,28.809,26.367,388.672,38.086,147.949
1573889418.212,20.996,27.344,14.648,15.625,94.238
1573889418.215,6.348,37.109,-574.707,-3.906,-83.008
1573889418.219,13.184,36.621,-522.949,10.742,-83.984
1573889418.223,29.297,34.668,111.328,33.203,86.426
1573889418.227,33.203,33.203,163.574,32.227,110.352
1573889418.231,15.625,30.762,-314.941,9.277,-60.059
1573889418.235,5.859,29.785,-243.652,12.207,-119.141
1573889418.239,21.973,29.785,258.789,40.527,34.668
1573889418.243,32.715,31.250,308.594,45.410,139.648
1573889418.247,21.484,35.156,-172.852,22.949,10.254
1573889418.251,12.207,39.062,-275.391,17.578,-114.746
1573889418.255,27.344,39.062,214.844,43.945,3.418
1573889418.258,41.016,34.668,235.352,53.223,136.230
1573889418.262,29.297,30.762,-516.602,25.391,20.508
1573889418.266,12.695,25.879,-732.422,4.395,-121.582
1573889418.270,13.184,25.391,-81.543,22.949,-31.738
1573889418.274,24.902,23.926,259.766,37.598,131.348
1573889418.278,16.602,18.066,-22.461,19.531,98.633
1573889418.282,-5.859,18.066,-310.059,-5.859,-92.773
1573889418.286,-4.395,23.926,-57.617,1.465,-105.469
1573889418.290,11.230,27.344,254.883,22.949,70.801
1573889418.294,7.324,26.367,112.305,13.184,128.906
1573889418.298,-8.301,25.391,-164.062,-9.277,-24.414
1573889418.301,-10.254,25.391,-130.859,-7.812,-108.887
1573889418.305,4.883,17.578,10.254,14.160,42.969
1573889418.309,7.324,14.160,-58.594,15.625,152.344
1573889418.313,-11.230,17.578,-233.887,-14.160,4.395
1573889418.317,-14.160,21.484,-230.469,-18.066,-131.836
1573889418.321,2.441,26.367,112.305,9.766,13.184
1573889418.325,20.508,24.902,199.219,23.926,166.992
1573889418.329,14.648,18.555,-89.844,9.277,76.660
1573889418.333,5.371,19.531,-311.035,-0.977,-116.699
1573889418.337,19.043,23.438,-135.254,21.973,-108.887
1573889418.340,32.715,20.996,175.781,41.504,75.684
1573889418.344,29.785,19.531,65.430,24.902,88.379
1573889418.348,20.996,22.461,-176.270,6.836,-40.039
1573889418.352,24.902,23.926,-124.023,19.043,-66.406
1573889418.356,39.062,24.414,76.172,40.527,68.848
1573889418.360,42.480,23.438,52.246,37.109,132.812
1573889418.364,31.738,18.066,-215.332,13.672,-14.160
1573889418.368,26.855,11.230,-565.430,11.230,-152.832
1573889418.372,30.273,15.137,-215.332,29.785,-26.367
1573889418.376,38.086,25.879,335.449,36.621,150.391
1573889418.380,31.738,25.879,17.578,16.113,78.125
1573889418.383,19.531,20.508,-238.281,7.812,-54.688
1573889418.387,25.879,25.879,220.215,26.367,14.648
1573889418.391,38.574,31.250,463.867,39.551,138.672
1573889418.395,27.344,26.367,15.137,17.578,70.312
1573889418.399,8.789,22.461,-459.473,-2.441,-111.328
1573889418.403,3.418,24.902,-297.852,9.766,-103.027
1573889418.407,16.113,23.926,209.961,29.297,104.004
1573889418.411,22.461,24.902,8.301,22.949,129.395
1573889418.415,2.441,28.320,-600.098,-7.324,-60.547
1573889418.419,-5.859,24.902,-207.031,-10.254,-85.938
1573889418.423,10.254,22.461,387.207,16.602,73.242
1573889418.426,20.996,26.367,240.234,20.020,138.672
1573889418.430,13.672,27.344,-194.824,-0.977,-13.184
1573889418.434,10.742,23.926,-88.867,0.488,-104.004
1573889418.438,28.320,25.879,284.180,27.344,32.227
1573889418.442,44.922,29.297,222.656,35.156,142.090
1573889418.446,40.039,26.855,-159.668,17.578,49.316
1573889418.450,31.250,22.949,-354.004,8.301,-95.215
1573889418.454,41.504,26.855,86.426,26.855,-7.324
1573889418.458,53.711,24.902,207.520,39.551,164.062
1573889418.462,45.898,28.809,-52.246,22.461,120.117
1573889418.465,32.715,35.645,-13.672,10.254,-71.777
1573889418.469,35.156,31.738,134.277,22.949,-102.051
1573889418.473,52.246,28.809,381.836,38.574,88.867
1573889418.477,49.805,20.996,443.359,21.973,155.273
1573889418.481,28.320,14.648,182.617,-4.395,-13.184
1573889418.485,22.461,16.602,135.742,-0.977,-96.191
1573889418.489,32.227,17.578,503.906,18.555,59.082
1573889418.493,36.621,18.555,509.277,16.113,159.668
1573889418.497,23.926,22.461,95.703,-5.859,41.016
1573889418.501,14.648,25.391,-131.836,-14.648,-96.680
1573889418.505,20.996,23.926,55.176,3.906,-23.926
1573889418.508,24.414,26.855,578.125,19.043,153.320
1573889418.512,20.020,32.715,376.953,3.418,66.406
1573889418.516,6.348,30.762,-37.598,-12.695,-123.047
1573889418.520,8.301,27.344,379.395,9.277,-50.781
1573889418.524,25.879,30.273,818.848,35.156,130.859
1573889418.528,25.879,31.738,522.949,22.461,94.238
1573889418.532,16.113,30.273,127.441,3.906,-58.105
1573889418.536,17.578,29.297,374.023,17.578,-56.152
1573889418.540,37.598,31.250,598.145,45.410,77.637
1573889418.544,40.527,36.133,424.316,41.016,141.113
1573889418.548,22.461,33.203,-159.180,8.789,-30.273
1573889418.551,20.996,28.809,-294.922,7.812,-143.555
1573889418.555,36.621,36.133,492.188,37.598,56.152
1573889418.559,46.387,41.016,639.648,43.945,175.781
1573889418.563,30.273,30.762,92.773,18.555,20.020
1573889418.567,12.207,21.484,75.195,3.418,-96.191
1573889418.571,20.508,21.484,531.738,23.926,12.207
1573889418.575,32.715,25.879,557.617,37.598,140.137
1573889418.579,20.020,26.855,160.156,12.207,76.172
1573889418.583,6.836,22.461,-36.621,-4.395,-94.727
1573889418.587,22.461,24.414,175.781,19.043,-46.875
1573889418.590,37.109,28.320,219.238,37.598,109.375
1573889418.594,22.949,25.879,-205.078,11.230,90.332
1573889418.598,7.324,24.902,-294.434,-12.207,-55.176
1573889418.602,12.695,31.250,93.262,3.906,-72.754
1573889418.606,26.367,31.250,393.066,22.949,86.914
1573889418.610,19.043,20.996,107.422,12.695,123.535
1573889418.614,-1.953,18.066,-211.426,-13.184,-17.578
1573889418.618,1.465,21.973,-61.035,-6.836,-90.820
1573889418.622,18.066,24.414,225.586,25.391,21.973
1573889418.626,26.855,23.926,322.754,34.668,154.785
1573889418.630,26.367,24.414,74.219,20.996,58.594
1573889418.633,22.949,22.461,-310.547,17.578,-117.188
1573889418.637,32.715,22.461,-147.461,41.016,-39.062
1573889418.641,45.410,32.227,244.629,57.617,139.160
1573889418.645,41.992,32.227,100.586,42.480,105.469
1573889418.649,25.879,18.066,-217.285,19.531,-64.941
1573889418.653,27.344,16.113,-379.395,24.902,-80.566
1573889418.657,45.410,21.484,-35.645,49.805,105.957
1573889418.661,45.898,28.809,105.469,46.875,126.465
1573889418.665,33.691,35.645,-398.926,25.391,-33.691
1573889418.669,30.273,33.691,-309.082,29.785,-51.758
1573889418.673,44.922,30.762,296.387,51.270,104.004
1573889418.676,51.758,30.762,360.840,49.805,184.082
1573889418.680,32.227,29.297,-315.430,21.484,7.812
1573889418.684,22.949,30.762,-518.555,14.648,-102.051
1573889418.688,30.273,28.809,73.730,31.250,25.879
1573889418.692,32.715,27.344,393.555,30.273,174.316
1573889418.696,26.855,31.738,-236.328,7.812,37.598
1573889418.700,11.719,28.809,-748.535,-13.184,-144.531
1573889418.704,8.301,27.832,-139.160,-1.953,-64.941
1573889418.708,15.625,30.762,328.125,8.301,115.234
1573889418.712,12.207,30.762,28.809,-5.371,104.980
1573889418.715,-0.977,25.391,-249.023,-17.090,-55.664
1573889418.719,6.836,20.996,137.695,2.441,-32.227
1573889418.723,29.297,25.879,325.684,33.691,98.145
1573889418.727,34.668,31.250,-28.809,31.250,120.117
1573889418.731,26.367,35.645,-328.613,13.672,-25.391
1573889418.735,27.344,35.645,-123.047,20.508,-114.746
1573889418.739,44.434,35.156,410.645,43.457,58.594
1573889418.743,53.711,37.598,82.520,47.363,147.461
1573889418.747,39.551,32.227,-510.742,26.855,-12.695
1573889418.751,28.809,26.367,-126.953,21.973,-95.215
1573889418.755,45.898,31.738,314.941,51.758,17.578
1573889418.758,58.594,36.133,375.000,64.453,148.438
1573889418.762,43.457,26.367,197.266,39.551,90.332
1573889418.766,24.414,20.996,45.898,20.508,-69.336
1573889418.770,27.344,25.879,235.352,36.621,-36.133
1573889418.774,40.039,24.902,334.961,50.781,126.465
1573889418.778,34.668,24.414,3.906,30.762,98.633
1573889418.782,20.996,32.715,-308.105,11.719,-64.941
1573889418.786,25.391,34.180,-175.781,20.996,-87.891
1573889418.790,36.133,26.855,256.836,38.086,71.777
1573889418.794,28.809,23.926,325.195,27.832,142.090
1573889418.798,4.395,26.367,22.461,0.977,-15.625
1573889418.801,-0.488,24.902,-227.051,-0.977,-117.676
1573889418.805,15.137,26.855,-81.543,22.461,16.113
1573889418.809,22.949,39.551,301.758,30.273,149.414
1573889418.813,6.348,36.621,85.938,5.859,50.293
1573889418.817,-9.766,27.832,-141.602,-0.488,-89.355
1573889418.821,5.371,26.367,139.160,26.367,6.348
1573889418.825,16.113,31.738,321.777,37.109,171.387
1573889418.829,12.695,36.133,4.395,22.949,87.891
1573889418.833,6.348,30.273,-520.996,10.254,-86.914
1573889418.837,16.113,35.156,-319.824,25.879,-64.453
1573889418.840,33.691,45.898,352.539,47.363,100.098
1573889418.844,24.414,41.016,215.820,30.273,128.906
1573889418.848,7.812,35.645,-231.445,3.418,-47.363
1573889418.852,5.371,29.297,35.156,8.301,-66.406
1573889418.856,17.578,23.438,490.723,28.809,101.562
1573889418.860,19.531,22.949,282.227,19.531,148.926
1573889418.864,0.000,22.461,-192.871,-11.719,-0.488
1573889418.868,-7.812,26.367,-296.387,-16.113,-101.562
1573889418.872,5.371,27.344,113.770,6.348,38.574
1573889418.876,12.207,23.926,153.320,13.184,156.738
1573889418.880,2.930,20.508,-490.234,-6.348,16.602
1573889418.883,-10.742,15.625,-377.441,-20.996,-100.098
1573889418.887,-8.301,11.719,203.125,-5.859,-5.371
1573889418.891,4.883,14.648,271.484,11.230,128.418
1573889418.895,-4.395,13.672,-8.789,-7.812,97.168
1573889418.899,-20.020,16.113,-161.133,-29.297,-66.406
1573889418.903,-14.160,25.391,17.090,-15.137,-83.008
1573889418.907,0.977,21.973,286.621,4.883,104.980
1573889418.911,0.488,17.578,172.363,-0.488,148.926
1573889418.915,-15.137,18.066,-311.035,-18.066,-36.621
1573889418.919,-15.137,20.020,-229.492,-12.207,-67.383
1573889418.923,6.348,25.879,11.719,11.719,89.355
1573889418.926,12.207,29.785,-63.965,10.742,150.879
1573889418.930,-0.977,26.367,-93.262,-8.301,22.949
1573889418.934,-10.254,18.555,-206.543,-12.695,-98.633
1573889418.938,4.883,21.484,32.227,7.324,2.441
1573889418.942,19.043,31.738,304.688,15.625,136.719
1573889418.946,8.789,24.414,-49.805,-2.930,42.480
1573889418.950,-0.488,13.672,-424.316,-11.719,-107.422
1573889418.954,6.836,13.672,-81.543,9.766,-49.316
1573889418.958,21.484,18.555,356.445,29.297,128.418
1573889418.962,19.531,21.973,91.797,14.648,122.070
1573889418.965,7.812,21.973,-535.156,-4.395,-88.867
1573889418.969,11.230,20.508,-524.414,4.395,-112.793
1573889418.973,16.113,18.555,205.078,15.137,114.746
1573889418.977,10.742,13.184,271.484,2.441,134.277
1573889418.981,0.488,9.766,-278.809,-23.438,-60.059
1573889418.985,-8.789,10.742,-180.664,-29.785,-93.262
1573889418.989,6.836,12.695,406.250,-1.953,83.984
1573889418.993,18.066,13.184,408.691,3.906,159.180
1573889418.997,-1.953,10.742,-190.430,-24.902,-12.695
1573889419.001,-17.090,12.695,-298.340,-37.109,-123.047
1573889419.005,-9.277,11.719,44.434,-18.066,-20.996
1573889419.008,0.000,13.672,149.414,-1.953,136.230
1573889419.012,-2.441,13.672,-426.270,-17.578,62.012
1573889419.016,-19.043,13.184,-635.254,-32.715,-94.727
1573889419.020,-22.949,17.578,100.586,-12.695,-20.508
1573889419.024,-3.418,17.090,391.602,13.672,132.324
1573889419.028,0.000,13.184,25.879,5.859,98.633
1573889419.032,-15.625,12.695,-223.633,-17.578,-68.359
1573889419.036,-13.184,16.113,52.734,-6.348,-78.613
1573889419.040,12.207,20.020,368.164,25.879,95.215
1573889419.044,17.578,17.578,206.055,20.996,139.648
1573889419.048,6.836,15.137,-129.883,-1.465,-26.367
1573889419.051,7.812,15.625,-113.281,8.301,-117.188
1573889419.055,19.531,15.625,175.293,30.273,43.945
1573889419.059,32.715,18.555,35.645,36.621,140.137
1573889419.063,17.578,17.090,-343.262,14.160,10.254
1573889419.067,4.883,20.996,-203.613,5.859,-97.168
1573889419.071,16.602,26.367,6.348,26.367,-22.461
1573889419.075,26.855,20.508,-63.477,30.762,120.117
1573889419.079,19.531,9.766,-97.656,13.672,79.590
1573889419.083,6.836,4.395,-216.797,0.977,-98.633
1573889419.087,6.836,8.301,-18.555,11.719,-62.012
1573889419.090,15.625,13.672,337.891,24.902,132.324
1573889419.094,13.672,18.066,258.789,15.137,146.484
1573889419.098,-0.977,20.020,-89.844,-4.883,-29.785
1573889419.102,-3.906,21.973,-143.066,0.488,-96.680
1573889419.106,10.742,23.926,86.426,21.973,54.688
1573889419.110,12.207,20.996,141.602,14.160,140.625
1573889419.114,-6.836,12.695,-100.586,-11.719,0.977
1573889419.118,-13.184,9.277,-408.203,-9.766,-117.188
1573889419.122,0.488,17.090,12.207,14.648,9.277
1573889419.126,1.953,16.113,542.480,17.578,161.621
1573889419.130,-12.695,11.230,216.309,-5.859,79.102
1573889419.133,-17.578,8.301,-74.219,-15.625,-95.215
1573889419.137,-6.348,14.160,420.410,7.324,0.000
1573889419.141,11.719,18.066,785.645,29.297,175.781
1573889419.145,6.836,12.695,356.445,13.672,94.727
1573889419.149,-7.812,14.160,-132.324,-3.418,-88.867
1573889419.153,0.488,19.531,119.629,13.672,-68.359
1573889419.157,15.137,20.020,701.660,28.809,111.816
1573889419.161,15.137,17.090,385.254,12.207,104.004
1573889419.165,0.488,13.672,-265.137,-14.648,-72.266
1573889419.169,0.000,6.836,117.188,-2.930,-114.746
1573889419.173,20.020,8.301,583.496,27.832,25.879
1573889419.176,22.949,17.090,490.234,24.414,139.648
1573889419.180,8.789,20.020,298.828,1.953,41.992
1573889419.184,-0.977,17.578,391.113,-2.930,-68.848
1573889419.188,10.254,17.578,727.051,19.531,30.273
1573889419.192,22.461,14.160,749.512,30.273,156.738
1573889419.196,14.648,7.812,240.234,9.766,51.270
1573889419.200,7.324,11.719,-113.770,-6.836,-130.371
1573889419.204,10.254,13.184,316.406,10.254,-61.035
1573889419.208,23.438,13.184,453.125,24.414,145.508
1573889419.212,16.602,13.184,36.133,8.301,106.934
1573889419.215,-0.488,15.137,34.668,-2.930,-76.172
1573889419.219,7.812,25.879,265.137,16.113,-79.590
1573889419.223,17.578,26.855,474.609,37.109,65.430
1573889419.227,8.789,18.555,505.371,24.902,146.484
1573889419.231,-4.395,11.230,143.555,5.371,6.836
1573889419.235,-2.930,14.160,60.059,12.695,-85.449
1573889419.239,12.695,21.484,480.957,31.738,64.453
1573889419.243,15.625,17.578,364.258,28.320,143.066
1573889419.247,-0.977,14.648,-34.668,1.953,33.203
1573889419.251,-4.395,15.625,-231.445,-1.465,-117.676
1573889419.255,13.672,15.625,-111.328,24.414,-29.297
1573889419.258,22.461,20.508,355.957,36.133,161.621
1573889419.262,7.812,21.484,215.820,16.602,88.867
1573889419.266,-1.465,19.531,-113.770,-0.977,-57.617
1573889419.270,10.254,21.484,151.367,17.090,-13.184
1573889419.274,21.973,21.973,537.109,32.715,154.297
1573889419.278,18.066,20.996,276.367,17.090,139.160
1573889419.282,4.883,24.414,-187.988,-0.977,-47.363
1573889419.286,7.812,34.668,-115.234,8.301,-85.449
1573889419.290,28.809,37.598,203.613,29.785,93.750
1573889419.294,27.344,32.227,137.695,23.438,166.504
1573889419.298,15.137,24.414,-591.797,-0.488,-29.297
1573889419.301,13.184,20.508,-645.020,-1.953,-98.145
1573889419.305,28.809,30.762,171.875,27.344,43.945
1573889419.309,41.992,36.133,245.117,37.598,135.742
1573889419.313,27.832,30.273,-315.918,13.672,8.789
1573889419.317,10.254,25.879,-420.410,-2.441,-147.949
1573889419.321,21.973,27.344,83.008,17.578,-33.203
1573889419.325,37.109,29.297,275.391,37.598,146.973
1573889419.329,24.414,29.297,-83.496,20.020,89.844
1573889419.333,7.812,25.391,-319.336,0.977,-99.121
1573889419.337,13.672,24.902,-134.277,17.578,-68.359
1573889419.340,30.273,30.762,18.066,37.598,103.516
1573889419.344,28.809,31.250,-236.816,24.414,83.496
1573889419.348,12.207,35.156,-366.211,2.441,-56.152
1573889419.352,6.348,29.785,-9.277,11.230,-78.125
1573889419.356,22.461,21.973,104.980,36.133,42.969
1573889419.360,29.297,24.902,-185.547,28.809,124.023
1573889419.364,5.371,27.344,-243.652,2.441,6.348
1573889419.368,-4.395,23.438,-82.031,5.371,-94.238
1573889419.372,11.719,19.043,221.680,30.762,32.227
1573889419.376,18.555,18.066,291.016,36.621,143.555
1573889419.380,14.160,16.602,14.648,16.602,41.992
1573889419.383,3.906,11.230,-233.887,3.906,-100.098
1573889419.387,11.230,10.254,-250.488,19.043,-43.945
1573889419.391,20.020,16.113,-27.832,31.250,106.934
1573889419.395,9.277,14.160,72.266,9.277,79.102
1573889419.399,1.465,16.113,-231.934,-3.906,-87.891
1573889419.403,4.395,19.043,-124.023,9.277,-93.750
1573889419.407,19.043,20.996,387.695,29.297,90.332
1573889419.411,30.762,20.996,378.906,30.762,135.254
1573889419.415,19.043,18.555,-125.977,5.859,-51.270
1573889419.419,15.625,22.461,-64.941,6.836,-91.797
1573889419.423,26.855,25.879,500.488,30.273,99.609
1573889419.426,28.809,26.367,548.828,32.715,178.223
1573889419.430,15.137,16.113,-154.297,8.301,5.371
1573889419.434,5.371,11.719,-586.914,-3.906,-134.766
1573889419.438,14.648,13.672,-31.250,21.484,-41.504
1573889419.442,20.996,12.695,455.566,32.715,148.438
1573889419.446,10.254,16.113,99.609,10.742,81.055
1573889419.450,-7.324,14.160,-211.914,-7.324,-110.352
1573889419.454,-5.371,17.090,273.438,5.371,-13.672
1573889419.458,10.742,21.484,543.457,25.391,171.387
1573889419.462,7.324,15.137,81.543,13.672,99.609
1573889419.465,-4.395,12.695,-287.598,-6.836,-101.562
1573889419.469,3.418,18.066,82.031,3.906,-71.777
1573889419.473,20.996,22.949,551.270,25.391,134.766
1573889419.477,22.949,19.043,260.254,18.555,159.180
1573889419.481,0.488,13.184,-333.008,-11.230,-29.297
1573889419.485,-9.277,18.066,-247.070,-17.090,-104.980
1573889419.489,13.184,19.531,345.703,12.695,74.707
1573889419.493,18.066,15.625,102.539,12.207,162.109
1573889419.497,-1.953,17.578,-395.996,-20.508,9.766
1573889419.501,-4.395,20.996,-149.414,-20.020,-97.656
1573889419.505,8.789,12.207,204.102,7.812,5.371
1573889419.508,20.508,9.277,275.879,20.996,137.695
1573889419.512,14.648,14.648,-7.812,2.930,86.914
1573889419.516,3.906,18.555,-234.863,-12.695,-52.734
1573889419.520,14.160,21.973,48.828,12.695,-23.926
1573889419.524,36.133,21.484,208.008,39.551,116.211
1573889419.528,30.273,16.113,-145.996,18.066,84.961
1573889419.532,7.812,11.719,-419.434,-8.789,-86.426
1573889419.536,8.789,15.137,-314.941,2.441,-112.793
1573889419.540,18.555,20.508,-72.266,20.996,62.012
1573889419.544,22.461,23.926,147.949,21.973,145.508
1573889419.548,7.324,22.461,-82.520,-1.465,-17.090
1573889419.551,-10.742,20.996,-293.945,-15.137,-131.348
1573889419.555,7.812,18.066,101.562,14.648,32.715
1573889419.559,14.648,14.160,405.762,22.949,175.781
1573889419.563,-0.977,19.043,18.066,-4.395,43.457
1573889419.567,-4.395,21.484,-229.492,-9.766,-73.242
1573889419.571,5.371,19.043,68.359,13.184,36.133
1573889419.575,15.625,19.043,226.562,25.879,160.156
1573889419.579,12.695,21.973,-175.293,11.230,62.500
1573889419.583,1.465,20.508,-766.113,-6.836,-143.066
1573889419.587,0.977,18.066,-448.730,0.000,-100.586
1573889419.590,10.254,18.555,389.160,19.043,133.789
1573889419.594,7.812,14.160,194.824,7.812,132.812
1573889419.598,3.418,17.090,-381.348,-9.277,-83.008
1573889419.602,3.418,23.438,-88.867,2.441,-79.102
1573889419.606,21.973,32.715,482.422,32.227,112.793
1573889419.610,36.133,34.180,293.457,39.062,160.156
1573889419.614,24.414,27.832,-209.473,15.625,4.395
1573889419.618,20.508,24.414,-363.281,11.230,-123.047
1573889419.622,37.598,26.855,57.129,39.551,26.855
1573889419.626,50.781,30.273,124.023,49.316,145.020
1573889419.630,38.574,29.297,-537.598,25.391,5.859
1573889419.633,28.320,33.691,-416.992,19.043,-102.539
1573889419.637,37.109,35.645,205.566,43.457,-12.695
1573889419.641,43.457,28.320,368.164,56.152,146.973
1573889419.645,38.574,21.973,61.035,36.621,111.328
1573889419.649,19.043,20.508,-128.906,15.137,-56.152
1573889419.653,18.555,20.020,91.797,20.996,-62.012
1573889419.657,37.109,22.461,304.688,40.039,90.820
1573889419.661,32.227,24.414,136.230,28.809,119.141
1573889419.665,8.789,24.414,-275.391,1.953,-35.645
1573889419.669,11.230,29.297,-367.676,11.230,-126.465
1573889419.673,25.879,35.156,-239.746,29.785,4.395
1573889419.676,18.555,30.273,-112.793,18.066,146.484
1573889419.680,5.859,23.438,-97.168,-6.348,28.809
1573889419.684,4.883,24.902,-290.527,-8.789,-117.676
1573889419.688,12.695,28.320,39.062,10.254,5.859
1573889419.692,21.484,33.203,347.656,18.066,139.648
1573889419.696,7.812,37.598,42.969,-4.883,42.480
1573889419.700,-9.277,27.832,-243.164,-21.484,-103.027
1573889419.704,-1.465,19.043,28.809,0.977,-44.434
1573889419.708,14.160,20.996,441.895,26.855,138.184
1573889419.712,14.648,22.949,85.938,17.090,102.539
1573889419.715,-0.488,20.996,-491.211,-0.488,-85.449
1573889419.719,1.953,19.043,-195.801,11.230,-72.754
1573889419.723,20.020,21.973,386.230,36.621,104.492
1573889419.727,23.438,23.438,414.062,31.738,172.852
1573889419.731,15.137,22.461,-236.328,8.301,-4.395
1573889419.735,11.230,20.996,-480.469,8.789,-121.582
1573889419.739,20.508,18.066,128.906,29.785,46.875
1573889419.743,26.855,20.996,262.207,34.180,161.133
1573889419.747,14.160,28.809,-101.562,11.719,43.945
1573889419.751,9.277,26.855,-155.762,5.859,-78.125
1573889419.755,15.137,17.578,291.016,25.879,14.648
1573889419.758,23.926,14.160,266.113,35.156,143.555
1573889419.762,14.648,16.602,-201.660,15.137,61.035
1573889419.766,-4.883,20.020,-322.266,-3.906,-108.398
1573889419.770,-5.371,23.926,62.500,6.836,-68.848
1573889419.774,8.301,21.484,403.809,24.414,117.676
1573889419.778,5.371,12.207,-157.715,6.348,97.168
1573889419.782,-15.625,10.742,-531.738,-24.902,-78.613
1573889419.786,-13.184,17.090,38.574,-17.090,-80.078
1573889419.790,10.254,25.391,474.609,12.207,98.145
1573889419.794,20.508,24.902,368.164,12.695,163.086
1573889419.798,10.742,20.996,13.184,-10.742,6.348
1573889419.801,0.488,21.973,83.984,-11.719,-95.215
1573889419.805,9.277,17.578,348.145,10.254,34.668
1573889419.809,16.602,13.672,108.887,16.113,126.465
1573889419.813,0.488,16.602,-10.254,-5.859,28.809
1573889419.817,-7.812,22.949,183.594,-10.254,-78.125
1573889419.821,10.254,27.832,497.559,21.484,5.859
1573889419.825,26.367,26.855,698.242,34.180,161.621
1573889419.829,11.230,24.414,530.273,9.766,124.512
1573889419.833,-1.465,29.785,261.230,-2.930,-57.129
1573889419.837,11.230,38.086,395.508,19.043,-62.500
1573889419.840,23.926,28.809,731.934,41.504,126.953
1573889419.844,21.973,19.043,600.586,33.203,135.742
1573889419.848,11.230,22.461,196.289,13.184,-49.316
1573889419.852,13.672,31.250,123.535,18.555,-112.305
1573889419.856,24.902,33.203,407.715,37.598,55.664
1573889419.860,26.855,29.785,384.766,36.621,137.207
1573889419.864,15.137,30.273,-25.879,15.625,-36.621
1573889419.868,10.254,25.879,-344.727,10.742,-175.781
1573889419.872,22.461,28.320,89.355,34.180,-27.344
1573889419.876,30.273,35.156,688.965,40.527,163.574
1573889419.880,21.973,30.273,306.152,15.137,60.059
1573889419.883,7.324,25.879,-4.883,-1.465,-102.539
1573889419.887,10.742,29.785,417.480,15.625,-25.391
1573889419.891,28.809,34.180,673.828,34.180,122.070
1573889419.895,23.926,29.297,289.551,18.555,79.102
1573889419.899,9.277,24.414,-146.973,-4.395,-75.684
1573889419.903,7.812,21.973,30.762,2.441,-68.359
1573889419.907,19.531,18.555,459.961,20.020,100.098
1573889419.911,31.250,20.508,170.410,17.578,109.863
1573889419.915,17.578,20.020,-499.512,-7.812,-76.660
1573889419.919,11.719,23.926,-208.496,-0.488,-130.859
1573889419.923,30.762,28.320,471.191,30.762,51.270
1573889419.926,35.645,24.414,380.371,26.367,144.043
1573889419.930,14.648,20.508,-79.590,-1.953,3.906
1573889419.934,4.883,21.484,-23.438,-3.906,-93.750
1573889419.938,19.531,20.508,374.512,25.391,19.043
1573889419.942,27.832,20.020,404.297,33.203,158.691
1573889419.946,18.555,23.926,-93.750,14.160,67.383
1573889419.950,4.883,31.250,-409.180,5.371,-107.422
1573889419.954,10.254,34.180,-19.531,22.949,-43.945
1573889419.958,26.855,25.879,34.668,39.062,100.098
1573889419.962,20.508,22.461,-269.043,21.973,65.430
1573889419.965,2.441,23.926,-321.777,-1.953,-86.426
1573889419.969,5.371,18.555,-162.109,8.789,-97.168
1573889419.973,22.461,20.508,222.656,31.250,84.961
1573889419.977,20.508,27.344,254.883,25.879,156.738
1573889419.981,0.977,24.902,-104.980,0.000,-13.184
1573889419.985,-1.465,26.855,-266.602,0.977,-133.789
1573889419.989,9.277,27.344,82.520,23.438,40.039
1573889419.993,10.254,22.949,112.793,20.508,175.293
1573889419.997,0.977,22.461,-276.367,-5.859,42.480
1573889420.001,-3.906,20.996,-413.574,-16.113,-80.078
1573889420.005,9.766,24.902,-160.645,3.906,-10.254
1573889420.008,20.020,31.250,224.121,16.113,140.137
1573889420.012,16.113,31.738,35.156,1.465,74.219
1573889420.016,8.789,28.320,-469.238,-9.277,-107.422
1573889420.020,15.625,23.438,-457.520,5.859,-82.520
1573889420.024,31.250,28.809,114.746,28.320,105.957
1573889420.028,31.250,35.156,132.324,23.926,126.465
1573889420.032,25.391,35.156,-214.355,13.184,-23.926
1573889420.036,24.414,31.738,14.648,29.785,-40.039
1573889420.040,37.109,30.762,331.543,51.270,91.309
1573889420.044,47.852,34.180,117.676,48.340,131.348
1573889420.048,34.180,29.785,-537.109,25.879,-26.855
1573889420.051,22.461,24.902,-604.980,17.578,-129.883
1573889420.055,31.738,30.762,215.820,37.598,15.137
1573889420.059,35.645,32.715,363.281,41.992,135.742
1573889420.063,20.508,29.297,-83.984,12.695,33.203
1573889420.067,6.348,23.438,-103.516,-2.930,-95.215
1573889420.071,13.184,21.484,386.230,14.160,8.301
1573889420.075,25.391,22.461,549.805,20.996,168.457
1573889420.079,13.184,19.043,23.926,-3.906,90.332
1573889420.083,-3.906,19.043,-196.289,-23.438,-73.242
1573889420.087,-2.441,16.113,82.031,-9.277,-60.059
1573889420.090,5.371,13.672,254.395,8.301,127.930
1573889420.094,5.859,17.090,-92.773,-4.883,136.719
1573889420.098,-13.672,17.578,-233.887,-31.738,-27.344
1573889420.102,-20.508,16.113,99.121,-24.414,-83.008
1573889420.106,1.953,19.043,387.695,8.301,67.383
1573889420.110,14.648,23.926,357.910,17.090,163.574
1573889420.114,7.812,24.902,79.590,0.000,27.832
1573889420.118,1.953,18.066,-0.488,0.977,-100.098
1573889420.122,17.090,15.625,249.512,27.344,1.953
1573889420.126,32.715,19.043,358.887,39.551,140.137
1573889420.130,32.227,22.461,85.938,23.438,59.082
1573889420.133,23.438,19.531,-166.016,12.695,-79.590
1573889420.137,34.180,18.066,-219.238,35.156,-31.738
1573889420.141,52.246,18.066,43.457,52.734,142.090
1573889420.145,45.410,16.602,124.512,34.668,100.098
1573889420.149,29.785,17.090,-191.895,14.648,-75.195
1573889420.153,29.785,20.020,11.230,23.438,-36.133
1573889420.157,45.410,24.414,418.457,47.852,117.676
1573889420.161,45.898,28.809,354.492,43.945,149.414
1573889420.165,31.250,36.133,-128.906,16.113,-15.625
1573889420.169,30.762,39.551,-179.199,18.066,-85.449
1573889420.173,37.109,28.320,314.941,34.180,72.266
1573889420.176,34.668,25.391,425.293,27.344,174.316
1573889420.180,21.973,23.438,-277.344,5.371,3.906
1573889420.184,6.348,17.090,-742.188,-9.277,-140.137
1573889420.188,9.766,21.484,-98.145,9.277,-6.348
1573889420.192,19.531,27.344,269.043,23.438,157.715
1573889420.196,5.371,27.832,-107.422,-0.977,86.914
1573889420.200,-18.066,17.578,-390.625,-24.902,-92.773
1573889420.204,-20.020,10.742,-41.504,-7.812,-49.805
1573889420.208,-1.953,7.812,390.137,17.578,147.461
1573889420.212,-0.977,11.230,139.648,7.324,153.320
1573889420.215,-17.578,20.020,-225.586,-10.254,-33.203
1573889420.219,-14.648,21.973,-26.855,4.395,-74.707
1573889420.223,12.695,20.996,373.535,37.109,101.562
1573889420.227,23.438,13.672,114.258,38.574,159.180
1573889420.231,6.348,8.301,-362.793,17.090,-12.207
1573889420.235,7.324,15.137,-189.453,21.973,-108.887
1573889420.239,31.738,22.461,188.965,52.246,18.555
1573889420.243,41.504,26.855,-19.043,53.711,125.488
1573889420.247,29.785,31.738,-438.965,25.391,19.531
1573889420.251,19.043,27.832,-320.312,15.625,-84.473
1573889420.255,25.391,17.578,90.820,37.109,2.441
1573889420.258,34.180,15.137,245.605,51.758,132.812
1573889420.262,26.855,20.020,18.066,30.762,79.102
1573889420.266,15.137,20.996,-151.367,14.160,-71.289
1573889420.270,20.020,17.578,-50.293,30.762,-85.449
1573889420.274,34.180,19.043,95.215,48.340,87.891
1573889420.278,29.785,23.926,-103.516,35.645,121.582
1573889420.282,11.719,20.996,-372.070,8.789,-58.594
1573889420.286,8.789,11.230,-304.199,5.859,-105.469
1573889420.290,24.902,12.207,-128.418,28.809,54.199
1573889420.294,22.461,16.113,130.859,24.414,161.133
1573889420.298,2.441,20.020,-60.059,-4.883,1.953
1573889420.301,-6.836,23.438,-210.449,-11.230,-116.699
1573889420.305,8.789,21.973,99.121,11.230,22.949
1573889420.309,17.090,18.555,231.445,19.531,120.605
1573889420.313,2.930,13.184,-55.176,-1.465,23.438
1573889420.317,-6.348,9.766,-264.160,-9.766,-99.609
1573889420.321,12.207,10.742,-71.289,18.555,-38.574
1573889420.325,27.344,20.020,195.312,36.133,152.344
1573889420.329,11.719,26.367,3.418,10.742,92.773
1573889420.333,3.906,26.367,-568.848,-10.254,-99.609
1573889420.337,11.719,22.461,-350.586,1.465,-59.570
1573889420.340,25.391,23.926,357.422,23.438,105.469
1573889420.344,30.273,28.809,149.902,18.555,109.375
1573889420.348,20.508,24.414,-329.102,-2.930,-60.547
1573889420.352,20.508,23.926,-132.324,3.906,-104.980
1573889420.356,34.668,28.809,388.672,30.762,79.102
1573889420.360,36.621,25.391,248.535,28.809,150.879
1573889420.364,22.949,19.043,-275.391,-1.465,11.230
1573889420.368,17.090,15.625,-312.988,-7.324,-83.008
1573889420.372,26.855,19.043,83.984,14.648,35.156
1573889420.376,36.133,21.973,146.484,18.555,161.133
1573889420.380,27.832,25.879,-408.691,-5.859,52.734
1573889420.383,12.207,26.855,-369.629,-22.949,-83.984
1573889420.387,16.113,25.879,168.457,-4.883,-35.156
1573889420.391,26.855,18.555,355.469,13.672,129.395
1573889420.395,16.602,11.230,99.121,-0.977,117.676
1573889420.399,-6.836,11.230,-132.324,-23.926,-56.641
1573889420.403,-10.254,9.766,146.973,-6.836,-33.203
1573889420.407,2.930,14.648,466.309,25.391,137.207
1573889420.411,-2.441,17.090,172.363,16.113,127.930
1573889420.415,-21.484,12.695,-295.898,-11.719,-19.043
1573889420.419,-20.020,12.207,-232.910,-5.859,-60.547
1573889420.423,1.465,14.160,-158.203,22.461,32.227
1573889420.426,9.277,14.160,-188.477,25.391,103.027
1573889420.430,-3.418,21.484,-130.371,8.789,17.578
1573889420.434,-3.906,20.508,-127.441,7.812,-73.242
1573889420.438,19.043,13.672,92.773,32.715,-4.883
1573889420.442,34.668,20.020,346.191,50.293,137.207
1573889420.446,28.320,20.508,155.762,30.273,89.355
1573889420.450,16.602,14.648,-163.086,10.742,-65.918
1573889420.454,20.996,17.578,47.363,29.785,-29.785
1573889420.458,41.992,22.949,384.766,55.176,115.234
1573889420.462,37.598,16.113,55.664,42.969,97.656
1573889420.465,17.090,18.555,-517.578,20.020,-83.008
1573889420.469,20.996,22.949,-503.906,23.926,-112.305
1573889420.473,34.180,21.484,39.551,37.598,57.129
1573889420.477,36.621,20.508,200.684,36.133,129.883
1573889420.481,21.973,15.137,-119.141,13.184,-12.695
1573889420.485,7.324,16.113,-49.316,4.883,-104.980
1573889420.489,16.602,20.020,548.340,22.949,53.711
1573889420.493,22.461,20.020,685.059,25.391,174.805
1573889420.497,9.277,20.020,229.492,6.348,53.711
1573889420.501,6.348,25.879,115.723,4.395,-80.078
1573889420.505,15.625,30.762,530.762,24.902,-5.859
1573889420.508,20.020,28.320,628.906,34.180,143.066
1573889420.512,12.207,22.949,-18.066,12.207,77.148
1573889420.516,-3.418,24.902,-290.039,-6.836,-100.098
1573889420.520,5.371,35.645,365.723,16.113,-62.012
1573889420.524,28.809,33.203,742.676,43.457,112.793
1573889420.528,24.414,21.484,419.922,31.250,101.562
1573889420.532,11.719,22.461,74.219,8.789,-53.223
1573889420.536,17.578,26.855,308.594,20.020,-90.332
1573889420.540,38.574,23.926,676.758,47.363,63.965
1573889420.544,40.527,26.367,617.676,47.852,170.898
1573889420.548,21.484,30.273,266.113,19.531,0.977
1573889420.551,19.043,28.809,202.148,16.113,-136.230
1573889420.555,41.504,34.668,408.203,48.828,22.461
1573889420.559,49.316,38.086,379.883,51.270,155.762
1573889420.563,27.832,29.297,231.934,13.672,58.105
1573889420.567,17.090,21.484,217.285,-1.465,-69.336
1573889420.571,29.297,22.949,333.008,17.578,-14.648
1573889420.575,38.086,19.043,209.473,27.344,103.027
1573889420.579,22.461,16.602,177.734,4.395,91.797
1573889420.583,4.395,23.438,87.402,-14.160,-70.801
1573889420.587,1.465,22.461,125.977,-1.953,-86.914
1573889420.590,12.207,14.648,411.133,15.137,91.797
1573889420.594,13.672,15.625,390.137,10.254,125.488
1573889420.598,-2.441,18.066,38.086,-11.230,-40.527
1573889420.602,-6.348,18.555,-79.590,-8.789,-120.117
1573889420.606,6.348,22.461,149.414,15.625,36.621
1573889420.610,13.184,30.762,313.965,17.090,156.738
1573889420.614,5.859,33.203,77.637,2.930,30.273
1573889420.618,-1.465,20.508,-375.000,-3.906,-124.023
1573889420.622,8.301,14.648,-189.453,14.160,-21.484
1573889420.626,23.926,20.020,282.227,32.227,144.531
1573889420.630,21.973,18.555,-38.086,20.020,51.270
1573889420.633,14.648,16.602,-363.281,13.184,-119.629
1573889420.637,27.832,27.344,88.379,34.668,-43.457
1573889420.641,47.852,36.133,514.160,56.152,155.762
1573889420.645,43.945,31.738,87.891,37.598,112.793
1573889420.649,32.715,25.879,-462.891,16.602,-85.938
1573889420.653,35.645,19.531,-278.809,28.809,-87.402
1573889420.657,41.016,16.602,217.773,41.992,98.145
1573889420.661,41.504,22.461,-20.996,29.785,113.281
1573889420.665,31.250,29.297,-631.836,4.883,-58.105
1573889420.669,22.461,33.203,-257.812,9.277,-85.449
1573889420.673,28.809,34.180,356.934,29.785,71.289
1573889420.676,27.832,31.250,171.875,25.391,148.926
1573889420.680,6.348,25.879,-296.387,-2.441,19.531
1573889420.684,-14.160,27.832,-229.492,-13.672,-102.051
1573889420.688,-7.324,25.879,175.781,7.812,3.906
1573889420.692,1.953,21.973,274.902,20.996,147.461
1573889420.696,-10.254,21.484,-240.234,-0.977,39.551
1573889420.700,-24.902,24.902,-495.605,-19.043,-93.750
1573889420.704,-17.578,25.879,-223.145,-1.465,-51.758
1573889420.708,-11.719,19.043,-64.941,10.254,76.660
1573889420.712,-21.484,15.625,-90.820,-7.812,98.145
1573889420.715,-35.645,10.254,-168.457,-28.809,-42.969
1573889420.719,-36.621,14.160,-45.898,-18.555,-82.031
1573889420.723,-12.695,23.926,37.598,11.230,55.664
1573889420.727,-13.672,26.367,54.688,9.766,132.324
1573889420.731,-41.016,22.949,-89.355,-9.277,-16.602
1573889420.735,-53.711,18.066,-179.199,-8.789,-124.023
1573889420.739,-47.363,19.043,190.918,16.113,13.184
1573889420.743,-43.457,23.926,308.594,31.738,172.363
1573889420.747,-62.988,23.926,-64.453,8.789,50.781
1573889420.751,-79.102,21.973,-355.469,-4.883,-140.625
1573889420.755,-72.754,19.531,-246.582,17.090,-49.316
1573889420.758,-65.918,14.648,133.301,29.785,124.023
1573889420.762,-71.289,10.742,65.430,11.719,67.383
1573889420.766,-80.566,17.090,-187.012,-0.977,-88.379
1573889420.770,-73.730,27.832,105.469,15.625,-46.875
1573889420.774,-62.012,26.367,563.965,33.203,128.418
1573889420.778,-67.871,20.508,363.281,26.855,125.488
1573889420.782,-89.355,15.137,-91.309,6.836,-47.363
1573889420.786,-94.238,10.254,7.324,12.207,-96.191
1573889420.790,-80.566,12.207,329.590,38.574,68.848
1573889420.794,-83.984,17.090,301.270,39.551,185.547
1573889420.798,-107.910,13.672,-366.699,12.207,0.000
1573889420.801,-118.652,16.113,-480.469,4.395,-124.023
1573889420.805,-110.840,22.461,332.031,28.809,40.527
1573889420.809,-107.422,20.508,498.047,40.039,166.992
1573889420.813,-121.094,20.020,-69.336,18.066,47.852
1573889420.817,-137.207,25.879,-279.785,3.418,-104.492
1573889420.821,-131.348,37.598,232.422,24.414,-20.020
1573889420.825,-123.535,41.992,448.242,36.133,139.648
1573889420.829,-137.207,35.156,113.281,15.625,101.074
1573889420.833,-155.762,32.715,-164.062,-0.977,-60.059
1573889420.837,-158.203,32.715,-69.336,12.695,-70.801
1573889420.840,-150.391,33.691,93.750,29.297,87.402
1573889420.844,-150.879,31.738,-209.961,17.090,119.629
1573889420.848,-171.875,29.785,-308.105,-1.953,-21.973
1573889420.852,-187.500,30.273,18.066,-1.465,-82.520
1573889420.856,-180.664,31.250,366.699,24.414,78.125
1573889420.860,-182.129,36.133,322.266,30.762,156.738
1573889420.864,-203.613,36.133,-58.105,4.883,-8.789
1573889420.868,-216.309,33.203,-103.516,4.883,-107.422
1573889420.872,-214.355,31.738,152.344,29.785,9.766
1573889420.876,-212.891,39.062,281.250,32.227,147.461
1573889420.880,-229.492,41.992,51.270,4.395,64.453
1573889420.883,-246.582,31.738,-261.230,-10.742,-83.496
1573889420.887,-244.141,25.879,-295.410,-1.465,-37.109
1573889420.891,-243.164,30.273,-61.035,10.742,114.746
1573889420.895,-253.418,33.691,49.805,5.371,99.121
1573889420.899,-271.484,26.855,-286.133,-10.742,-94.238
1573889420.903,-280.273,22.461,-212.891,-1.465,-106.934
1573889420.907,-278.809,26.855,240.234,22.461,72.754
1573889420.911,-287.109,29.297,274.902,24.414,145.508
1573889420.915,-313.477,31.738,-155.273,5.859,-9.766
1573889420.919,-337.891,29.297,-230.469,5.371,-105.957
1573889420.923,-338.379,21.484,266.602,31.738,53.711
1573889420.926,-330.078,24.902,328.613,38.086,165.039
1573889420.930,-341.309,25.391,-342.773,11.230,19.531
1573889420.934,-357.910,22.461,-632.812,-1.465,-114.746
1573889420.938,-349.609,25.391,77.637,17.090,28.320
1573889420.942,-337.891,28.809,470.703,26.855,173.828
1573889420.946,-343.750,32.715,-132.324,13.184,50.293
1573889420.950,-354.492,32.715,-522.461,3.906,-124.512
1573889420.954,-351.074,36.621,-14.648,21.484,-67.871
1573889420.958,-331.055,40.527,406.250,43.945,128.418
1573889420.962,-327.637,34.180,126.953,29.297,126.465
1573889420.965,-349.121,30.273,-229.004,2.930,-36.133
1573889420.969,-353.516,31.738,48.828,12.207,-42.480
1573889420.973,-336.914,31.738,445.801,33.691,114.746
1573889420.977,-329.590,30.273,147.949,31.738,138.184
1573889420.981,-340.332,30.273,-429.688,7.324,-21.973
1573889420.985,-344.727,31.738,-320.312,2.930,-73.242
1573889420.989,-326.172,32.227,209.473,28.809,53.711
1573889420.993,-310.547,33.203,-50.293,37.598,121.582
1573889420.997,-330.078,31.250,-494.629,9.766,17.578
1573889421.001,-352.539,30.762,-259.766,-2.441,-102.051
1573889421.005,-354.004,29.297,86.426,19.043,-23.926
1573889421.008,-358.398,27.344,228.516,28.809,133.789
1573889421.012,-390.137,24.414,-34.180,8.789,60.059
1573889421.016,-428.223,20.508,-202.148,-0.488,-82.520
1573889421.020,-439.453,22.461,-21.973,21.973,-56.152
1573889421.024,-436.523,23.926,65.430,44.434,80.566
1573889421.028,-450.195,19.531,-141.113,28.809,100.098
1573889421.032,-472.168,10.742,-291.016,4.395,-43.457
1573889421.036,-473.633,9.277,-236.816,16.602,-99.121
1573889421.040,-462.891,10.742,-163.574,36.621,48.340
1573889421.044,-469.238,10.742,-33.203,26.855,141.602
1573889421.048,-472.168,14.160,-104.004,5.859,33.203
1573889421.051,-465.820,14.160,-148.926,3.906,-80.078
1573889421.055,-449.707,18.555,176.758,24.414,21.484
1573889421.059,-423.828,19.043,415.039,30.762,161.133
1573889421.063,-419.922,13.672,-6.836,8.789,35.156
1573889421.067,-418.945,17.578,-385.254,0.000,-149.414
1573889421.071,-395.508,18.555,-130.371,20.508,-54.688
1573889421.075,-371.094,17.578,160.645,33.203,143.555
1573889421.079,-368.652,17.090,-94.238,11.230,90.820
1573889421.083,-372.559,13.184,-688.965,-8.789,-118.164
1573889421.087,-371.094,13.184,-417.969,3.418,-83.984
1573889421.090,-353.027,19.043,472.168,24.414,160.645
1573889421.094,-346.191,18.555,360.840,16.602,181.152
1573889421.098,-357.422,16.113,-209.473,-4.883,-19.531
1573889421.102,-353.027,19.043,-22.949,1.953,-71.289
1573889421.106,-336.426,23.926,472.656,27.344,75.195
1573889421.110,-333.984,21.484,360.840,25.391,156.738
1573889421.114,-346.680,12.695,-96.191,-2.930,27.832
1573889421.118,-347.168,16.113,-238.770,-7.812,-82.520
1573889421.122,-334.473,16.602,166.992,14.648,57.617
1573889421.126,-314.453,18.066,279.785,26.855,184.570
1573889421.130,-313.477,24.414,-369.629,3.906,55.176
1573889421.133,-328.125,23.926,-379.395,-11.719,-78.613
1573889421.137,-316.895,19.043,145.020,12.695,-33.203
1573889421.141,-300.781,16.113,365.234,31.250,143.555
1573889421.145,-302.734,14.648,138.672,12.207,145.020
1573889421.149,-307.617,9.277,-140.625,-14.160,-58.105
1573889421.153,-294.434,11.719,-13.672,3.906,-63.477
1573889421.157,-273.926,18.555,255.859,32.715,108.887
1573889421.161,-265.137,18.555,197.754,27.832,137.695
1573889421.165,-272.949,17.090,-255.371,7.324,-36.133
1573889421.169,-277.832,20.996,-262.695,4.395,-99.609
1573889421.173,-254.883,22.949,-61.035,26.855,33.203
1573889421.176,-246.582,19.043,-147.461,26.367,100.098
1573889421.180,-260.742,19.043,-94.727,0.488,11.719
1573889421.184,-269.531,21.484,-56.641,-5.371,-99.609
1573889421.188,-254.395,20.508,243.164,17.090,-7.812
1573889421.192,-235.840,22.949,575.195,28.320,155.762
1573889421.196,-243.652,20.508,363.281,10.254,84.961
1573889421.200,-259.766,15.137,-19.531,-6.348,-105.469
1573889421.204,-263.672,12.695,236.328,5.371,-53.711
1573889421.208,-252.441,10.254,666.992,20.996,141.113
1573889421.212,-247.070,8.789,300.781,7.324,100.098
1573889421.215,-256.836,4.883,-308.105,-18.066,-101.562
1573889421.219,-262.207,2.441,-299.316,-17.090,-130.859
1573889421.223,-249.023,2.930,360.352,7.324,48.828
1573889421.227,-240.723,6.348,566.406,11.230,123.047
1573889421.231,-241.699,14.160,108.887,-7.812,-31.250
1573889421.235,-236.816,20.996,148.438,-6.836,-98.633
1573889421.239,-217.285,20.020,707.031,20.020,54.199
1573889421.243,-201.660,12.207,755.371,27.832,152.344
1573889421.247,-208.496,10.742,233.398,3.906,23.438
1573889421.251,-218.262,12.695,40.527,-4.883,-122.070
1573889421.255,-203.125,18.066,531.250,19.531,15.625
1573889421.258,-182.129,19.531,666.992,39.551,190.430
1573889421.262,-192.871,13.672,185.059,11.719,99.121
1573889421.266,-213.867,6.836,-82.520,-20.020,-72.754
1573889421.270,-209.473,10.254,218.262,-3.418,-58.105
1573889421.274,-184.570,21.484,628.418,26.855,100.586
1573889421.278,-177.734,22.461,148.438,19.043,98.145
1573889421.282,-201.660,13.184,-243.652,-15.137,-45.898
1573889421.286,-206.055,12.207,239.258,-11.719,-69.824
1573889421.290,-187.988,18.555,548.340,16.602,60.547
1573889421.294,-188.965,11.719,356.934,12.207,123.047
1573889421.298,-205.566,6.836,25.391,-18.066,-15.625
1573889421.301,-225.586,8.789,66.406,-25.391,-115.234
1573889421.305,-231.934,-0.488,207.520,-4.883,-7.324
1573889421.309,-238.770,-4.395,83.984,-1.953,137.207
1573889421.313,-261.719,0.000,8.789,-24.414,80.078
1573889421.317,-278.320,2.930,9.277,-31.250,-73.730
1573889421.321,-270.508,-2.930,170.898,-11.719,-28.320
1573889421.325,-247.559,-4.883,306.641,9.766,142.090
1573889421.329,-246.582,2.441,147.461,0.488,107.422
1573889421.333,-250.977,-0.977,-156.250,-15.137,-89.844
1573889421.337,-231.934,-3.418,-22.461,1.465,-83.984
1573889421.340,-208.984,3.906,352.051,22.949,103.516
1573889421.344,-202.637,9.766,248.535,18.555,120.117
1573889421.348,-213.379,6.836,-106.934,-5.859,-30.273
1573889421.352,-216.309,6.348,-147.949,-7.324,-82.031
1573889421.356,-202.637,9.277,60.059,18.555,46.387
1573889421.360,-195.801,7.324,197.754,19.043,158.691
1573889421.364,-204.102,7.324,0.000,-2.441,45.898
1573889421.368,-206.055,5.371,-526.855,-8.301,-123.535
1573889421.372,-194.336,5.859,-406.738,14.160,-21.484
1573889421.376,-182.617,12.207,187.012,29.297,150.391
1573889421.380,-184.570,12.695,-161.621,11.719,51.270
1573889421.383,-202.148,10.254,-511.719,-5.859,-103.027
1573889421.387,-200.195,12.695,-30.762,8.301,-38.086
1573889421.391,-186.035,12.695,322.266,25.391,122.559
1573889421.395,-190.918,6.836,16.113,5.859,113.770
1573889421.399,-206.055,4.395,-482.910,-25.879,-61.523
1573889421.403,-208.496,8.789,-384.766,-20.996,-90.332
1573889421.407,-188.965,16.602,159.668,7.812,84.961
1573889421.411,-185.547,17.578,92.773,6.348,143.555
1573889421.415,-204.102,9.766,-365.723,-16.602,-20.508
1573889421.419,-210.938,1.465,-234.863,-16.113,-110.352
1573889421.423,-189.453,1.465,249.512,12.695,24.902
1573889421.426,-172.363,4.883,81.055,18.066,125.977
1573889421.430,-185.059,6.836,-493.164,-7.812,17.578
1573889421.434,-182.617,10.742,-358.887,-7.812,-95.215
1573889421.438,-157.227,16.113,35.156,20.996,-22.461
1573889421.442,-140.137,20.020,262.695,36.621,142.578
1573889421.446,-145.996,16.113,-22.949,20.996,101.562
1573889421.450,-153.809,14.160,-337.891,6.348,-70.801
1573889421.454,-142.578,17.578,26.855,21.973,-33.691
1573889421.458,-122.070,15.137,145.996,36.621,118.164
1573889421.462,-116.211,15.137,-90.820,23.926,118.652
1573889421.465,-134.277,19.531,-46.387,2.930,-6.348
1573889421.469,-131.836,20.508,69.824,10.742,-60.547
1573889421.473,-110.352,20.996,404.297,27.832,98.633
1573889421.477,-101.562,19.531,533.203,20.996,202.637
1573889421.481,-111.328,19.043,221.191,-3.418,50.781
1573889421.485,-116.699,20.508,69.336,-8.789,-65.430
1573889421.489,-101.074,18.066,347.168,15.137,41.016
1573889421.493,-96.680,14.160,388.672,16.602,168.457
1573889421.497,-108.398,9.766,-15.625,-8.301,75.195
1573889421.501,-111.328,8.789,-344.727,-13.184,-97.168
1573889421.505,-103.516,9.277,-200.684,4.883,-38.086
1573889421.508,-96.680,13.184,325.195,18.066,149.414
1573889421.512,-107.910,16.602,272.461,3.418,108.398
1573889421.516,-129.395,9.277,-108.887,-17.578,-66.406
1573889421.520,-123.535,8.301,56.641,-0.977,-65.918
1573889421.524,-102.539,12.207,535.645,25.879,129.395
1573889421.528,-104.980,7.324,403.320,16.113,152.832
1573889421.532,-123.047,7.812,-122.070,-5.859,-31.250
1573889421.536,-121.094,12.207,-37.109,3.906,-78.125
1573889421.540,-99.609,15.137,298.828,30.273,79.590
1573889421.544,-94.238,21.484,263.672,32.227,170.898
1573889421.548,-100.098,23.438,-375.488,16.602,-0.488
1573889421.551,-106.445,19.043,-582.031,13.184,-131.348
1573889421.555,-97.656,22.949,266.113,35.156,39.551
1573889421.559,-79.590,22.461,466.797,44.434,169.434
1573889421.563,-94.238,15.625,-35.156,14.160,62.012
1573889421.567,-114.258,20.996,-165.039,-0.488,-80.078
1573889421.571,-110.840,23.926,194.336,24.414,-40.039
1573889421.575,-103.516,23.438,392.090,41.504,141.113
1573889421.579,-110.352,21.484,54.199,17.090,116.699
1573889421.583,-128.906,20.020,-167.969,-10.254,-47.363
1573889421.587,-125.000,20.996,-44.434,6.348,-69.824
1573889421.590,-104.492,25.879,69.824,32.227,83.008
1573889421.594,-105.469,26.367,-245.605,14.648,115.723
1573889421.598,-125.977,25.879,-351.074,-13.672,-10.254
1573889421.602,-127.441,32.227,-29.785,-7.812,-73.730
1573889421.606,-103.516,29.785,193.848,16.602,35.156
1573889421.610,-86.914,23.438,164.551,23.926,133.301
1573889421.614,-108.887,22.949,-122.559,-0.977,-7.324
1573889421.618,-127.930,27.344,-154.297,-11.230,-111.816
1573889421.622,-113.770,32.227,249.023,9.277,41.504
1573889421.626,-102.051,32.715,394.043,16.602,170.898
1573889421.630,-108.887,31.738,30.273,-2.441,56.152
1573889421.633,-114.746,25.391,-336.426,-12.695,-107.422
1573889421.637,-100.586,21.484,-418.945,5.371,-78.613
1573889421.641,-83.496,24.414,-123.535,28.320,106.445
1573889421.645,-86.426,33.691,78.613,20.020,117.188
1573889421.649,-96.680,34.180,-200.195,1.953,-58.594
1573889421.653,-88.867,27.832,-80.566,19.043,-55.176
1573889421.657,-78.125,23.926,394.531,37.598,115.234
1573889421.661,-83.008,20.996,326.172,23.926,137.207
1573889421.665,-91.797,23.438,-266.602,6.348,-29.297
1573889421.669,-90.332,26.855,-278.809,15.625,-95.215
1573889421.673,-72.754,28.320,300.781,40.039,48.828
1573889421.676,-58.105,27.832,389.648,41.016,172.363
1573889421.680,-64.453,21.484,-187.988,14.160,46.875
1573889421.684,-65.430,26.855,-416.016,3.418,-85.449
1573889421.688,-39.551,29.297,73.730,29.297,2.441
1573889421.692,-18.066,22.461,502.930,44.434,174.316
1573889421.696,-27.832,19.531,-3.906,16.602,98.633
1573889421.700,-48.828,19.043,-673.340,-6.836,-111.816
1573889421.704,-43.945,22.461,-180.664,9.277,-68.848
1573889421.708,-22.461,28.320,376.465,31.250,117.188
1573889421.712,-22.461,28.320,69.824,18.555,108.887
1573889421.715,-32.227,24.414,-301.270,-3.906,-54.688
1573889421.719,-21.973,24.414,-108.398,11.230,-71.777
1573889421.723,-6.348,26.855,376.465,37.598,113.770
1573889421.727,-2.441,33.203,249.512,33.203,161.621
1573889421.731,-12.695,38.086,-353.516,5.371,-13.184
1573889421.735,-19.043,34.180,-245.605,-4.395,-88.379
1573889421.739,-7.812,29.297,328.613,19.043,51.270
1573889421.743,0.488,30.273,134.277,25.879,163.574
1573889421.747,-10.254,28.809,-337.402,-0.488,49.316
1573889421.751,-23.926,25.391,-224.609,-11.719,-105.469
1573889421.755,-20.508,30.273,56.152,6.836,-43.945
1573889421.758,-3.906,35.156,166.992,26.367,104.980
1573889421.762,-4.883,29.297,16.113,17.090,83.008
1573889421.766,-17.090,24.414,-130.371,-0.977,-62.500
1573889421.770,-9.277,28.320,-58.105,13.672,-83.984
1573889421.774,7.812,36.133,87.402,35.156,77.637
1573889421.778,4.883,33.691,-43.945,21.973,127.441
1573889421.782,-9.277,30.273,-324.707,-0.488,-23.438
1573889421.786,-10.742,36.133,-316.406,5.859,-104.492
1573889421.790,0.000,35.156,-146.484,25.879,18.066
1573889421.794,-0.977,29.297,81.543,20.996,127.930
1573889421.798,-20.020,26.855,-52.734,-4.883,0.488
1573889421.801,-24.902,24.414,-158.691,-10.254,-100.586
1573889421.805,-6.836,26.855,250.488,12.207,32.227
1573889421.809,-1.465,31.738,506.348,18.066,166.016
1573889421.813,-13.672,30.762,190.430,-4.395,81.543
1573889421.817,-21.484,25.879,-127.441,-13.672,-85.449
1573889421.821,-14.648,25.879,-27.832,5.859,-62.500
1573889421.825,-0.488,29.297,119.629,23.926,91.309
1573889421.829,-0.488,26.367,-12.695,10.742,92.285
1573889421.833,-9.277,22.461,-518.066,-10.254,-65.430
1573889421.837,-6.836,21.973,-430.664,2.441,-80.566
1573889421.840,12.695,21.973,333.984,30.762,95.215
1573889421.844,23.438,22.461,319.824,28.809,146.973
1573889421.848,20.020,28.809,-142.578,10.254,-8.301
1573889421.852,23.438,35.156,-0.488,14.648,-70.312
1573889421.856,37.109,35.156,495.117,38.086,73.242
1573889421.860,50.293,29.785,410.645,41.016,153.320
1573889421.864,41.992,21.973,-76.660,14.648,12.207
1573889421.868,25.879,21.484,-246.582,6.348,-98.145
1573889421.872,33.691,27.344,168.945,30.273,28.320
1573889421.876,54.199,36.133,316.406,42.969,151.367
1573889421.880,47.852,38.086,-316.895,19.531,40.527
1573889421.883,36.133,37.109,-262.695,7.812,-68.359
1573889421.887,41.016,33.203,253.418,24.902,-7.812
1573889421.891,45.898,33.691,397.461,35.645,141.113
1573889421.895,40.039,34.668,219.727,23.926,122.559
1573889421.899,28.809,27.832,18.555,4.883,-48.340
1573889421.903,26.367,18.066,221.191,3.906,-63.965
1573889421.907,33.691,18.555,525.391,24.902,96.191
1573889421.911,38.086,21.973,470.703,21.973,156.250
1573889421.915,27.832,17.090,28.320,-1.953,9.277
1573889421.919,18.555,15.137,-10.254,1.953,-80.078
1573889421.923,25.391,18.555,180.176,27.344,30.273
1573889421.926,21.484,21.484,149.414,32.227,123.047
1573889421.930,-5.371,21.973,168.457,11.719,26.855
1573889421.934,-23.438,20.020,130.371,5.371,-88.867
1573889421.938,-13.184,22.461,406.250,30.273,2.930
1573889421.942,0.488,29.297,647.461,45.410,131.348
1573889421.946,-6.348,33.203,331.543,28.809,66.406
1573889421.950,-13.672,32.715,-25.879,21.973,-103.027
1573889421.954,-6.348,26.855,277.832,34.180,-64.453
1573889421.958,5.371,24.902,715.332,48.340,113.770
1573889421.962,-2.441,24.902,461.426,40.039,124.023
1573889421.965,-20.996,24.414,-80.566,16.113,-19.531
1573889421.969,-31.738,27.344,-24.902,16.113,-86.914
1573889421.973,-20.996,25.879,524.414,36.621,51.270
1573889421.977,-15.137,20.996,669.922,35.156,151.855
1573889421.981,-29.785,19.531,49.805,11.719,-13.672
1573889421.985,-36.133,21.973,-355.469,7.324,-154.785
1573889421.989,-33.691,24.902,376.953,26.855,34.180
1573889421.993,-23.438,24.414,685.059,33.691,159.668
1573889421.997,-33.203,27.344,193.359,5.859,47.363
1573889422.001,-41.992,30.273,-22.461,-3.906,-61.035
1573889422.005,-20.996,29.785,218.750,30.762,-31.250
1573889422.008,-14.648,19.043,453.125,41.016,127.930
1573889422.012,-30.762,8.301,-115.723,11.230,89.355
1573889422.016,-43.457,10.254,-517.578,-2.441,-84.961
1573889422.020,-41.992,16.602,151.855,16.113,-36.133
1573889422.024,-22.949,21.484,635.254,42.969,150.879
1573889422.028,-13.672,19.043,295.898,43.945,131.348
1573889422.032,-23.438,19.043,-143.555,25.391,-56.152
1573889422.036,-20.508,22.949,107.422,29.297,-54.199
1573889422.040,-1.953,22.949,429.688,56.152,85.449
1573889422.044,3.418,23.438,236.328,61.035,129.395
1573889422.048,-12.207,20.508,-80.566,32.227,4.883
1573889422.051,-22.949,20.996,-94.238,26.855,-103.027
1573889422.055,-14.160,20.996,173.828,52.246,33.691
1573889422.059,-6.836,20.020,171.875,61.035,167.480
1573889422.063,-22.949,25.391,-186.035,36.133,29.785
1573889422.067,-42.480,22.949,-267.090,17.090,-125.488
1573889422.071,-32.715,20.020,-68.848,31.738,-56.641
1573889422.075,-19.531,18.066,-199.707,37.598,99.609
1573889422.079,-24.414,22.949,-277.344,20.020,97.656
1573889422.083,-29.297,28.809,-316.895,3.906,-83.984
1573889422.087,-20.020,33.203,-221.191,12.695,-105.957
1573889422.090,0.000,39.551,243.652,36.621,118.652
1573889422.094,0.977,43.457,285.156,29.785,169.434
1573889422.098,-16.602,40.527,-172.852,0.488,-1.465
1573889422.102,-14.648,30.762,-446.777,-5.371,-95.703
1573889422.106,4.883,30.762,-114.746,13.672,33.203
1573889422.110,19.531,32.715,255.371,20.508,170.410
1573889422.114,20.508,29.297,-77.148,2.441,67.383
1573889422.118,24.414,32.715,-397.461,-1.465,-92.773
1573889422.122,44.922,41.992,-9.277,27.344,-23.438
1573889422.126,58.105,45.898,380.371,45.898,154.785
1573889422.130,57.617,36.621,48.340,32.715,89.844
1573889422.133,48.828,32.715,-483.887,20.020,-98.145
1573889422.137,54.199,37.109,-87.402,35.645,-35.645
1573889422.141,82.031,39.551,457.031,58.594,144.531
1573889422.145,88.867,39.551,50.781,48.828,76.660
