timestamps,TP9,AF7,AF8,TP10,Right AUX
1573889726.395,56.152,23.926,603.027,61.523,141.113
1573889726.399,47.852,23.926,457.520,41.504,156.738
1573889726.403,31.738,21.973,-258.301,14.648,-13.184
1573889726.407,28.320,19.043,-218.750,22.461,-63.965
1573889726.411,46.387,28.320,458.984,52.734,82.520
1573889726.415,54.688,29.785,344.238,59.570,149.414
1573889726.419,40.527,20.020,-564.453,35.645,0.488
1573889726.423,30.273,14.160,-801.758,21.973,-110.840
1573889726.426,44.434,15.137,19.531,48.340,15.625
1573889726.430,56.641,24.414,542.480,61.523,200.195
1573889726.434,44.922,26.855,62.500,31.738,119.141
1573889726.438,32.227,20.508,-359.863,16.602,-63.965
1573889726.442,38.086,20.508,199.219,39.062,0.977
1573889726.446,47.363,26.367,689.941,56.152,193.848
1573889726.450,34.668,24.902,160.156,34.668,127.930
1573889726.454,21.973,15.625,-421.387,13.184,-66.895
1573889726.458,25.391,14.160,-83.008,23.926,-65.918
1573889726.462,36.133,15.625,390.137,40.039,122.559
1573889726.465,37.598,20.508,-160.156,24.902,132.812
1573889726.469,21.973,33.691,-744.141,0.488,-57.129
1573889726.473,22.949,30.762,-324.219,9.277,-111.328
1573889726.477,32.227,15.137,355.469,29.297,73.242
1573889726.481,28.320,10.742,329.102,24.902,185.547
1573889726.485,18.555,11.719,-375.000,1.953,9.277
1573889726.489,22.949,13.672,-508.789,2.930,-132.324
1573889726.493,41.992,14.160,149.902,31.250,12.207
1573889726.497,48.828,13.672,452.637,38.574,173.828
1573889726.501,39.551,9.766,0.488,17.578,76.660
1573889726.505,40.527,10.742,-351.074,12.207,-83.496
1573889726.508,52.734,15.137,-155.762,34.180,-34.180
1573889726.512,62.500,19.531,174.805,53.711,142.578
1573889726.516,57.617,16.602,88.379,47.363,112.305
1573889726.520,42.480,10.742,-361.328,25.879,-73.242
1573889726.524,41.504,9.766,-308.594,33.691,-95.703
1573889726.528,55.664,19.043,250.488,62.012,79.590
1573889726.532,55.176,28.809,371.582,55.664,156.250
1573889726.536,36.621,20.508,-212.402,25.879,-8.301
1573889726.540,29.785,11.230,-428.711,21.973,-122.559
1573889726.544,38.086,17.090,219.238,43.457,47.363
1573889726.548,42.480,18.555,556.641,41.016,190.918
1573889726.551,28.809,11.230,-99.609,8.789,35.156
1573889726.555,14.648,9.766,-596.191,-2.930,-132.324
1573889726.559,26.855,15.625,-136.719,23.438,-20.020
1573889726.563,36.621,20.020,453.125,34.180,181.152
1573889726.567,27.344,19.531,23.438,10.742,100.098
1573889726.571,15.625,14.648,-682.129,-9.766,-105.469
1573889726.575,17.090,14.160,-175.781,3.906,-49.316
1573889726.579,34.180,21.484,614.746,31.738,160.156
1573889726.583,38.086,25.879,191.406,23.438,136.230
1573889726.587,18.555,19.531,-639.160,-9.277,-46.387
1573889726.590,13.672,11.719,-286.133,-5.859,-75.195
1573889726.594,30.273,13.672,462.891,27.832,104.492
1573889726.598,34.668,12.695,216.797,27.344,138.184
1573889726.602,25.879,4.883,-538.086,2.930,-39.551
1573889726.606,20.996,4.883,-608.398,5.371,-113.770
1573889726.610,38.574,9.766,164.062,38.574,40.039
1573889726.614,51.758,17.578,291.504,47.852,164.062
1573889726.618,34.180,23.438,-499.023,17.578,24.902
1573889726.622,25.391,13.184,-507.812,6.836,-106.445
1573889726.626,38.086,5.859,200.684,32.227,-11.230
1573889726.630,41.992,11.719,574.707,45.898,178.223
1573889726.633,34.180,11.719,131.836,23.926,111.816
1573889726.637,26.855,7.324,-291.992,5.859,-60.547
1573889726.641,31.250,8.301,61.523,20.508,-22.461
1573889726.645,46.387,18.066,539.551,43.945,149.902
1573889726.649,40.039,22.461,159.180,29.297,133.789
1573889726.653,25.879,20.508,-622.070,6.348,-96.191
1573889726.657,28.320,21.973,-533.203,17.090,-137.695
1573889726.661,43.945,22.949,-0.488,35.645,67.871
1573889726.665,48.340,20.996,147.949,33.691,154.297
1573889726.669,31.250,15.137,-153.809,9.766,-0.488
1573889726.673,22.461,9.277,-317.871,2.930,-100.098
1573889726.676,30.273,8.789,288.086,26.855,44.922
1573889726.680,38.574,10.742,707.031,37.598,185.547
1573889726.684,36.621,10.742,220.703,18.555,75.195
1573889726.688,21.484,14.648,-210.449,2.441,-76.172
1573889726.692,23.438,20.508,181.641,20.020,-17.578
1573889726.696,35.645,22.461,622.559,37.598,159.668
1573889726.700,27.832,26.855,197.754,17.090,92.285
1573889726.704,17.578,25.391,-526.855,-1.953,-117.676
1573889726.708,28.809,22.461,-259.277,21.484,-89.355
1573889726.712,48.340,15.625,596.680,54.688,108.398
1573889726.715,43.457,9.766,674.805,44.434,138.184
1573889726.719,29.297,14.648,-141.113,16.602,-40.527
1573889726.723,27.344,17.090,-208.496,20.020,-99.121
1573889726.727,41.992,15.625,751.465,51.758,66.895
1573889726.731,48.828,19.043,881.836,51.758,160.645
1573889726.735,32.715,21.484,195.801,20.508,21.973
1573889726.739,23.438,11.719,85.449,14.648,-67.871
1573889726.743,35.156,7.324,629.395,41.992,50.781
1573889726.747,46.387,17.090,798.340,53.711,182.617
1573889726.751,31.250,20.996,-3.906,21.973,52.734
1573889726.755,10.742,11.719,-372.070,-2.930,-98.633
1573889726.758,21.973,8.789,472.168,21.973,-11.719
1573889726.762,41.992,12.207,929.199,49.316,146.484
1573889726.766,29.785,12.207,416.016,27.832,125.488
1573889726.770,4.395,13.672,-118.164,0.488,-68.848
1573889726.774,11.719,13.184,203.125,17.090,-98.633
1573889726.778,32.227,8.789,751.465,46.387,100.586
1573889726.782,33.203,10.742,618.164,34.668,173.828
1573889726.786,19.531,16.602,31.738,6.348,-11.719
1573889726.790,19.043,9.766,-152.832,11.719,-130.371
1573889726.794,41.504,9.277,196.777,42.480,28.320
1573889726.798,58.594,21.484,229.492,50.293,141.113
1573889726.801,43.945,23.438,-41.992,22.461,46.387
1573889726.805,36.133,23.926,-122.559,18.555,-85.938
1573889726.809,50.293,19.531,309.082,43.945,-3.418
1573889726.813,56.152,15.625,667.480,53.223,173.340
1573889726.817,44.434,18.066,243.652,33.203,85.938
1573889726.821,31.250,19.531,-230.469,15.137,-71.289
1573889726.825,39.062,20.996,38.086,34.180,-41.016
1573889726.829,58.105,25.879,563.965,62.988,133.789
1573889726.833,44.922,21.973,343.750,42.480,127.441
1573889726.837,21.484,12.695,-429.199,10.742,-65.430
1573889726.840,30.273,12.207,-678.223,22.461,-120.605
1573889726.844,47.363,21.973,18.555,48.340,59.082
1573889726.848,44.434,25.391,397.949,39.062,143.555
1573889726.852,24.902,14.648,-325.684,7.324,-44.434
1573889726.856,17.090,16.602,-449.707,3.418,-100.098
1573889726.860,31.738,27.832,325.684,26.855,46.387
1573889726.864,36.621,25.391,546.387,29.785,150.879
1573889726.868,17.090,14.160,-169.922,-0.977,36.621
1573889726.872,1.465,18.066,-569.824,-12.207,-107.422
1573889726.876,13.672,20.996,62.012,13.672,-16.602
1573889726.880,28.809,21.973,476.074,30.273,158.691
1573889726.883,24.414,30.762,-250.488,15.137,77.637
1573889726.887,17.090,26.367,-940.918,-1.953,-133.301
1573889726.891,19.531,22.461,-326.172,13.184,-94.238
1573889726.895,41.016,29.785,468.750,44.922,126.465
1573889726.899,42.480,30.273,55.664,37.109,105.469
1573889726.903,28.809,28.809,-732.910,15.137,-105.469
1573889726.907,30.762,23.438,-393.066,25.879,-113.770
1573889726.911,46.387,20.508,416.016,52.734,83.496
1573889726.915,55.176,27.344,371.582,58.105,160.645
1573889726.919,42.969,26.855,-284.180,31.250,-10.254
1573889726.923,34.668,23.438,-383.789,25.391,-138.672
1573889726.926,47.852,25.879,239.258,53.223,9.277
1573889726.930,57.617,26.367,425.293,63.965,179.688
1573889726.934,43.945,19.531,-258.789,35.645,58.594
1573889726.938,35.156,17.578,-651.367,19.531,-105.469
1573889726.942,44.922,23.926,-181.641,44.434,-48.340
1573889726.946,57.129,29.785,37.598,61.523,97.168
1573889726.950,42.480,30.273,-164.551,35.156,98.633
1573889726.954,22.461,27.832,-285.645,12.207,-40.527
1573889726.958,25.879,24.902,-30.762,24.414,-45.898
1573889726.962,34.180,29.785,509.766,42.480,129.395
1573889726.965,30.273,26.855,437.500,29.785,154.785
1573889726.969,12.207,19.531,-189.453,2.930,-42.480
1573889726.973,7.812,18.555,-266.602,4.883,-117.676
1573889726.977,24.902,15.625,311.035,32.715,79.590
1573889726.981,29.785,12.207,309.570,33.203,160.645
1573889726.985,17.090,13.672,-260.742,7.324,-5.371
1573889726.989,15.625,17.090,-557.617,5.859,-120.117
1573889726.993,30.762,21.484,-176.270,35.645,-5.859
1573889726.997,44.434,28.809,497.070,56.641,174.805
1573889727.001,39.062,29.297,210.449,39.062,96.680
1573889727.005,37.598,25.391,-385.254,26.855,-119.141
1573889727.008,49.316,22.949,-13.184,48.340,-71.289
1573889727.012,56.641,19.043,628.418,62.988,145.020
1573889727.016,50.781,18.066,335.449,42.969,145.996
1573889727.020,34.180,20.020,-319.336,14.648,-39.551
1573889727.024,35.645,23.438,-208.008,26.855,-75.684
1573889727.028,55.664,23.926,322.754,58.594,94.238
1573889727.032,50.781,16.602,151.367,51.270,123.535
1573889727.036,26.367,9.766,-723.633,13.184,-58.105
1573889727.040,20.996,16.113,-609.863,7.324,-104.492
1573889727.044,33.691,22.461,472.168,33.691,83.008
1573889727.048,34.668,26.855,563.477,37.598,179.199
1573889727.051,15.137,29.297,-176.758,9.277,27.344
1573889727.055,-2.441,20.508,-312.012,-7.324,-106.445
1573889727.059,8.301,14.160,262.695,14.160,-17.578
1573889727.063,20.020,9.766,570.312,25.391,172.363
1573889727.067,7.812,11.230,57.617,3.906,89.355
1573889727.071,-2.930,17.578,-564.453,-9.277,-123.535
1573889727.075,9.277,20.996,-188.477,9.766,-58.594
1573889727.079,21.484,25.391,462.891,34.180,155.762
1573889727.083,18.555,25.879,203.125,22.949,150.879
1573889727.087,11.230,21.484,-347.168,3.906,-55.176
1573889727.090,8.301,12.695,-92.285,15.625,-85.449
1573889727.094,29.297,12.207,236.816,46.387,74.707
1573889727.098,31.250,14.648,-47.363,42.969,126.953
1573889727.102,12.695,13.184,-327.637,14.160,-11.230
1573889727.106,19.531,16.602,-376.953,23.926,-79.590
1573889727.110,35.645,24.414,184.082,53.711,59.082
1573889727.114,38.574,22.949,437.012,49.805,162.109
1573889727.118,28.320,21.484,-271.484,19.531,18.555
1573889727.122,20.020,20.020,-659.668,10.254,-125.000
1573889727.126,37.598,18.555,-317.383,35.645,-19.043
1573889727.130,59.082,20.508,125.977,58.594,146.484
1573889727.133,51.758,24.902,119.141,42.480,102.051
1573889727.137,30.762,24.902,-374.023,19.043,-53.223
1573889727.141,28.809,23.926,-196.777,30.273,-48.340
1573889727.145,39.551,23.438,531.738,51.758,130.371
1573889727.149,30.273,23.926,388.184,32.227,124.512
1573889727.153,9.277,33.691,-377.441,1.465,-62.500
1573889727.157,10.254,29.297,-213.867,9.766,-55.664
1573889727.161,28.320,21.484,445.801,33.203,93.262
1573889727.165,32.227,20.508,280.762,28.809,139.160
1573889727.169,14.160,17.090,-566.895,-7.812,-7.324
1573889727.173,5.859,20.020,-812.012,-20.020,-129.883
1573889727.176,25.391,24.902,165.527,18.555,31.250
1573889727.180,34.668,20.508,673.340,37.598,204.590
1573889727.184,24.414,15.137,-94.727,14.648,28.320
1573889727.188,13.184,26.855,-542.480,4.883,-139.160
1573889727.192,25.391,28.809,143.066,35.156,-15.137
1573889727.196,38.086,17.578,639.648,57.617,166.992
1573889727.200,30.273,17.090,143.555,42.969,120.605
1573889727.204,17.090,16.602,-492.676,19.043,-112.305
1573889727.208,20.508,19.043,-143.066,29.785,-102.051
1573889727.212,39.062,27.344,402.344,59.570,112.305
1573889727.215,43.457,34.668,-166.504,50.781,109.863
1573889727.219,30.762,32.715,-809.570,20.020,-48.828
1573889727.223,24.902,27.344,-372.070,22.949,-101.562
1573889727.227,36.133,32.715,303.223,48.828,46.387
1573889727.231,41.016,37.598,309.570,46.875,153.809
1573889727.235,33.691,33.203,-229.980,21.484,-4.883
1573889727.239,27.832,36.621,-337.891,20.020,-116.211
1573889727.243,36.133,38.574,253.906,41.504,41.016
1573889727.247,41.992,27.344,473.145,41.016,172.363
1573889727.251,27.832,27.832,-2.441,11.230,76.660
1573889727.255,13.672,37.109,-392.090,-7.812,-105.469
1573889727.258,12.695,35.645,-207.031,7.812,-65.430
1573889727.262,23.438,29.297,219.238,25.879,151.855
1573889727.266,29.297,27.832,103.027,18.066,113.770
1573889727.270,16.602,28.320,-328.613,0.000,-77.637
1573889727.274,12.695,28.320,-315.918,5.859,-83.008
1573889727.278,22.949,32.227,59.570,23.438,92.773
1573889727.282,24.414,31.250,259.277,19.043,146.484
1573889727.286,11.719,28.809,-242.676,-6.348,-26.855
1573889727.290,14.160,30.273,-338.379,-1.465,-84.961
1573889727.294,38.086,31.738,362.305,35.645,80.078
1573889727.298,49.805,37.598,615.234,45.898,190.430
1573889727.301,35.156,30.762,-51.758,16.602,31.738
1573889727.305,26.367,24.414,-519.531,8.301,-126.953
1573889727.309,41.016,30.273,-33.203,41.504,0.000
1573889727.313,59.082,33.691,444.824,55.664,178.711
1573889727.317,51.758,29.297,2.930,36.133,83.496
1573889727.321,28.320,24.414,-800.293,11.230,-123.047
1573889727.325,31.250,26.855,-382.324,23.926,-54.688
1573889727.329,48.828,28.320,541.992,51.758,157.715
1573889727.333,42.480,28.320,180.664,38.086,128.418
1573889727.337,23.438,24.414,-469.727,8.789,-54.688
1573889727.340,27.344,26.855,-104.492,20.020,-74.707
1573889727.344,46.875,32.227,642.578,48.828,114.258
1573889727.348,38.574,25.391,591.309,36.133,198.242
1573889727.352,18.066,20.508,-284.180,8.301,-11.230
1573889727.356,20.996,23.926,-439.941,10.254,-136.230
1573889727.360,32.227,23.926,478.516,34.180,48.828
1573889727.364,35.645,23.438,570.312,37.598,176.270
1573889727.368,20.508,20.020,-366.211,2.441,14.160
1573889727.372,6.348,12.695,-347.656,-13.672,-93.750
1573889727.376,26.367,16.113,461.914,21.973,5.859
1573889727.380,40.527,15.625,833.008,36.133,179.199
1573889727.383,25.879,14.160,431.641,2.930,125.977
1573889727.387,15.625,18.066,-83.008,-12.207,-73.242
1573889727.391,26.367,21.973,151.855,13.672,-59.570
1573889727.395,57.129,23.926,825.684,50.293,160.645
1573889727.399,62.500,18.066,556.152,46.875,166.016
1573889727.403,37.598,17.090,-85.938,14.648,-15.625
1573889727.407,40.527,26.367,65.430,24.414,-80.566
1573889727.411,63.477,33.691,644.043,57.617,71.777
1573889727.415,62.012,25.879,752.441,55.176,166.992
1573889727.419,37.109,17.578,200.195,19.043,0.000
1573889727.423,33.691,24.902,-9.766,14.648,-103.516
1573889727.426,58.594,20.508,223.633,48.340,0.977
1573889727.430,55.664,15.625,538.574,48.828,139.648
1573889727.434,33.203,20.508,268.555,18.555,39.062
1573889727.438,29.297,24.414,-231.445,10.254,-147.461
1573889727.442,46.387,31.250,229.492,40.527,-54.199
1573889727.446,54.199,25.879,766.602,59.082,169.434
1573889727.450,32.715,18.555,328.613,29.785,132.324
1573889727.454,14.648,26.367,-497.559,1.465,-112.305
1573889727.458,20.508,31.250,-367.676,19.531,-106.445
1573889727.462,32.227,21.973,625.000,45.410,130.859
1573889727.465,25.879,11.230,542.969,30.762,114.746
1573889727.469,4.883,5.859,-235.840,-2.930,-74.219
1573889727.473,3.418,14.160,-135.742,1.953,-100.098
1573889727.477,18.555,19.531,629.883,23.438,75.195
1573889727.481,24.414,19.531,657.715,20.020,168.457
1573889727.485,8.301,21.973,-128.906,-12.207,-3.906
1573889727.489,0.977,21.973,-347.656,-21.484,-139.648
1573889727.493,24.902,28.320,188.965,18.555,-1.465
1573889727.497,41.992,24.902,430.176,40.039,172.852
1573889727.501,29.297,12.695,-360.352,13.672,62.988
1573889727.505,18.066,10.742,-740.234,0.488,-87.891
1573889727.508,38.086,21.484,123.535,38.086,-19.043
1573889727.512,68.359,25.391,625.000,74.707,157.227
1573889727.516,60.059,17.090,142.578,53.223,110.352
1573889727.520,37.109,11.230,-375.488,19.531,-83.496
1573889727.524,40.039,15.625,-48.828,33.691,-75.684
1573889727.528,54.688,22.949,538.086,61.035,128.906
1573889727.532,51.758,19.043,393.555,55.176,184.082
1573889727.536,33.203,18.066,-284.180,24.902,4.395
1573889727.540,31.738,19.531,-435.059,24.902,-88.867
1573889727.544,46.387,16.602,-30.273,52.734,43.457
1573889727.548,48.340,11.719,-44.922,50.293,146.973
1573889727.551,32.715,10.254,-368.652,16.602,22.949
1573889727.555,25.391,15.137,-487.793,7.812,-131.348
1573889727.559,40.527,20.996,-22.461,37.109,-14.648
1573889727.563,48.828,23.926,397.461,49.805,176.270
1573889727.567,35.156,20.020,8.789,26.367,77.148
1573889727.571,25.879,14.160,-452.148,15.137,-95.703
1573889727.575,28.320,11.719,-146.484,25.879,-56.641
1573889727.579,35.645,18.066,411.621,35.156,132.324
1573889727.583,34.180,23.438,223.633,23.926,129.883
1573889727.587,21.973,18.066,-541.016,2.930,-86.914
1573889727.590,21.973,20.996,-703.125,12.207,-109.375
1573889727.594,40.527,23.926,35.645,38.086,96.680
1573889727.598,43.457,18.066,343.262,39.062,156.250
1573889727.602,32.715,22.461,-333.496,19.043,-35.156
1573889727.606,30.273,22.461,-488.281,18.066,-132.324
1573889727.610,40.527,14.648,315.430,36.621,41.992
1573889727.614,47.852,16.602,543.945,38.574,183.105
1573889727.618,34.668,16.113,-238.770,9.766,45.410
1573889727.622,30.762,18.555,-478.027,4.395,-78.125
1573889727.626,47.852,25.391,250.488,30.762,28.320
1573889727.630,55.664,27.344,692.383,45.898,170.410
1573889727.633,49.805,31.250,-83.984,29.297,77.148
1573889727.637,39.062,32.227,-822.266,7.324,-118.164
1573889727.641,35.645,26.367,-158.203,18.555,-80.078
1573889727.645,48.828,25.879,595.703,42.480,114.258
1573889727.649,46.387,20.996,167.480,33.691,112.305
1573889727.653,28.809,13.672,-483.887,2.930,-52.734
1573889727.657,26.855,20.996,-172.363,12.207,-104.980
1573889727.661,36.621,22.949,513.672,34.180,72.266
1573889727.665,36.621,24.414,487.793,25.391,168.945
1573889727.669,25.391,27.832,-133.301,2.930,14.648
1573889727.673,19.043,23.438,-300.293,3.418,-101.074
1573889727.676,28.809,21.484,266.602,33.691,22.949
1573889727.680,36.133,20.020,479.980,42.480,177.734
1573889727.684,19.531,23.438,-223.633,10.254,47.852
1573889727.688,5.859,24.902,-590.332,-1.953,-143.066
1573889727.692,19.043,14.648,14.160,22.461,-60.547
1573889727.696,35.156,11.719,201.660,39.062,115.234
1573889727.700,33.203,21.973,-153.320,27.344,80.078
1573889727.704,22.461,29.297,-317.383,7.812,-80.078
1573889727.708,27.344,24.902,-93.262,23.926,-84.473
1573889727.712,41.504,21.484,463.379,50.781,114.746
1573889727.715,34.668,26.367,436.035,36.621,154.785
1573889727.719,21.973,26.855,-189.453,13.184,-46.875
1573889727.723,23.926,13.672,-255.859,20.020,-114.258
1573889727.727,37.109,11.719,215.820,42.969,48.828
1573889727.731,42.480,22.949,293.457,46.875,181.641
1573889727.735,28.320,26.855,-306.152,21.484,8.301
1573889727.739,28.320,24.414,-728.027,14.648,-152.832
1573889727.743,37.598,26.855,-183.594,37.598,10.254
1573889727.747,38.574,29.297,425.781,41.992,173.828
1573889727.751,26.855,25.391,11.230,18.066,57.617
1573889727.755,11.719,21.973,-479.492,2.441,-127.441
1573889727.758,22.949,22.949,-23.438,23.438,-62.012
1573889727.762,44.922,26.367,649.414,47.363,160.156
1573889727.766,45.410,28.320,250.488,36.133,106.445
1573889727.770,28.320,27.344,-433.105,11.230,-85.449
1573889727.774,18.555,22.461,-299.316,9.766,-95.703
1573889727.778,32.715,19.043,260.742,35.645,85.938
1573889727.782,35.156,16.602,195.801,28.809,151.855
1573889727.786,19.531,20.996,-685.547,-0.488,-22.461
1573889727.790,23.926,32.227,-588.379,7.812,-76.172
1573889727.794,43.945,34.180,395.020,37.598,49.805
1573889727.798,55.176,25.391,446.777,44.434,143.555
1573889727.801,40.527,20.508,-256.836,21.973,2.930
1573889727.805,25.879,17.578,-364.746,16.113,-118.164
1573889727.809,40.527,20.508,295.898,41.992,9.766
1573889727.813,58.594,30.762,579.590,60.547,177.734
1573889727.817,46.875,29.785,84.473,41.992,111.816
1573889727.821,30.273,25.879,-479.980,20.996,-92.285
1573889727.825,38.086,30.762,-218.750,39.062,-78.613
1573889727.829,57.129,27.344,236.328,64.453,129.395
1573889727.833,52.734,18.555,-197.754,48.828,125.488
1573889727.837,31.250,15.137,-528.320,20.508,-58.105
1573889727.840,39.551,26.367,-192.871,38.574,-72.754
1573889727.844,56.641,34.668,352.051,65.918,113.281
1573889727.848,53.711,35.156,419.922,54.199,177.734
1573889727.852,39.551,29.297,-89.355,24.414,20.020
1573889727.856,39.551,25.879,-94.727,26.367,-20.508
1573889727.860,55.176,29.785,431.641,51.758,97.168
1573889727.864,54.199,31.250,570.801,53.711,179.688
1573889727.868,36.621,33.691,-123.535,29.297,52.734
1573889727.872,21.484,31.250,-538.086,16.602,-70.312
1573889727.876,28.320,30.762,-226.074,27.832,1.953
1573889727.880,33.691,33.203,264.160,36.621,173.340
1573889727.883,20.508,28.320,216.309,22.949,129.883
1573889727.887,9.766,28.809,-374.512,4.883,-66.895
1573889727.891,21.484,34.180,-120.605,20.996,-48.340
1573889727.895,40.527,33.203,596.191,44.434,146.973
1573889727.899,35.645,32.227,320.801,28.320,143.555
1573889727.903,21.973,23.926,-460.449,3.906,-63.477
1573889727.907,28.809,17.090,-318.848,18.066,-92.285
1573889727.911,45.410,25.391,425.293,43.457,83.008
1573889727.915,44.434,30.273,374.023,34.668,155.762
1573889727.919,34.180,24.902,-490.723,5.371,21.484
1573889727.923,32.715,28.320,-665.527,2.441,-76.660
1573889727.926,43.945,37.109,241.699,33.691,45.410
1573889727.930,58.105,34.668,692.871,49.316,192.871
1573889727.934,42.969,25.391,-195.312,13.184,38.086
1573889727.938,27.344,19.531,-846.191,-7.812,-162.109
1573889727.942,38.086,26.367,21.973,24.902,-33.691
1573889727.946,50.293,31.738,656.250,47.852,175.293
1573889727.950,40.527,26.367,143.066,23.926,96.680
1573889727.954,29.297,26.367,-548.340,4.883,-122.070
1573889727.958,34.668,26.855,-259.277,23.926,-107.910
1573889727.962,43.945,23.926,332.520,46.875,108.398
1573889727.965,38.086,24.414,97.168,34.668,145.020
1573889727.969,17.578,24.414,-382.324,4.883,-30.273
1573889727.973,16.113,33.691,-197.266,10.742,-100.098
1573889727.977,34.668,32.227,442.871,36.133,69.824
1573889727.981,37.598,27.344,201.660,33.691,163.086
1573889727.985,21.484,29.785,-450.195,7.324,-2.930
1573889727.989,17.090,24.414,-377.930,4.395,-130.859
1573889727.993,35.156,25.391,202.148,32.715,8.789
1573889727.997,46.875,31.250,526.367,49.805,189.453
1573889728.001,34.668,28.809,71.289,28.809,69.824
1573889728.005,24.414,27.832,-319.824,13.672,-114.258
1573889728.008,30.762,33.691,-62.988,34.668,-35.156
1573889728.012,46.875,34.180,185.059,55.664,150.391
1573889728.016,46.875,31.250,35.156,42.969,114.746
1573889728.020,24.902,22.949,-311.523,10.254,-73.242
1573889728.024,26.367,20.508,-89.844,17.578,-65.918
1573889728.028,57.617,32.715,529.785,61.523,118.652
1573889728.032,55.664,30.762,530.273,60.547,156.250
1573889728.036,21.973,19.043,-83.496,17.578,-17.578
1573889728.040,20.508,23.438,-187.500,18.555,-101.074
1573889728.044,37.109,23.926,448.242,46.387,51.270
1573889728.048,40.039,19.531,713.867,49.316,187.988
1573889728.051,30.273,22.949,128.906,22.949,58.594
1573889728.055,23.926,24.902,-250.000,10.254,-68.848
1573889728.059,40.039,29.785,190.918,35.156,19.043
1573889728.063,53.711,39.551,626.465,44.922,158.691
1573889728.067,41.992,37.109,133.789,14.648,77.637
1573889728.071,26.367,33.691,-504.883,-9.277,-150.879
1573889728.075,38.086,38.086,78.125,11.719,-95.215
1573889728.079,49.316,30.762,867.188,31.738,147.461
1573889728.083,39.551,22.461,465.332,18.555,129.883
1573889728.087,29.297,23.926,-538.086,3.418,-104.980
1573889728.090,35.645,29.785,-266.113,20.020,-138.672
1573889728.094,58.594,31.250,718.262,54.688,82.031
1573889728.098,62.012,22.461,630.859,53.711,152.832
1573889728.102,42.480,23.438,-166.504,24.414,-10.742
1573889728.106,40.039,23.926,-236.328,21.973,-85.938
1573889728.110,55.664,21.973,702.148,52.734,101.562
1573889728.114,65.918,22.949,787.109,63.477,200.684
1573889728.118,44.922,16.602,-145.508,32.227,16.113
1573889728.122,29.785,20.508,-272.461,17.090,-116.699
1573889728.126,45.898,26.367,434.570,47.363,18.555
1573889728.130,56.152,23.438,867.188,59.570,192.383
1573889728.133,43.457,20.020,436.035,35.645,122.070
1573889728.137,31.738,22.949,-4.395,20.996,-60.059
1573889728.141,39.551,28.320,312.988,38.574,-41.504
1573889728.145,52.246,26.855,774.902,57.129,143.066
1573889728.149,48.340,20.020,435.059,41.504,162.109
1573889728.153,33.691,18.066,-250.000,15.625,-11.719
1573889728.157,29.785,24.414,-183.105,20.020,-86.426
1573889728.161,40.039,32.715,229.004,43.945,74.707
1573889728.165,41.016,26.855,305.664,43.945,172.363
1573889728.169,33.691,16.602,-35.156,28.809,46.387
1573889728.173,36.621,26.855,-306.152,29.785,-84.473
1573889728.176,37.109,30.762,293.945,33.691,36.133
1573889728.180,33.691,23.926,584.961,33.203,176.758
1573889728.184,20.996,25.391,-79.590,14.160,41.992
1573889728.188,13.672,31.250,-428.711,0.977,-94.727
1573889728.192,28.809,33.691,146.484,29.297,0.977
1573889728.196,42.480,26.855,572.754,47.852,185.547
1573889728.200,43.457,24.414,113.281,31.738,112.793
1573889728.204,33.691,29.785,-618.164,9.277,-116.699
1573889728.208,35.156,30.273,-531.250,21.973,-98.145
1573889728.212,46.387,28.809,412.598,43.457,128.906
1573889728.215,44.434,26.855,437.500,31.250,158.203
1573889728.219,29.297,25.391,-391.602,5.859,-63.965
1573889728.223,30.273,36.133,-422.363,12.207,-141.602
1573889728.227,44.922,44.434,362.305,41.504,56.641
1573889728.231,48.828,43.457,447.266,41.504,153.809
1573889728.235,39.551,40.527,-365.723,19.043,5.859
1573889728.239,24.414,38.086,-614.258,12.207,-87.891
1573889728.243,30.762,36.621,34.180,35.645,23.926
1573889728.247,39.551,31.738,284.180,47.363,168.457
1573889728.251,21.973,24.902,-504.883,11.719,47.363
1573889728.255,-0.488,27.344,-922.363,-12.207,-138.672
1573889728.258,11.719,40.527,-68.359,15.137,-47.363
1573889728.262,37.109,35.156,508.301,37.109,151.367
1573889728.266,28.320,20.996,51.270,19.043,99.121
1573889728.270,9.277,24.902,-392.578,-4.395,-65.430
1573889728.274,15.625,26.367,-95.703,10.254,-76.172
1573889728.278,34.668,22.949,448.242,41.992,109.375
1573889728.282,37.109,21.973,287.598,32.715,145.508
1573889728.286,20.996,25.391,-261.719,5.371,-15.625
1573889728.290,21.973,32.227,-291.016,15.625,-42.969
1573889728.294,38.086,28.320,144.043,41.504,71.289
1573889728.298,46.875,29.785,341.797,48.340,165.039
1573889728.301,34.180,32.227,-119.629,25.879,22.461
1573889728.305,17.090,25.879,-283.203,14.648,-114.746
1573889728.309,33.203,28.809,49.316,42.969,-15.137
1573889728.313,47.852,26.855,102.051,57.129,130.371
1573889728.317,32.715,24.414,-91.309,32.227,69.824
1573889728.321,21.484,23.926,-312.988,16.113,-74.707
1573889728.325,38.574,26.855,-58.594,42.480,-77.148
1573889728.329,54.199,36.133,490.234,63.477,104.980
1573889728.333,43.945,34.668,358.887,41.992,120.117
1573889728.337,25.391,31.738,-327.637,14.648,-54.199
1573889728.340,31.250,37.109,-504.395,19.531,-85.938
1573889728.344,45.410,40.039,199.219,42.969,88.867
1573889728.348,36.621,31.738,464.844,39.551,161.621
1573889728.352,17.090,23.926,-332.520,10.742,-17.090
1573889728.356,7.812,28.809,-422.852,3.906,-111.816
1573889728.360,27.344,37.598,436.523,28.809,51.270
1573889728.364,34.668,32.715,752.441,40.527,195.312
1573889728.368,16.602,26.855,44.922,11.719,52.734
1573889728.372,8.789,31.250,-416.992,0.977,-133.789
1573889728.376,17.578,29.297,192.871,23.926,-42.480
1573889728.380,26.367,26.855,635.254,36.133,155.273
1573889728.383,22.949,28.809,-30.762,20.508,77.148
1573889728.387,12.695,25.879,-650.879,3.418,-134.277
1573889728.391,19.043,24.414,-114.746,18.066,-87.891
1573889728.395,38.574,30.273,665.527,41.016,130.371
1573889728.399,39.062,34.180,199.219,27.832,129.883
1573889728.403,25.879,37.109,-722.656,3.418,-75.684
1573889728.407,25.879,32.715,-385.254,11.719,-99.609
1573889728.411,39.551,29.297,443.359,37.598,81.055
1573889728.415,35.156,28.320,377.930,29.785,134.277
1573889728.419,19.531,35.156,-244.629,4.395,-21.973
1573889728.423,23.926,38.086,-282.227,9.277,-137.207
1573889728.426,33.691,25.879,320.312,33.691,6.836
1573889728.430,34.180,20.020,480.957,39.062,166.992
1573889728.434,21.484,18.555,-229.492,12.695,43.945
1573889728.438,10.254,12.695,-579.590,-5.371,-122.070
1573889728.442,23.926,15.137,27.344,20.996,-41.504
1573889728.446,42.480,20.996,200.195,39.551,110.840
1573889728.450,31.250,21.973,-175.293,15.625,73.730
1573889728.454,12.207,28.320,-363.281,-1.953,-81.543
1573889728.458,20.020,33.691,-109.863,15.625,-69.336
1573889728.462,40.039,28.320,292.969,44.922,112.305
1573889728.465,41.992,20.020,150.879,42.969,127.930
1573889728.469,24.902,15.137,-354.492,17.090,-72.266
1573889728.473,17.090,18.066,-317.871,14.648,-122.559
1573889728.477,32.227,20.996,251.953,44.434,74.707
1573889728.481,44.434,20.508,283.691,54.199,173.340
1573889728.485,32.715,19.531,-247.070,29.297,19.043
1573889728.489,28.320,17.090,-565.430,17.578,-122.070
1573889728.493,44.922,20.508,-186.035,42.480,-7.812
1573889728.497,54.688,27.832,479.004,59.570,181.152
1573889728.501,49.316,31.738,155.273,41.504,89.355
1573889728.505,42.480,29.297,-354.004,25.879,-63.477
1573889728.508,42.480,21.973,99.121,36.133,-2.441
1573889728.512,51.270,23.438,689.453,53.223,166.992
1573889728.516,50.293,22.461,317.871,43.457,136.230
1573889728.520,33.203,17.090,-467.285,16.113,-76.172
1573889728.524,32.715,21.973,-445.312,21.484,-115.234
1573889728.528,48.828,32.227,280.273,45.898,104.980
1573889728.532,46.875,36.133,294.434,37.598,140.137
1573889728.536,23.926,32.227,-687.012,1.953,-80.566
1573889728.540,9.766,23.926,-717.773,-4.883,-122.559
1573889728.544,21.484,28.809,323.730,27.832,53.711
1573889728.548,32.715,31.738,463.867,37.598,156.738
1573889728.551,13.672,26.855,-250.488,6.836,13.184
1573889728.555,-2.930,27.832,-432.617,-5.859,-134.766
1573889728.559,8.301,25.879,210.938,17.578,-15.625
1573889728.563,21.484,22.461,568.359,31.250,183.594
1573889728.567,19.531,29.297,-15.137,19.043,70.312
1573889728.571,13.184,30.762,-522.461,8.789,-84.473
1573889728.575,19.043,25.879,-183.594,24.414,-29.297
1573889728.579,40.527,34.668,200.195,47.852,125.000
1573889728.583,38.574,33.203,-291.504,32.715,96.191
1573889728.587,15.137,27.344,-615.723,4.883,-82.031
1573889728.590,18.555,25.391,-231.445,19.531,-86.426
1573889728.594,39.551,24.414,359.863,47.852,112.305
1573889728.598,42.480,34.180,404.785,45.898,171.875
1573889728.602,35.645,38.574,-207.520,23.926,-40.039
1573889728.606,36.133,32.715,-262.207,22.461,-119.629
1573889728.610,44.434,35.645,384.277,40.527,71.289
1573889728.614,45.898,33.691,604.980,37.598,200.195
1573889728.618,29.785,32.227,-156.738,11.230,23.438
1573889728.622,17.090,29.785,-585.449,-3.418,-135.254
1573889728.626,32.227,27.832,-272.949,16.602,-49.316
1573889728.630,36.621,40.527,171.875,27.344,132.324
1573889728.633,27.832,43.457,68.848,10.254,97.656
1573889728.637,25.879,33.203,-462.891,-1.465,-87.891
1573889728.641,29.785,27.832,-115.234,10.254,-53.223
1573889728.645,35.645,25.391,604.492,23.438,144.043
1573889728.649,29.297,22.461,414.551,7.324,149.414
1573889728.653,11.719,22.461,-329.102,-19.043,-35.645
1573889728.657,7.812,29.785,-294.434,-14.160,-96.680
1573889728.661,22.461,33.203,482.910,9.277,96.191
1573889728.665,24.902,33.691,460.938,11.719,193.848
1573889728.669,11.719,31.250,-525.879,-5.859,-19.043
1573889728.673,3.418,22.949,-833.008,-7.812,-133.789
1573889728.676,17.578,20.996,134.766,20.508,40.039
1573889728.680,29.297,24.414,658.203,36.621,188.965
1573889728.684,20.996,26.855,26.367,18.066,67.383
1573889728.688,17.578,26.855,-478.516,7.324,-110.840
1573889728.692,26.855,25.391,59.082,30.273,-20.996
1573889728.696,38.086,33.691,689.453,48.828,181.641
1573889728.700,35.156,38.086,229.980,38.086,111.328
1573889728.704,22.949,32.715,-368.652,16.113,-91.797
1573889728.708,28.320,34.668,47.363,29.297,-60.547
1573889728.712,47.852,40.039,585.938,59.570,129.395
1573889728.715,44.434,31.738,-8.789,40.039,118.652
1573889728.719,18.555,18.555,-666.504,2.441,-79.590
1573889728.723,13.672,20.508,-208.496,9.277,-122.559
1573889728.727,37.598,26.855,511.719,39.551,63.965
1573889728.731,43.945,34.668,522.461,36.621,151.855
1573889728.735,24.414,35.156,29.785,4.395,14.160
1573889728.739,21.973,26.367,-100.098,-0.977,-124.023
1573889728.743,34.668,22.461,390.137,22.461,-10.742
1573889728.747,44.922,21.484,670.898,34.668,194.336
1573889728.751,39.551,26.855,208.984,18.066,78.125
1573889728.755,26.367,29.297,-146.484,6.836,-119.629
1573889728.758,35.156,32.227,76.660,27.832,-52.246
1573889728.762,51.758,42.480,339.355,44.922,116.211
1573889728.766,43.457,45.410,270.508,29.785,97.656
1573889728.770,31.738,33.691,-67.383,17.578,-59.570
1573889728.774,37.598,22.461,79.590,35.645,-81.543
1573889728.778,53.711,23.438,680.176,62.012,107.910
1573889728.782,54.199,26.855,740.234,54.199,183.105
1573889728.786,39.551,27.344,32.715,25.879,-52.734
1573889728.790,38.086,32.715,-150.391,26.367,-159.180
1573889728.794,44.922,34.668,559.082,51.270,52.246
1573889728.798,46.387,36.133,856.934,57.129,189.453
1573889728.801,34.180,34.668,169.434,26.855,47.852
1573889728.805,17.578,25.879,-326.172,6.836,-107.910
1573889728.809,24.414,24.902,137.207,25.391,-17.090
1573889728.813,33.203,23.438,711.914,41.016,176.270
1573889728.817,23.438,22.461,318.359,20.508,96.191
1573889728.821,13.672,28.809,-526.367,2.441,-89.355
1573889728.825,18.066,36.621,-168.945,17.578,-67.871
1573889728.829,29.785,35.156,735.352,34.668,134.277
1573889728.833,21.973,20.508,404.785,13.672,129.395
1573889728.837,1.465,19.531,-353.516,-20.508,-83.984
1573889728.840,5.371,25.879,-62.500,-8.301,-94.727
1573889728.844,29.297,29.785,658.203,28.320,94.238
1573889728.848,33.203,36.621,558.105,26.855,180.664
1573889728.852,18.555,39.062,-283.691,5.859,-13.184
1573889728.856,22.461,40.527,-508.789,11.719,-145.996
1573889728.860,39.551,36.621,263.184,32.227,57.617
1573889728.864,40.039,29.297,359.863,38.086,174.316
1573889728.868,24.414,24.414,-467.285,12.207,14.648
1573889728.872,23.926,31.250,-471.191,11.719,-98.145
1573889728.876,44.922,44.922,280.762,54.199,-5.371
1573889728.880,57.129,50.293,574.707,67.871,145.020
1573889728.883,42.480,45.898,111.816,40.039,93.262
1573889728.887,26.367,34.180,-264.160,20.996,-55.176
1573889728.891,34.668,30.273,1.953,40.527,-65.918
1573889728.895,47.363,34.180,432.617,59.570,106.445
1573889728.899,41.504,40.527,52.246,44.922,106.934
1573889728.903,27.344,42.480,-651.367,20.020,-76.172
1573889728.907,27.832,31.250,-488.281,21.484,-108.887
1573889728.911,42.969,28.320,-7.324,45.898,72.266
1573889728.915,40.039,37.109,-77.148,38.086,147.949
1573889728.919,20.996,43.457,-507.324,10.254,-25.879
1573889728.923,22.949,41.992,-574.219,14.160,-133.301
1573889728.926,34.180,41.016,53.223,36.133,18.555
1573889728.930,35.645,38.086,493.652,35.645,191.895
1573889728.934,17.090,30.273,-40.527,2.441,56.641
1573889728.938,-2.930,25.391,-561.035,-16.113,-114.258
1573889728.942,12.207,34.668,-101.074,8.789,-31.250
1573889728.946,26.367,34.668,401.367,27.832,171.875
1573889728.950,12.695,25.391,44.922,7.812,139.648
1573889728.954,-1.465,28.809,-627.441,-11.230,-69.824
1573889728.958,2.441,23.438,-584.961,6.348,-89.844
1573889728.962,21.484,16.113,278.320,38.086,104.980
1573889728.965,22.461,20.996,263.672,33.691,115.234
1573889728.969,2.441,24.902,-471.680,2.441,-66.406
1573889728.973,2.441,27.832,-458.984,7.324,-106.934
1573889728.977,20.996,34.180,387.695,41.992,88.379
1573889728.981,25.879,32.227,555.664,41.016,178.711
1573889728.985,16.113,26.855,-198.730,10.742,8.789
1573889728.989,18.555,31.250,-369.629,9.766,-108.887
1573889728.993,33.691,32.227,205.078,37.109,32.227
1573889728.997,45.898,28.809,504.395,50.781,193.848
1573889729.001,44.434,28.809,-305.664,31.738,59.082
1573889729.005,26.367,27.344,-726.074,9.277,-84.961
1573889729.008,28.320,30.273,113.770,24.414,-33.203
1573889729.012,42.969,34.668,576.660,46.387,136.719
1573889729.016,35.156,29.297,140.625,25.879,110.840
1573889729.020,21.484,22.461,-268.555,3.418,-48.828
1573889729.024,26.855,29.785,117.676,20.996,-35.156
1573889729.028,37.109,34.180,622.559,40.527,133.301
1573889729.032,30.273,30.273,339.355,24.414,156.250
1573889729.036,10.254,37.598,-205.566,-4.395,-20.508
1573889729.040,13.184,41.016,-272.461,0.488,-108.887
1573889729.044,31.738,34.668,67.871,24.902,14.648
1573889729.048,35.645,28.809,41.504,25.391,134.766
1573889729.051,23.438,28.320,-247.559,0.000,42.480
1573889729.055,23.438,34.180,-226.562,-2.930,-89.844
1573889729.059,37.598,31.738,262.207,29.785,0.488
1573889729.063,42.969,32.227,625.977,42.969,181.152
1573889729.067,34.668,41.504,248.535,21.973,107.422
1573889729.071,27.832,42.969,-229.004,9.766,-80.078
1573889729.075,36.621,32.227,68.848,28.320,-47.363
1573889729.079,47.852,25.391,593.750,49.805,137.695
1573889729.083,48.340,27.832,351.562,39.551,131.836
1573889729.087,35.156,28.320,-356.445,18.555,-57.129
1573889729.090,33.691,35.645,-591.797,22.461,-114.746
1573889729.094,41.992,40.527,57.617,40.039,67.871
1573889729.098,36.621,33.691,406.738,37.109,138.184
1573889729.102,22.461,28.320,-274.902,11.719,-42.969
1573889729.106,21.973,25.391,-396.973,10.254,-100.098
1573889729.110,36.133,27.832,411.133,34.668,74.707
1573889729.114,46.387,36.621,677.734,42.480,189.453
1573889729.118,29.297,36.621,-84.473,16.602,33.203
1573889729.122,16.602,34.668,-487.305,1.465,-109.863
1573889729.126,32.227,40.527,177.246,25.879,1.953
1573889729.130,39.062,42.480,662.109,39.551,167.480
1573889729.133,29.297,31.738,-81.055,15.625,83.984
1573889729.137,16.113,27.344,-879.883,-7.324,-88.379
1573889729.141,25.391,38.086,-372.559,13.672,-80.078
1573889729.145,37.598,42.480,424.805,39.551,109.375
1573889729.149,26.855,36.133,235.352,19.043,135.254
1573889729.153,17.090,37.109,-460.938,-3.418,-82.031
1573889729.157,24.414,35.156,-214.355,10.254,-105.469
1573889729.161,37.598,25.879,526.855,34.668,102.051
1573889729.165,41.504,22.949,514.648,37.109,206.543
1573889729.169,33.691,24.902,-170.898,15.625,24.414
1573889729.173,27.344,27.832,-293.945,12.207,-106.445
1573889729.176,41.992,27.832,322.754,37.109,38.574
1573889729.180,55.176,26.855,422.852,49.316,172.852
1573889729.184,45.410,33.691,-291.016,32.715,43.457
1573889729.188,36.621,34.668,-640.625,25.391,-134.277
1573889729.192,44.434,23.926,-12.207,44.434,-41.992
1573889729.196,60.547,22.461,155.762,60.059,128.418
1573889729.200,54.199,25.879,-343.262,46.387,60.059
1573889729.204,35.156,23.438,-520.996,23.438,-108.398
1573889729.208,32.715,24.902,-192.383,37.109,-83.984
1573889729.212,42.969,25.879,417.969,66.895,126.953
1573889729.215,42.480,22.461,426.270,53.711,183.105
1573889729.219,17.090,19.531,-195.801,12.695,-13.184
1573889729.223,4.883,17.090,-261.230,13.184,-81.543
1573889729.227,25.391,15.625,209.473,42.969,67.871
1573889729.231,34.180,25.391,187.988,40.039,148.438
1573889729.235,15.625,29.297,-363.770,5.859,-7.324
1573889729.239,11.230,29.785,-618.652,-2.441,-123.047
1573889729.243,28.320,37.598,-177.246,21.973,10.254
1573889729.247,30.762,33.691,448.730,23.926,180.664
1573889729.251,17.578,24.902,45.898,-1.465,49.805
1573889729.255,11.230,23.438,-555.176,-13.672,-132.324
1573889729.258,23.438,21.973,-74.707,11.719,-44.922
1573889729.262,39.062,23.438,624.023,33.691,154.785
1573889729.266,31.738,24.414,283.203,16.602,119.629
1573889729.270,22.461,26.855,-413.086,1.465,-85.938
1573889729.274,26.367,25.879,-284.180,18.066,-88.867
1573889729.278,36.621,20.020,319.336,41.992,108.398
1573889729.282,44.922,27.832,308.594,45.410,144.043
1573889729.286,44.434,31.250,-609.375,25.879,-42.480
1573889729.290,40.039,27.344,-691.406,23.438,-124.023
1573889729.294,50.293,23.438,371.094,52.246,53.223
1573889729.298,60.059,22.949,571.777,58.594,195.801
1573889729.301,43.457,23.926,-180.176,29.785,27.832
1573889729.305,32.227,27.832,-370.117,19.043,-127.930
1573889729.309,47.852,34.180,244.629,44.434,0.977
1573889729.313,59.570,28.809,456.543,59.570,174.316
1573889729.317,44.922,24.414,-91.309,29.785,61.523
1573889729.321,33.691,36.621,-651.855,10.254,-139.160
1573889729.325,45.410,44.434,-176.270,28.809,-51.270
1573889729.329,51.758,35.156,465.332,41.992,171.875
1573889729.333,40.527,32.715,-295.410,21.484,89.844
1573889729.337,22.949,31.250,-812.500,-5.371,-109.375
1573889729.340,26.855,27.832,-116.699,8.789,-63.477
1573889729.344,40.527,28.809,455.566,35.156,118.164
1573889729.348,38.574,30.273,282.227,25.879,151.855
1573889729.352,24.902,27.832,-190.918,-5.371,-20.996
1573889729.356,22.461,29.785,-204.102,-3.906,-104.004
1573889729.360,33.691,32.715,375.977,24.414,62.500
1573889729.364,39.551,27.832,572.754,29.297,187.012
1573889729.368,27.344,23.926,-128.418,4.883,35.156
1573889729.372,17.090,24.902,-576.660,-2.441,-123.535
1573889729.376,32.715,26.855,-184.082,29.785,-9.277
1573889729.380,39.551,26.367,355.957,44.434,183.105
1573889729.383,28.320,30.762,281.250,22.461,108.887
1573889729.387,21.484,27.832,-276.367,6.836,-103.027
1573889729.391,31.738,24.902,15.137,30.273,-63.965
1573889729.395,49.805,32.715,756.836,55.664,143.066
1573889729.399,51.758,38.574,606.445,46.875,146.484
1573889729.403,43.945,38.086,-139.648,26.367,-48.340
1573889729.407,44.434,28.320,-83.008,29.785,-88.379
1573889729.411,58.594,30.762,712.402,53.711,103.027
1573889729.415,62.988,41.504,699.707,52.734,192.383
1573889729.419,44.922,33.203,-249.023,20.996,-4.395
1573889729.423,42.969,24.902,-585.449,17.578,-128.418
1573889729.426,60.547,31.250,189.453,47.363,9.277
1573889729.430,67.871,38.574,702.148,54.199,161.621
1573889729.434,54.688,38.574,170.410,25.879,46.875
1573889729.438,42.480,32.227,-190.918,11.230,-113.770
1573889729.442,52.734,28.320,466.309,33.203,-19.531
1573889729.446,61.523,30.762,968.262,47.852,167.480
1573889729.450,50.781,28.809,434.082,26.367,98.633
1573889729.454,38.574,25.391,-167.480,3.418,-109.863
1573889729.458,46.387,33.691,260.254,23.926,-69.336
1573889729.462,58.594,36.133,842.285,47.852,148.926
1573889729.465,51.270,34.180,287.598,29.785,166.992
1573889729.469,47.363,39.062,-393.555,18.066,-25.879
1573889729.473,51.270,33.691,52.246,38.574,-83.984
1573889729.477,50.781,20.020,751.953,54.688,98.145
1573889729.481,41.992,12.207,599.121,40.039,179.199
1573889729.485,27.344,13.184,-28.320,15.625,17.578
1573889729.489,25.879,18.066,-63.965,18.066,-94.727
1573889729.493,41.992,26.855,421.387,44.922,22.461
1573889729.497,48.828,25.391,604.004,49.316,167.480
1573889729.501,35.156,14.648,109.863,22.949,53.223
1573889729.505,26.855,15.137,-231.934,8.789,-115.234
1573889729.508,32.227,21.973,-32.227,23.438,-63.965
1573889729.512,47.363,20.996,202.637,45.410,136.230
1573889729.516,41.992,20.996,75.195,32.715,109.863
1573889729.520,20.508,28.809,-298.828,5.859,-75.195
1573889729.524,23.438,36.621,-82.520,19.531,-61.523
1573889729.528,32.715,26.855,502.441,39.551,122.559
1573889729.532,22.949,15.137,451.660,25.879,161.133
1573889729.536,13.672,17.090,-210.449,3.418,-28.809
1573889729.540,17.090,22.949,-326.660,10.742,-104.980
1573889729.544,29.297,26.367,409.180,40.039,94.238
1573889729.548,33.691,24.414,636.230,42.480,198.242
1573889729.551,20.508,21.973,-56.641,16.602,29.785
1573889729.555,7.812,13.672,-490.723,9.277,-102.539
1573889729.559,20.508,11.719,-153.320,37.598,-23.438
1573889729.563,35.645,15.137,226.562,55.176,127.441
1573889729.567,26.367,13.184,-112.305,30.762,63.965
1573889729.571,11.719,13.672,-858.398,6.836,-105.957
1573889729.575,20.020,20.020,-490.723,22.949,-61.523
1573889729.579,33.203,23.438,439.941,45.410,140.137
1573889729.583,29.297,22.949,181.152,32.227,157.227
1573889729.587,14.648,19.043,-569.336,4.883,-63.477
1573889729.590,12.207,14.160,-304.199,12.207,-100.098
1573889729.594,26.855,11.719,346.680,39.551,107.422
1573889729.598,27.832,16.113,183.594,32.227,162.598
1573889729.602,16.602,15.137,-572.266,2.930,-38.086
1573889729.606,15.137,17.090,-735.840,3.906,-154.785
1573889729.610,28.320,25.391,93.750,26.855,42.969
1573889729.614,33.203,25.879,281.738,27.832,179.199
1573889729.618,23.926,23.438,-597.656,4.883,1.953
1573889729.622,20.508,23.438,-587.402,1.465,-107.422
1573889729.626,26.367,29.297,241.211,23.926,17.090
1573889729.630,32.227,35.645,526.855,35.156,163.086
1573889729.633,20.996,30.762,34.668,12.695,88.379
1573889729.637,2.441,20.996,-386.719,-10.742,-107.910
1573889729.641,9.766,20.508,-20.020,7.324,-80.078
1573889729.645,26.367,28.809,462.891,34.668,127.930
1573889729.649,27.344,39.062,96.680,24.902,126.953
1573889729.653,18.555,37.109,-571.289,2.930,-83.496
1573889729.657,20.996,31.250,-432.617,16.113,-120.117
1573889729.661,39.062,34.668,-1.953,42.480,54.688
1573889729.665,40.039,31.738,125.977,35.645,164.062
1573889729.669,26.855,26.367,-94.238,12.207,13.672
1573889729.673,25.879,23.438,-316.406,11.230,-149.414
1573889729.676,36.621,29.297,217.285,37.109,5.859
1573889729.680,46.875,36.621,645.996,48.340,181.641
1573889729.684,35.645,23.926,130.371,22.949,49.805
1573889729.688,24.902,21.973,-359.375,11.719,-118.164
1573889729.692,37.598,27.344,121.094,37.598,-30.273
1573889729.696,50.293,25.879,541.016,54.688,162.109
1573889729.700,43.457,24.902,119.629,30.762,107.910
1573889729.704,31.250,31.738,-544.434,6.348,-120.605
1573889729.708,35.156,37.598,-497.559,20.020,-111.816
1573889729.712,42.969,29.785,437.500,43.457,131.836
1573889729.715,36.621,20.996,509.766,34.668,157.715
1573889729.719,17.578,21.484,-284.668,8.301,-56.641
1573889729.723,10.254,24.902,-247.070,10.254,-103.516
1573889729.727,26.367,27.344,541.504,33.203,79.590
1573889729.731,29.297,22.461,638.184,32.227,182.617
1573889729.735,11.230,20.508,-165.527,7.812,-14.648
1573889729.739,4.395,26.367,-396.973,3.418,-156.250
1573889729.743,19.043,21.973,141.602,28.809,-7.324
1573889729.747,31.250,19.531,411.133,40.527,163.574
1573889729.751,18.555,20.508,-302.246,13.672,53.711
1573889729.755,2.930,18.555,-812.012,-7.324,-145.020
1573889729.758,12.695,21.484,45.898,20.020,-52.246
1573889729.762,36.133,20.508,526.855,46.875,131.348
1573889729.766,25.391,18.066,48.340,24.902,101.074
1573889729.770,10.254,25.391,-422.852,2.930,-99.121
1573889729.774,24.902,33.203,-63.965,22.949,-94.238
1573889729.778,37.598,24.902,564.453,48.828,139.160
1573889729.782,36.621,19.043,374.512,38.574,176.758
1573889729.786,28.320,26.855,-254.395,14.648,-27.344
1573889729.790,31.250,30.762,-315.430,22.949,-89.355
1573889729.794,46.875,25.879,126.465,48.828,73.730
1573889729.798,49.316,28.809,1.465,44.922,136.230
1573889729.801,39.062,32.715,-417.969,21.973,-8.301
1573889729.805,27.344,27.832,-360.840,11.719,-106.445
1573889729.809,29.785,20.996,186.035,28.320,26.367
1573889729.813,39.551,15.137,487.793,41.504,172.852
1573889729.817,27.832,15.625,47.852,13.184,75.195
1573889729.821,11.230,23.926,-459.473,-7.812,-81.055
1573889729.825,18.066,28.809,-103.516,12.207,-29.297
1573889729.829,31.738,27.832,492.188,32.227,154.297
1573889729.833,28.320,24.902,296.387,25.879,147.949
1573889729.837,14.160,20.508,-413.574,5.371,-51.758
1573889729.840,17.090,24.414,-635.742,11.719,-101.562
1573889729.844,31.250,30.762,51.758,34.180,101.562
1573889729.848,38.086,27.832,442.383,38.574,195.801
1573889729.852,39.551,24.414,-230.957,27.344,-22.949
1573889729.856,28.809,21.484,-527.344,19.043,-143.066
1573889729.860,36.621,26.367,187.988,38.086,33.691
1573889729.864,45.410,32.715,552.734,45.410,180.176
1573889729.868,25.879,23.438,-161.133,12.695,26.367
1573889729.872,21.973,25.391,-597.656,5.371,-161.133
1573889729.876,28.320,23.926,-16.113,28.809,-33.691
1573889729.880,32.715,25.391,433.105,41.016,167.480
1573889729.883,25.879,27.344,-176.758,25.879,93.750
1573889729.887,10.254,16.113,-710.938,4.395,-53.711
1573889729.891,18.066,20.020,-109.375,20.996,-46.875
1573889729.895,37.598,28.809,614.258,49.805,132.324
1573889729.899,33.691,27.832,192.871,33.691,148.438
1573889729.903,13.672,22.461,-679.199,-1.465,-61.523
1573889729.907,9.277,18.555,-288.574,1.953,-83.008
1573889729.911,29.297,23.926,509.766,27.832,112.793
1573889729.915,34.180,24.902,394.531,24.902,166.992
1573889729.919,20.020,20.508,-343.750,0.488,-39.062
1573889729.923,18.555,29.297,-362.793,4.883,-127.441
1573889729.926,28.320,32.227,354.004,30.273,52.246
1573889729.930,30.273,20.020,452.148,30.273,196.289
1573889729.934,18.066,17.578,-314.453,1.953,46.875
1573889729.938,9.766,19.531,-579.102,-11.719,-128.418
1573889729.942,24.902,20.020,92.285,17.090,-21.973
1573889729.946,37.109,20.996,224.121,32.227,140.625
1573889729.950,29.297,23.926,-203.613,14.648,103.516
1573889729.954,24.414,32.715,-368.164,6.348,-71.289
1573889729.958,28.320,29.297,-129.883,19.043,-88.867
1573889729.962,40.039,28.809,411.621,43.945,117.676
1573889729.965,41.504,30.762,389.648,38.086,165.527
1573889729.969,25.879,22.461,-178.223,13.184,-24.902
1573889729.973,22.949,21.973,-274.414,17.578,-119.141
1573889729.977,38.086,28.809,227.539,46.387,64.941
1573889729.981,45.410,31.250,274.902,46.387,183.105
1573889729.985,28.809,29.297,-281.738,15.137,15.137
1573889729.989,21.484,31.250,-573.730,9.766,-121.094
1573889729.993,35.156,39.062,-205.078,34.668,-5.371
1573889729.997,41.992,37.109,348.145,44.922,148.926
1573889730.001,31.738,23.926,0.977,19.531,47.363
1573889730.005,17.090,20.508,-484.375,1.465,-119.141
1573889730.008,24.414,25.879,-44.434,23.438,-61.035
1573889730.012,41.504,33.691,620.605,47.852,156.250
1573889730.016,33.203,35.645,285.156,29.785,126.953
1573889730.020,14.648,33.691,-427.246,3.418,-92.285
1573889730.024,19.043,31.738,-293.945,19.043,-98.145
1573889730.028,34.180,24.902,291.016,39.062,100.586
1573889730.032,34.180,23.438,223.145,27.832,139.648
1573889730.036,20.020,22.461,-479.004,-0.977,-41.016
1573889730.040,16.113,26.367,-382.812,-0.488,-109.375
1573889730.044,37.598,39.062,508.789,37.109,73.730
1573889730.048,43.945,38.574,602.539,39.551,203.613
1573889730.051,26.367,33.203,-362.305,1.465,28.320
1573889730.055,22.461,29.785,-489.746,-4.395,-104.004
1573889730.059,36.133,23.438,423.828,29.297,15.625
1573889730.063,46.387,22.949,673.340,43.945,154.785
1573889730.067,31.738,24.902,104.492,18.066,84.473
1573889730.071,15.625,26.367,-417.969,3.418,-139.648
1573889730.075,26.367,23.926,-12.695,30.273,-100.098
1573889730.079,44.922,26.367,504.883,54.199,133.789
1573889730.083,39.551,31.250,24.902,36.621,90.820
1573889730.087,16.113,23.926,-349.121,8.301,-123.047
1573889730.090,16.113,26.367,131.836,19.531,-118.164
1573889730.094,35.645,37.598,785.156,46.875,111.816
1573889730.098,34.668,34.180,727.539,43.457,174.316
1573889730.102,13.184,24.902,84.473,14.160,-13.184
1573889730.106,11.230,27.832,-73.242,15.625,-121.094
1573889730.110,24.414,30.273,614.258,44.434,53.223
1573889730.114,25.879,29.785,871.094,42.480,175.781
1573889730.118,10.254,24.414,183.594,9.766,42.969
1573889730.122,0.000,21.973,-125.977,-2.930,-80.566
1573889730.126,10.742,25.391,153.320,17.578,-38.086
1573889730.130,18.066,25.879,530.762,28.320,148.438
1573889730.133,13.672,32.227,474.609,15.137,107.910
1573889730.137,10.254,29.785,-32.227,-0.488,-81.055
1573889730.141,17.578,32.715,211.914,17.578,-59.570
1573889730.145,36.621,39.062,884.766,49.805,138.184
1573889730.149,37.598,26.367,709.473,39.062,149.414
1573889730.153,17.578,18.066,-82.520,9.766,-66.406
1573889730.157,18.555,20.020,-29.297,19.043,-100.098
1573889730.161,41.016,29.297,599.609,45.410,84.473
1573889730.165,47.363,34.668,507.812,46.387,153.320
1573889730.169,40.039,31.738,-347.168,27.832,-32.227
1573889730.173,39.062,31.250,-670.898,21.973,-137.207
1573889730.176,53.711,32.227,253.418,49.805,33.691
1573889730.180,50.293,18.555,731.445,54.688,170.898
1573889730.184,26.367,14.648,36.621,15.625,45.898
1573889730.188,19.043,25.879,-350.586,7.812,-107.910
1573889730.192,33.691,29.785,243.652,38.574,-31.738
1573889730.196,41.016,29.785,687.500,49.316,154.297
1573889730.200,29.785,25.391,104.492,26.367,88.379
1573889730.204,16.113,19.531,-505.371,10.742,-123.047
1573889730.208,19.043,28.320,-69.336,25.391,-96.191
1573889730.212,31.738,30.273,514.160,45.410,133.789
1573889730.215,26.367,20.508,-61.523,27.832,139.160
1573889730.219,7.324,15.137,-791.992,-4.883,-83.984
1573889730.223,6.348,17.090,-337.402,0.977,-123.535
1573889730.227,28.809,27.344,357.422,37.109,58.594
1573889730.231,41.016,29.785,372.070,44.922,180.176
1573889730.235,31.250,29.297,-174.805,9.766,26.855
1573889730.239,24.902,34.180,-331.055,-0.488,-116.211
1573889730.243,39.551,28.809,206.543,28.320,29.297
1573889730.247,46.387,16.602,438.965,35.645,186.035
1573889730.251,32.715,17.578,-50.293,13.184,86.426
1573889730.255,20.508,23.926,-479.492,-1.465,-118.652
1573889730.258,30.762,32.715,-295.410,21.484,-80.078
1573889730.262,43.457,39.551,-67.871,35.156,122.559
1573889730.266,33.691,32.715,-117.188,16.602,121.582
1573889730.270,23.926,26.367,-464.844,-0.488,-88.379
1573889730.274,27.832,24.902,-385.742,9.766,-124.512
1573889730.278,43.945,31.738,245.605,39.062,111.328
1573889730.282,48.828,37.598,306.152,37.109,173.340
1573889730.286,29.785,31.738,-230.469,6.836,-3.906
1573889730.290,23.438,31.250,-338.379,3.418,-100.586
1573889730.294,37.598,32.715,283.203,30.762,55.664
1573889730.298,33.691,24.414,534.668,32.227,190.918
1573889730.301,14.648,20.020,-22.949,1.953,75.195
1573889730.305,11.719,28.320,-425.293,-3.906,-69.824
1573889730.309,25.879,33.203,-17.090,23.926,7.812
1573889730.313,33.203,34.180,524.902,32.227,193.359
1573889730.317,25.391,30.273,124.512,12.695,99.121
1573889730.321,16.113,23.926,-736.816,-2.441,-114.258
1573889730.325,26.367,29.785,-401.855,17.578,-81.055
1573889730.329,52.734,35.156,523.926,45.898,158.691
1573889730.333,52.734,36.133,102.539,28.320,133.789
1573889730.337,36.133,38.574,-584.473,6.836,-101.562
1573889730.340,30.762,33.691,-195.801,17.578,-117.188
1573889730.344,38.574,27.344,597.168,36.621,106.445
1573889730.348,48.340,38.086,458.984,38.086,160.156
1573889730.352,34.668,45.410,-358.398,20.020,-28.320
1573889730.356,32.715,41.016,-529.785,25.391,-143.066
1573889730.360,44.922,37.109,251.465,49.316,33.691
1573889730.364,43.457,32.715,495.117,47.363,202.637
1573889730.368,32.715,28.320,-387.207,19.043,27.344
1573889730.372,27.832,30.273,-481.445,11.719,-126.465
1573889730.376,38.574,35.645,360.840,39.551,16.602
1573889730.380,44.434,37.109,741.211,55.176,210.449
1573889730.383,32.227,33.691,228.027,27.344,124.512
1573889730.387,16.113,30.273,-373.047,1.465,-107.422
1573889730.391,18.555,29.785,-37.109,18.555,-79.590
1573889730.395,32.715,30.762,532.227,39.062,119.629
1573889730.399,33.203,29.785,144.043,28.809,116.211
1573889730.403,17.578,26.855,-528.320,0.977,-66.895
1573889730.407,13.184,32.227,-280.273,3.906,-116.211
1573889730.411,35.156,40.527,180.176,39.551,68.848
1573889730.415,39.551,40.039,76.660,33.203,150.879
1573889730.419,11.719,30.762,-202.637,-7.324,-11.230
1573889730.423,3.906,28.809,-328.613,-8.789,-132.812
1573889730.426,19.531,33.691,207.520,21.973,14.648
1573889730.430,25.391,32.227,574.707,26.855,173.828
1573889730.434,13.672,30.762,100.098,6.348,67.383
1573889730.438,11.230,38.086,-327.148,1.953,-86.914
1573889730.442,30.762,32.715,57.617,31.250,0.000
1573889730.446,43.945,25.391,461.914,48.828,177.246
1573889730.450,33.203,28.320,85.449,28.320,134.766
1573889730.454,23.926,31.738,-607.910,12.695,-62.500
1573889730.458,26.367,31.738,-536.133,27.832,-83.008
1573889730.462,38.086,32.715,375.000,50.293,130.371
1573889730.465,43.457,34.668,419.922,43.945,152.832
1573889730.469,23.926,27.832,-408.691,11.719,-77.637
1573889730.473,20.996,25.879,-318.848,14.160,-102.539
1573889730.477,34.180,32.227,502.441,40.039,94.238
1573889730.481,33.691,33.691,563.965,37.109,179.688
1573889730.485,14.160,36.133,-172.363,3.906,10.742
1573889730.489,2.441,34.668,-395.508,-6.836,-92.285
1573889730.493,18.555,31.738,124.512,25.879,36.133
1573889730.497,23.926,30.273,386.230,30.273,162.598
1573889730.501,12.695,30.273,-403.809,-1.953,40.527
1573889730.505,4.883,37.109,-847.168,-11.719,-117.676
1573889730.508,17.578,46.387,41.016,16.602,-35.645
1573889730.512,31.250,44.922,568.359,31.250,144.531
1573889730.516,20.996,31.250,102.539,1.465,115.723
1573889730.520,7.324,28.809,-403.320,-21.973,-79.590
1573889730.524,9.766,33.203,-68.848,-5.859,-86.426
1573889730.528,20.020,30.762,466.309,13.184,103.027
1573889730.532,20.996,35.156,207.520,6.836,121.094
1573889730.536,11.719,41.016,-396.484,-14.648,-74.219
1573889730.540,9.277,39.551,-468.262,-6.836,-162.109
1573889730.544,28.320,28.809,30.762,26.367,23.438
1573889730.548,36.133,28.320,-35.645,24.414,157.227
1573889730.551,22.949,33.203,-423.828,-4.883,21.973
1573889730.555,20.020,25.879,-415.039,-0.977,-104.004
1573889730.559,40.527,26.367,44.434,38.086,23.438
1573889730.563,56.641,38.574,488.770,52.734,185.547
1573889730.567,46.387,43.457,153.809,25.391,100.098
1573889730.571,32.227,33.203,-332.031,8.789,-101.074
1573889730.575,37.598,23.926,-59.570,32.715,-72.754
1573889730.579,45.410,25.391,471.680,49.805,129.883
1573889730.583,33.691,33.691,311.523,33.691,134.277
1573889730.587,12.207,38.086,-424.316,10.742,-59.082
1573889730.590,10.742,40.527,-473.145,13.184,-91.797
1573889730.594,26.367,33.203,295.410,35.645,99.121
1573889730.598,31.250,22.949,389.648,28.809,140.625
1573889730.602,21.973,33.203,-248.047,0.977,-18.066
1573889730.606,17.090,37.109,-642.578,-3.906,-118.164
1573889730.610,29.785,29.297,-93.262,18.066,22.461
1573889730.614,33.203,27.344,416.016,22.461,188.965
1573889730.618,20.020,32.715,-238.770,2.441,21.484
1573889730.622,9.766,35.645,-546.875,-7.324,-107.910
1573889730.626,22.461,33.203,182.617,20.020,23.926
1573889730.630,42.480,34.668,677.734,46.875,184.570
1573889730.633,37.598,37.598,-12.207,22.949,101.562
1573889730.637,20.020,36.621,-894.531,-2.930,-116.699
1573889730.641,18.066,29.785,-275.391,11.230,-63.477
1573889730.645,38.086,30.273,624.023,40.527,155.273
1573889730.649,45.898,37.598,268.555,38.574,144.043
1573889730.653,25.879,35.645,-399.414,6.836,-48.340
1573889730.657,23.926,28.809,-114.258,7.324,-69.824
1573889730.661,43.945,28.809,582.520,39.551,119.141
1573889730.665,49.805,29.297,472.656,41.016,177.246
1573889730.669,38.086,30.273,-294.922,15.137,9.766
1573889730.673,34.668,34.668,-425.781,18.066,-95.215
1573889730.676,46.875,31.738,302.246,41.504,47.852
1573889730.680,52.734,32.715,472.168,48.340,184.570
1573889730.684,39.062,36.133,-277.832,23.438,54.199
1573889730.688,25.391,33.203,-494.629,10.742,-81.055
1573889730.692,32.227,28.320,158.691,30.273,-8.789
1573889730.696,42.480,30.273,216.797,38.574,135.742
1573889730.700,37.109,29.297,-360.840,23.438,92.773
1573889730.704,17.578,20.508,-460.449,1.953,-44.434
1573889730.708,22.949,21.484,-117.188,14.648,-56.641
1573889730.712,40.039,28.320,389.648,41.992,110.352
1573889730.715,28.809,21.484,351.074,27.832,153.320
1573889730.719,6.836,13.184,-250.488,-4.883,-44.922
1573889730.723,10.742,15.625,-231.934,-1.465,-90.820
1573889730.727,32.227,19.043,301.270,31.250,86.914
1573889730.731,38.086,25.879,312.012,32.227,174.805
1573889730.735,24.902,32.715,-233.398,3.418,10.254
1573889730.739,23.926,31.738,-448.242,5.859,-143.555
1573889730.743,45.410,26.367,209.473,37.109,7.324
1573889730.747,57.129,24.902,742.188,52.246,191.406
1573889730.751,46.875,28.809,290.039,33.691,67.871
1573889730.755,38.574,34.668,-389.160,20.508,-122.559
1573889730.758,45.410,31.738,-134.766,39.551,-40.527
1573889730.762,57.617,30.762,744.141,62.500,179.199
1573889730.766,58.594,31.250,545.410,55.176,133.789
1573889730.770,44.434,21.973,-196.777,30.273,-94.727
1573889730.774,45.898,17.578,-74.707,41.016,-108.887
1573889730.778,57.617,16.113,566.406,61.035,103.516
1573889730.782,55.176,19.043,506.348,45.898,167.480
1573889730.786,41.992,23.926,-397.949,19.531,-41.504
1573889730.790,39.551,24.902,-366.699,14.648,-125.000
1573889730.794,46.875,24.414,715.820,36.133,67.871
1573889730.798,43.945,24.414,840.820,33.203,171.387
1573889730.801,25.391,20.508,135.742,-0.977,20.020
1573889730.805,18.066,18.555,-33.691,-7.324,-127.441
1573889730.809,29.297,23.926,644.531,19.531,7.324
1573889730.813,34.180,24.414,908.691,31.250,172.363
1573889730.817,17.578,23.926,312.012,5.371,67.383
1573889730.821,1.465,27.832,-207.031,-12.695,-104.004
1573889730.825,11.719,32.715,150.391,10.254,-52.246
1573889730.829,22.949,17.578,662.109,22.461,151.367
1573889730.833,15.625,6.836,102.051,0.000,132.324
1573889730.837,8.301,13.672,-374.512,-13.184,-79.102
1573889730.840,18.555,25.391,-62.988,3.906,-116.699
1573889730.844,39.551,35.156,561.035,30.273,99.609
1573889730.848,47.852,26.855,604.980,32.715,175.293
1573889730.852,31.250,16.113,73.242,8.789,9.277
1573889730.856,29.297,24.414,2.441,13.672,-94.238
1573889730.860,45.898,32.227,491.699,43.457,45.898
1573889730.864,44.922,23.926,610.840,41.016,161.621
1573889730.868,31.738,20.996,-72.266,15.625,28.809
1573889730.872,27.832,26.855,-460.449,15.137,-136.719
1573889730.876,40.039,25.391,-146.484,37.109,-54.199
1573889730.880,46.875,20.508,210.938,48.828,131.836
1573889730.883,36.133,20.996,152.832,30.762,94.238
1573889730.887,15.625,20.020,-326.660,7.324,-84.473
1573889730.891,15.137,20.508,-48.340,17.578,-44.434
1573889730.895,29.297,19.531,529.785,41.504,152.344
1573889730.899,31.250,18.066,316.895,33.691,140.625
1573889730.903,25.879,23.926,-353.027,11.719,-55.664
1573889730.907,20.996,22.949,-296.875,15.137,-97.656
1573889730.911,29.297,17.090,464.355,34.668,105.957
1573889730.915,32.715,22.461,378.418,32.227,173.828
1573889730.919,13.184,27.832,-548.828,3.418,-47.363
1573889730.923,0.977,21.484,-859.375,-1.465,-159.180
1573889730.926,11.719,20.020,92.285,21.973,41.504
1573889730.930,20.020,24.902,591.797,27.832,194.336
1573889730.934,8.789,23.926,-152.832,5.371,36.133
1573889730.938,2.441,22.461,-528.320,-0.488,-115.723
1573889730.942,11.719,24.902,137.207,21.973,3.418
1573889730.946,23.438,25.879,641.113,40.527,192.871
1573889730.950,21.484,19.531,98.145,27.344,117.188
1573889730.954,17.090,20.996,-647.949,13.672,-98.145
1573889730.958,26.855,26.367,-249.023,31.250,-73.242
1573889730.962,38.086,25.879,379.395,50.781,121.094
1573889730.965,43.945,30.273,-177.734,41.992,119.141
1573889730.969,32.227,39.062,-837.891,17.578,-80.566
1573889730.973,28.320,35.156,-384.766,17.578,-136.230
1573889730.977,39.551,21.484,325.195,39.062,49.316
1573889730.981,40.527,17.578,379.395,34.180,184.570
1573889730.985,26.367,25.391,-188.965,6.348,15.137
1573889730.989,25.879,36.133,-319.336,7.324,-119.629
1573889730.993,44.434,36.133,250.000,34.180,23.926
1573889730.997,43.945,30.273,513.184,33.691,182.129
1573889731.001,26.855,28.320,69.824,5.371,84.473
1573889731.005,18.555,34.180,-291.504,-7.324,-85.449
1573889731.008,30.762,45.898,-15.625,12.207,-27.832
1573889731.012,44.434,43.945,328.125,30.273,153.320
1573889731.016,31.250,29.785,4.395,6.348,113.281
1573889731.020,14.648,24.414,-391.602,-18.555,-74.219
1573889731.024,20.508,20.996,-245.117,0.977,-97.168
1573889731.028,36.621,26.367,106.445,32.227,80.566
1573889731.032,34.180,34.180,289.062,30.762,152.832
1573889731.036,17.090,31.738,-171.875,5.859,-41.992
1573889731.040,11.719,33.691,-250.488,7.324,-114.746
1573889731.044,25.391,36.621,402.832,37.598,55.176
1573889731.048,31.250,29.297,658.691,44.922,180.664
1573889731.051,24.902,24.414,62.500,26.367,31.738
1573889731.055,18.555,18.066,-454.590,18.555,-165.039
1573889731.059,25.391,19.531,-5.371,41.504,-35.645
1573889731.063,38.574,28.320,473.633,54.688,161.621
1573889731.067,29.785,32.227,8.301,31.250,72.754
1573889731.071,19.531,34.180,-731.934,12.207,-120.605
1573889731.075,29.297,34.180,-327.148,30.762,-71.289
1573889731.079,41.992,33.691,675.293,51.758,171.387
1573889731.083,34.668,31.738,426.758,33.691,186.035
1573889731.087,24.902,28.809,-333.984,6.836,-41.504
1573889731.090,32.227,30.273,-75.684,15.137,-78.125
1573889731.094,51.758,38.574,651.367,42.969,120.117
1573889731.098,51.758,36.621,417.969,34.668,153.809
1573889731.102,31.738,34.668,-435.059,2.930,-22.949
1573889731.106,22.949,38.574,-512.695,0.000,-92.285
1573889731.110,35.645,39.551,277.832,24.902,65.918
1573889731.114,40.527,30.273,467.285,26.855,208.496
1573889731.118,20.996,22.949,-344.238,-7.324,75.684
1573889731.122,10.254,28.809,-564.453,-16.602,-79.102
1573889731.126,21.973,37.109,132.812,13.184,0.977
1573889731.130,27.832,33.691,498.535,21.973,144.531
1573889731.133,18.555,21.973,61.523,-0.977,94.727
1573889731.137,9.766,29.785,-354.492,-12.695,-99.609
1573889731.141,16.602,39.551,32.227,9.766,-63.965
1573889731.145,36.621,36.133,579.102,39.062,144.531
1573889731.149,41.016,33.691,91.797,28.320,104.980
1573889731.153,24.902,35.156,-506.836,0.977,-20.020
1573889731.157,23.926,33.691,-128.418,12.695,-17.578
1573889731.161,41.504,31.738,187.988,35.645,83.496
1573889731.165,44.434,37.109,35.156,33.203,153.320
1573889731.169,31.250,37.598,-308.594,14.648,-31.738
1573889731.173,24.902,33.203,-438.965,7.324,-156.738
1573889731.176,37.598,35.645,116.699,30.762,26.855
1573889731.180,38.086,31.738,414.062,40.039,187.012
1573889731.184,23.438,27.832,-49.316,10.254,49.316
1573889731.188,15.625,23.926,-469.727,-5.371,-121.582
1573889731.192,21.484,29.785,21.484,15.137,-15.625
1573889731.196,37.109,41.016,486.816,35.645,171.387
1573889731.200,28.809,38.086,43.945,20.020,125.977
1573889731.204,10.742,28.320,-643.555,-6.348,-67.871
1573889731.208,18.066,26.367,-503.906,8.301,-70.312
1573889731.212,27.832,29.785,389.160,30.762,132.324
1573889731.215,25.391,27.832,464.844,20.020,170.410
1573889731.219,16.113,24.414,-316.406,-2.441,-50.293
1573889731.223,15.625,24.902,-368.164,4.395,-146.973
1573889731.227,33.691,31.250,368.652,35.156,27.832
1573889731.231,39.551,30.762,529.297,33.691,164.062
1573889731.235,20.508,28.320,-188.477,4.395,17.578
1573889731.239,11.719,31.250,-471.680,0.000,-145.020
1573889731.243,28.320,32.715,133.789,27.344,2.930
1573889731.247,36.133,34.668,429.688,34.668,184.082
1573889731.251,21.973,27.832,-133.789,4.395,74.219
1573889731.255,5.859,29.785,-511.719,-11.230,-104.004
1573889731.258,15.137,31.738,18.555,10.254,-74.219
1573889731.262,32.227,24.414,573.730,27.832,143.555
1573889731.266,28.809,24.902,-127.930,14.648,98.145
1573889731.270,14.648,28.809,-839.355,-6.836,-139.160
1573889731.274,18.066,34.180,-152.344,9.766,-82.031
1573889731.278,33.691,40.527,478.027,38.574,119.629
1573889731.282,22.949,31.250,213.867,25.879,135.742
1573889731.286,0.488,16.113,-307.617,-7.324,-39.551
1573889731.290,-0.488,17.578,-412.109,-8.789,-129.395
1573889731.294,21.973,25.391,39.062,19.531,48.828
1573889731.298,33.203,28.809,247.559,19.531,168.945
1573889731.301,18.066,34.180,-200.684,-11.230,9.277
1573889731.305,12.695,32.715,-371.582,-14.648,-139.648
1573889731.309,30.762,20.996,-5.371,16.602,-24.414
1573889731.313,48.340,21.973,127.441,31.738,156.738
1573889731.317,41.992,33.691,-62.012,13.184,99.121
1573889731.321,25.391,37.109,-352.539,-3.418,-92.285
1573889731.325,22.949,34.180,-46.875,10.254,-52.246
1573889731.329,33.203,30.762,546.387,28.320,160.156
1573889731.333,30.273,19.043,292.480,12.207,145.020
1573889731.337,11.719,13.672,-502.441,-14.648,-72.266
1573889731.340,9.277,20.508,-592.285,-6.348,-95.215
1573889731.344,29.785,28.320,66.895,27.344,89.355
1573889731.348,35.645,28.320,289.551,29.785,155.762
1573889731.352,21.484,23.438,-298.340,1.953,-23.438
1573889731.356,15.625,24.414,-424.316,-0.488,-149.414
1573889731.360,30.762,30.762,381.348,31.738,53.223
1573889731.364,41.016,30.273,768.555,39.062,230.469
1573889731.368,29.785,24.414,-12.207,16.113,62.500
1573889731.372,23.926,31.738,-472.168,13.672,-110.840
1573889731.376,36.133,36.133,167.969,38.086,-10.254
1573889731.380,49.805,25.391,723.633,50.781,202.637
1573889731.383,39.062,17.090,54.688,24.902,124.023
1573889731.387,20.996,18.555,-943.848,-0.977,-137.695
1573889731.391,25.391,25.391,-386.719,20.020,-85.938
1573889731.395,49.316,30.273,619.141,55.176,168.457
1573889731.399,48.828,30.273,364.746,41.992,173.828
1573889731.403,22.949,23.926,-422.852,5.371,-45.898
1573889731.407,18.066,15.625,-345.703,12.695,-113.281
1573889731.411,36.621,13.184,405.762,40.039,67.383
1573889731.415,38.086,15.137,457.520,33.691,178.223
1573889731.419,26.367,26.855,-171.875,8.301,23.438
1573889731.423,19.043,29.785,-210.938,3.906,-90.820
1573889731.426,26.367,20.996,414.062,26.855,36.133
1573889731.430,37.598,15.137,516.602,40.527,171.875
1573889731.434,29.297,10.254,-191.895,18.066,41.992
1573889731.438,15.137,12.207,-409.668,0.000,-105.957
1573889731.442,22.949,20.020,315.918,20.508,7.324
1573889731.446,36.621,22.461,442.871,41.016,146.973
1573889731.450,26.367,18.555,-75.684,15.137,77.637
1573889731.454,17.578,25.879,-208.496,-1.953,-78.125
1573889731.458,32.715,30.273,95.703,25.391,-80.078
1573889731.462,45.898,21.484,539.551,45.410,104.980
1573889731.465,33.203,15.137,491.699,25.391,149.414
1573889731.469,20.996,20.020,5.371,5.371,-54.199
1573889731.473,31.250,18.066,-12.695,20.508,-131.348
1573889731.477,49.316,12.695,529.785,45.898,70.312
1573889731.481,56.641,16.113,584.473,46.875,181.152
1573889731.485,38.086,13.184,62.012,20.508,0.000
1573889731.489,28.320,13.184,-215.820,10.742,-140.137
1573889731.493,39.062,15.137,95.215,30.762,-19.531
1573889731.497,45.898,16.113,644.043,41.992,152.832
1573889731.501,34.180,20.020,405.273,20.020,83.984
1573889731.505,27.344,24.902,-74.219,7.324,-75.195
1573889731.508,42.480,21.973,345.703,34.668,-18.555
1573889731.512,49.805,10.742,-997.070,48.340,186.035
1573889731.516,36.621,11.719,515.137,24.414,121.582
1573889731.520,19.531,13.184,-275.879,0.000,-101.562
1573889731.524,20.508,12.207,-39.551,6.836,-83.008
1573889731.528,33.691,14.160,565.430,29.785,112.793
1573889731.532,28.320,22.949,473.633,17.090,139.160
1573889731.536,9.766,29.297,-454.102,-14.648,-69.336
1573889731.540,4.883,18.066,-503.906,-10.742,-146.973
1573889731.544,15.625,8.789,482.910,17.578,37.598
1573889731.548,20.996,12.695,671.387,20.020,177.734
1573889731.551,10.742,18.066,1.953,-6.348,19.043
1573889731.555,5.859,15.137,-216.797,-12.695,-138.672
1573889731.559,19.043,25.391,451.172,14.160,-3.418
1573889731.563,29.785,33.203,709.961,24.902,153.320
1573889731.567,19.531,23.926,119.141,2.441,59.570
1573889731.571,12.695,20.020,-345.703,-9.277,-58.105
1573889731.575,22.461,20.996,2.441,15.625,-15.137
1573889731.579,33.203,22.949,420.898,34.180,127.441
1573889731.583,33.203,29.785,-117.188,21.484,91.309
1573889731.587,26.367,40.039,-534.180,8.789,-92.773
1573889731.590,30.762,40.039,-107.422,19.043,-110.840
1573889731.594,38.086,34.668,478.516,41.504,88.379
1573889731.598,30.762,27.832,443.359,31.250,169.434
1573889731.602,14.648,25.879,-119.629,0.977,-10.742
1573889731.606,15.625,35.156,-200.195,7.812,-105.469
1573889731.610,34.180,38.574,369.629,38.086,51.758
1573889731.614,42.969,35.645,522.949,41.504,169.434
1573889731.618,31.738,41.504,-244.629,18.066,5.371
1573889731.622,19.043,39.062,-636.230,0.000,-146.973
1573889731.626,27.344,29.297,-240.234,17.578,-31.738
1573889731.630,38.574,30.273,28.809,31.250,136.230
1573889731.633,29.785,31.250,-201.660,7.324,51.270
1573889731.637,13.672,34.180,-643.066,-16.113,-144.531
1573889731.641,16.113,39.062,-262.207,-1.465,-76.172
1573889731.645,30.273,41.992,508.789,23.438,158.203
1573889731.649,23.438,40.527,360.840,12.695,157.227
1573889731.653,12.207,42.480,-356.445,-6.348,-26.367
1573889731.657,11.719,36.621,-308.594,1.953,-80.078
1573889731.661,22.461,25.879,414.551,26.855,84.961
1573889731.665,28.809,28.809,357.422,28.320,177.734
1573889731.669,23.926,36.133,-532.715,3.906,-24.902
1573889731.673,23.926,40.527,-900.879,1.953,-189.941
1573889731.676,34.180,40.039,-0.488,34.180,1.953
1573889731.680,49.805,41.992,566.406,48.340,165.039
1573889731.684,42.969,37.598,-131.348,25.879,23.438
1573889731.688,24.902,26.855,-583.496,13.184,-115.234
1573889731.692,29.297,27.344,77.148,35.645,-31.250
1573889731.696,44.922,30.273,691.406,52.734,158.203
1573889731.700,36.133,29.297,224.609,32.715,108.398
1573889731.704,19.531,31.738,-371.094,10.742,-83.008
1573889731.708,22.949,33.691,10.742,21.484,-68.359
1573889731.712,32.227,34.668,529.297,42.969,116.211
1573889731.715,29.785,35.645,-21.973,30.273,121.094
1573889731.719,10.742,29.297,-741.211,-2.441,-87.891
1573889731.723,6.836,33.691,-298.828,2.930,-126.465
1573889731.727,27.344,35.156,450.684,33.691,55.176
1573889731.731,33.203,27.832,435.059,32.227,149.902
1573889731.735,17.090,26.855,-101.562,-1.465,14.648
1573889731.739,12.695,33.203,-224.121,-3.906,-123.047
1573889731.743,30.762,40.527,283.691,24.902,-1.465
1573889731.747,37.109,37.598,514.648,33.203,161.133
1573889731.751,19.531,31.738,67.383,1.953,65.918
1573889731.755,2.930,33.691,-340.820,-16.113,-101.562
1573889731.758,12.207,34.668,-112.305,10.254,-50.293
1573889731.762,29.297,36.621,212.402,25.879,131.348
1573889731.766,21.973,30.273,93.750,8.301,107.422
1573889731.770,12.207,24.902,-291.992,-6.836,-95.215
1573889731.774,20.508,31.738,-195.312,6.836,-125.000
1573889731.778,34.668,35.156,416.504,30.273,90.820
1573889731.782,32.227,34.180,439.941,19.531,144.043
1573889731.786,24.414,37.598,-190.430,1.465,-42.969
1573889731.790,28.320,39.551,-333.984,12.207,-131.348
1573889731.794,41.992,37.109,250.977,40.039,28.320
1573889731.798,46.875,35.156,541.016,45.410,169.922
1573889731.801,32.715,29.785,-145.020,21.484,34.668
1573889731.805,30.273,29.785,-625.977,23.926,-105.957
1573889731.809,41.504,22.949,-23.438,49.805,1.465
1573889731.813,42.480,17.090,608.398,53.711,198.242
1573889731.817,34.668,24.902,178.223,33.691,101.562
1573889731.821,25.391,31.738,-769.531,14.648,-149.414
1573889731.825,26.855,36.621,-492.676,30.273,-112.793
1573889731.829,36.621,34.180,520.996,48.340,136.230
1573889731.833,35.156,24.414,272.461,33.203,139.160
1573889731.837,18.066,22.949,-479.004,11.719,-66.406
1573889731.840,18.555,31.250,-155.762,18.555,-68.359
1573889731.844,35.156,34.180,594.727,43.457,118.652
1573889731.848,34.668,31.738,433.105,37.598,167.969
1573889731.852,21.484,31.250,-402.832,12.207,-7.324
1573889731.856,10.742,33.203,-592.773,2.930,-123.047
1573889731.860,19.043,33.203,77.148,22.461,26.855
1573889731.864,30.762,30.762,149.902,28.809,135.254
1573889731.868,15.137,29.297,-651.855,-3.906,-18.066
1573889731.872,6.348,31.738,-641.113,-12.695,-124.023
1573889731.876,24.902,31.250,186.523,16.113,-6.836
1573889731.880,43.457,34.180,539.062,35.156,162.598
1573889731.883,29.785,34.180,133.789,13.672,131.348
1573889731.887,10.254,28.809,-262.207,-7.812,-47.852
1573889731.891,20.020,29.297,54.199,12.695,-46.387
1573889731.895,43.945,32.227,545.410,44.434,138.672
1573889731.899,39.551,28.320,145.508,33.691,135.254
1573889731.903,24.414,34.180,-530.762,8.301,-42.969
1573889731.907,33.691,39.062,-188.477,25.879,-56.641
1573889731.911,50.781,32.227,236.328,52.734,99.609
1573889731.915,50.781,22.461,12.695,46.875,141.113
1573889731.919,35.645,19.043,-286.133,22.461,-14.160
1573889731.923,26.855,22.949,-301.270,18.555,-87.891
1573889731.926,36.621,25.391,302.734,44.434,71.289
1573889731.930,43.945,23.438,597.168,46.387,183.594
1573889731.934,32.227,25.879,52.246,19.531,52.734
1573889731.938,26.367,29.297,-450.195,11.230,-128.906
1573889731.942,35.156,30.273,13.184,33.203,-39.062
1573889731.946,43.457,26.855,478.516,44.434,170.410
1573889731.950,31.738,20.020,-17.578,17.090,78.613
1573889731.954,15.625,23.438,-667.480,-9.277,-132.324
1573889731.958,20.996,23.926,-586.914,-2.441,-90.820
1573889731.962,34.180,26.367,270.020,20.996,113.281
1573889731.965,33.203,34.180,306.152,15.625,121.094
1573889731.969,15.137,23.926,-599.121,-18.066,-63.965
1573889731.973,11.719,17.090,-576.172,-10.254,-97.656
1573889731.977,30.273,28.809,362.793,28.320,63.477
1573889731.981,39.551,34.668,538.086,37.598,165.039
1573889731.985,23.926,24.902,-137.207,16.113,38.086
1573889731.989,12.695,20.508,-386.230,9.277,-108.887
1573889731.993,26.367,22.461,96.680,36.133,-8.301
1573889731.997,39.551,23.438,435.547,49.805,175.781
1573889732.001,37.598,25.879,-309.570,29.297,59.570
1573889732.005,31.250,28.809,-826.660,16.113,-101.562
1573889732.008,42.969,31.250,34.180,41.016,-20.508
1573889732.012,59.570,32.227,610.352,62.988,149.414
1573889732.016,55.664,29.785,128.906,46.387,115.723
1573889732.020,37.109,23.926,-358.887,21.973,-49.316
1573889732.024,41.992,29.785,-36.133,35.156,-59.570
1573889732.028,59.082,31.738,376.465,61.035,96.191
1573889732.032,52.246,22.461,254.883,48.828,155.762
1573889732.036,33.691,20.020,-217.773,19.043,-0.488
1573889732.040,33.203,26.855,-291.504,23.926,-86.914
1573889732.044,46.875,29.785,138.184,49.805,49.316
1573889732.048,53.223,34.180,77.148,51.270,145.020
1573889732.051,42.480,36.133,-276.855,28.809,30.273
1573889732.055,28.320,24.902,-336.426,18.066,-128.906
1573889732.059,35.156,18.066,157.227,38.086,-19.043
1573889732.063,43.945,21.484,510.254,45.410,151.367
1573889732.067,29.785,23.438,81.055,14.648,56.641
1573889732.071,8.789,30.273,-315.430,-9.766,-85.938
1573889732.075,15.137,32.227,4.395,6.348,-47.363
1573889732.079,31.738,21.973,546.875,27.344,140.625
1573889732.083,24.414,13.672,221.191,13.672,115.723
1573889732.087,12.695,18.066,-537.598,-3.906,-77.148
1573889732.090,24.414,25.879,-612.793,14.160,-82.031
1573889732.094,37.109,23.438,50.781,38.086,100.586
1573889732.098,31.738,19.531,411.133,24.902,166.992
1573889732.102,19.531,24.414,-208.008,0.977,-14.160
1573889732.106,17.090,21.484,-421.387,6.836,-129.395
1573889732.110,27.344,15.625,244.141,33.691,4.395
1573889732.114,33.691,23.926,589.844,41.016,159.180
1573889732.118,28.809,30.273,-62.988,20.508,42.969
1573889732.122,22.949,23.438,-542.969,10.254,-131.348
1573889732.126,30.762,26.855,112.793,31.250,-34.668
1573889732.130,40.527,34.668,675.781,45.410,155.762
1573889732.133,31.738,24.414,-6.348,21.484,70.801
1573889732.137,13.672,10.742,-916.016,-3.418,-119.141
1573889732.141,16.602,9.766,-380.371,14.648,-73.730
1573889732.145,36.621,19.043,642.578,39.062,146.484
1573889732.149,33.691,23.438,416.504,26.367,143.555
1573889732.153,16.113,23.926,-268.066,1.465,-54.199
1573889732.157,23.438,32.227,8.301,13.672,-74.707
1573889732.161,36.621,34.668,712.402,41.016,86.426
1573889732.165,35.156,21.973,662.598,36.133,166.016
1573889732.169,20.508,12.207,-67.871,7.324,-22.461
1573889732.173,11.719,16.113,-125.000,4.395,-124.512
1573889732.176,28.809,27.832,575.684,35.645,60.059
1573889732.180,33.203,23.438,578.125,38.574,176.270
1573889732.184,18.555,18.555,-29.297,6.836,62.012
1573889732.188,3.418,21.973,-150.879,-8.789,-86.426
1573889732.192,10.742,26.367,460.938,9.277,-0.977
1573889732.196,29.785,29.297,715.332,30.762,172.363
1573889732.200,23.438,21.484,266.602,14.160,102.051
1573889732.204,11.719,17.578,-38.574,-8.789,-65.430
1573889732.208,18.066,15.137,170.410,8.301,-81.055
1573889732.212,37.109,20.996,708.496,36.133,108.398
1573889732.215,34.180,26.855,672.852,26.855,162.598
1573889732.219,16.602,26.367,41.992,1.465,-40.527
1573889732.223,16.113,29.297,14.160,5.859,-90.820
1573889732.227,33.203,28.809,511.719,31.738,73.730
1573889732.231,43.457,31.250,546.875,36.621,186.035
1573889732.235,26.367,30.762,22.461,8.301,44.922
1573889732.239,14.648,23.438,-358.398,-3.906,-149.414
1573889732.243,29.785,26.855,-41.504,20.020,-42.969
1573889732.247,35.645,29.297,550.293,28.809,154.297
1573889732.251,30.762,27.832,156.738,6.348,39.551
1573889732.255,19.531,26.855,-440.430,-11.230,-135.254
1573889732.258,17.090,20.996,48.340,4.395,-61.523
1573889732.262,30.762,24.902,677.734,30.273,119.629
1573889732.266,30.273,33.203,385.742,21.484,105.469
1573889732.270,8.789,27.344,-348.633,-9.277,-105.957
1573889732.274,2.930,20.996,-248.535,-3.906,-107.422
1573889732.278,19.043,22.461,373.535,22.461,89.355
1573889732.282,16.602,24.902,285.156,10.254,122.070
1573889732.286,-1.465,24.414,-608.887,-20.020,-77.148
1573889732.290,0.977,20.508,-716.309,-14.648,-160.156
1573889732.294,19.043,18.066,298.828,17.578,26.367
1573889732.298,25.879,19.043,505.371,20.996,152.344
1573889732.301,22.949,24.902,-189.941,3.906,20.996
1573889732.305,19.043,29.297,-366.699,-0.488,-116.699
1573889732.309,31.738,26.855,226.074,19.043,0.977
1573889732.313,44.434,23.438,561.523,37.109,190.918
1573889732.317,34.180,20.508,61.035,18.555,90.332
1573889732.321,27.832,18.066,-543.945,2.930,-105.469
1573889732.325,37.598,19.043,-125.000,22.949,-34.668
1573889732.329,51.270,25.391,414.551,44.434,147.461
1573889732.333,48.340,29.785,-183.105,32.227,97.656
1573889732.337,27.832,29.785,-706.543,3.906,-126.465
1573889732.340,20.508,27.832,-296.387,8.301,-138.184
1573889732.344,37.109,29.785,378.418,41.016,109.863
1573889732.348,41.504,25.879,315.430,40.527,176.270
1573889732.352,23.926,17.578,-219.238,9.766,13.184
1573889732.356,17.578,15.625,-309.082,5.371,-97.168
1573889732.360,32.715,22.461,205.566,30.273,36.621
1573889732.364,37.109,29.785,471.680,31.738,201.660
1573889732.368,19.531,31.738,-246.582,6.348,30.762
1573889732.372,14.160,33.203,-675.293,1.465,-119.629
1573889732.376,22.949,27.832,-302.246,24.414,-16.113
1573889732.380,38.086,25.391,62.988,38.574,130.371
1573889732.383,29.297,27.344,-37.598,20.996,62.012
1573889732.387,18.555,29.785,-525.879,10.254,-119.629
1573889732.391,31.250,36.133,-229.980,31.250,-73.242
1573889732.395,41.504,39.551,529.785,51.758,129.395
1573889732.399,35.156,35.156,437.012,36.621,152.832
1573889732.403,15.137,30.273,-271.484,7.812,-33.691
1573889732.407,8.301,26.855,-279.785,14.160,-109.863
1573889732.411,26.855,30.273,408.203,40.527,50.781
1573889732.415,35.156,33.203,419.434,43.457,160.156
1573889732.419,24.902,36.133,-397.949,21.973,-11.719
1573889732.423,18.066,35.156,-829.590,10.254,-152.344
1573889732.426,23.926,28.320,38.574,29.297,20.996
1573889732.430,37.598,28.320,665.527,43.457,182.129
1573889732.434,29.785,34.668,-15.625,18.555,40.039
1573889732.438,20.508,35.156,-475.586,7.324,-148.926
1573889732.442,35.156,31.738,232.422,31.738,-25.879
1573889732.446,46.387,31.738,830.078,44.434,194.336
1573889732.450,38.086,28.809,300.781,25.879,116.211
1573889732.454,27.344,29.297,-343.750,5.371,-102.051
1573889732.458,35.156,25.879,31.738,20.508,-80.078
1573889732.462,47.852,29.785,555.664,43.945,104.980
1573889732.465,41.992,38.086,25.879,28.320,128.418
1573889732.469,24.902,32.227,-660.645,-1.465,-56.152
1573889732.473,18.066,26.855,-293.457,4.883,-143.066
1573889732.477,24.902,30.273,466.797,30.762,49.805
1573889732.481,22.461,30.273,504.395,23.926,181.152
1573889732.485,10.742,29.785,-93.750,-2.441,8.789
1573889732.489,7.324,31.250,-259.766,-7.324,-150.879
1573889732.493,17.090,31.738,325.684,16.602,15.625
1573889732.497,30.273,31.738,604.980,33.203,187.500
1573889732.501,21.973,28.809,54.688,12.207,47.852
1573889732.505,16.113,33.691,-315.918,3.418,-120.117
1573889732.508,31.250,41.504,-30.273,29.785,-34.180
1573889732.512,38.086,40.527,352.051,37.598,162.598
1573889732.516,31.738,38.574,213.379,16.113,131.348
1573889732.520,17.090,36.133,-252.441,-3.906,-62.012
1573889732.524,22.461,38.086,-219.238,6.836,-91.797
1573889732.528,44.434,44.922,40.039,31.738,64.941
1573889732.532,44.922,45.410,209.473,27.832,174.805
1573889732.536,29.297,34.668,-239.258,4.883,12.207
1573889732.540,25.391,28.809,-437.012,5.371,-118.164
1573889732.544,37.598,32.715,310.059,32.227,69.336
1573889732.548,47.852,35.156,637.207,41.992,212.891
1573889732.551,31.250,41.016,14.160,11.230,52.246
1573889732.555,17.090,42.480,-478.027,-3.906,-120.605
1573889732.559,26.367,37.598,-33.203,23.438,0.000
1573889732.563,33.691,34.180,477.539,36.621,168.945
1573889732.567,27.832,31.250,125.000,16.113,92.285
1573889732.571,13.672,27.832,-662.109,-7.324,-66.406
1573889732.575,17.578,28.320,-397.461,7.812,-47.852
1573889732.579,32.715,32.227,571.289,34.180,154.785
1573889732.583,31.250,36.621,322.266,23.926,158.691
1573889732.587,14.648,34.668,-392.090,-1.953,-34.668
1573889732.590,9.766,32.227,-239.746,6.348,-86.426
1573889732.594,26.367,32.715,412.109,34.180,94.238
1573889732.598,30.762,28.809,382.812,32.227,168.945
1573889732.602,15.137,25.879,-480.957,7.812,-24.414
1573889732.606,15.137,23.438,-596.191,8.301,-111.328
1573889732.610,34.180,24.414,267.090,37.598,42.969
1573889732.614,48.828,32.227,401.367,50.781,158.203
1573889732.618,41.016,34.668,-439.941,27.344,23.438
1573889732.622,28.320,30.273,-570.801,15.625,-125.000
1573889732.626,38.574,25.879,225.586,41.504,-11.230
1573889732.630,48.828,21.973,454.102,53.711,152.344
1573889732.633,36.133,21.484,-159.668,26.855,78.613
1573889732.637,24.902,29.297,-434.570,9.277,-90.820
1573889732.641,34.180,39.062,-38.086,28.320,-82.520
1573889732.645,39.551,33.203,471.191,45.410,110.840
1573889732.649,34.668,24.902,124.023,32.715,114.746
1573889732.653,20.020,28.809,-532.227,9.277,-52.246
1573889732.657,16.602,31.250,-460.938,5.371,-103.027
1573889732.661,36.133,23.438,99.609,28.809,55.664
1573889732.665,41.992,25.879,337.891,30.762,188.965
1573889732.669,29.297,36.133,-142.578,5.371,3.906
1573889732.673,19.043,36.621,-304.199,5.371,-123.535
1573889732.676,28.809,31.738,24.414,35.645,25.879
1573889732.680,28.320,23.438,289.062,39.551,182.617
1573889732.684,16.113,28.320,47.852,18.066,73.730
1573889732.688,7.812,30.762,-467.773,3.906,-137.695
1573889732.692,13.672,25.879,-74.707,24.902,-67.383
1573889732.696,27.832,29.297,433.594,45.410,153.320
1573889732.700,23.926,30.762,56.152,23.926,111.328
1573889732.704,17.090,32.227,-540.039,4.883,-79.102
1573889732.708,27.832,32.227,-561.035,22.461,-107.422
1573889732.712,47.363,32.715,243.164,51.758,82.031
1573889732.715,43.457,29.297,413.086,38.086,148.926
1573889732.719,27.344,28.320,-296.875,5.859,-23.438
1573889732.723,27.832,40.527,-269.043,20.020,-79.102
1573889732.727,49.316,46.387,513.184,57.129,88.867
1573889732.731,53.711,44.922,624.512,54.688,191.406
1573889732.735,37.109,40.527,-145.020,27.344,7.324
1573889732.739,29.785,33.691,-431.152,18.555,-139.160
1573889732.743,39.551,35.645,224.609,41.992,40.039
1573889732.747,46.875,36.621,499.023,53.711,192.383
1573889732.751,33.203,30.762,-324.219,23.438,66.895
1573889732.755,18.555,32.715,-813.965,5.371,-104.004
1573889732.758,27.344,46.387,30.762,30.273,-35.156
1573889732.762,41.992,61.523,548.340,52.246,150.391
1573889732.766,31.250,60.547,82.520,29.297,106.445
1573889732.770,11.719,48.828,-349.121,-1.953,-70.312
1573889732.774,13.184,47.363,11.719,10.254,-62.988
1573889732.778,30.762,55.664,576.660,38.574,127.441
1573889732.782,27.344,57.129,406.738,27.832,180.176
1573889732.786,7.324,56.641,-229.004,-4.883,-25.879
1573889732.790,5.371,59.570,-401.855,0.488,-128.418
1573889732.794,24.414,60.059,46.387,29.785,34.180
1573889732.798,29.785,64.453,39.551,26.855,145.996
1573889732.801,16.113,63.965,-364.258,1.465,11.230
1573889732.805,10.254,61.523,-353.516,-1.953,-130.371
1573889732.809,24.414,60.547,166.992,23.926,-12.695
1573889732.813,40.039,59.570,559.082,36.621,167.480
1573889732.817,34.668,67.383,148.438,15.137,102.051
1573889732.821,27.832,68.848,-364.258,2.441,-67.383
1573889732.825,37.109,68.848,-3.418,26.367,-40.527
1573889732.829,51.270,67.871,601.562,46.875,156.250
1573889732.833,44.922,66.406,407.715,31.250,148.438
1573889732.837,29.785,68.359,-291.504,9.277,-43.457
1573889732.840,36.621,67.383,-503.906,23.438,-104.980
1573889732.844,52.246,63.965,80.566,44.434,62.012
1573889732.848,52.246,54.688,451.172,39.062,148.438
1573889732.852,40.527,52.246,-128.418,17.578,-30.762
1573889732.856,34.180,55.664,-327.148,17.090,-139.648
1573889732.860,43.457,56.152,442.383,43.457,37.109
1573889732.864,54.199,57.617,837.402,54.199,199.219
1573889732.868,42.969,51.270,163.086,29.785,53.711
1573889732.872,24.414,47.852,-338.379,13.184,-141.602
1573889732.876,34.668,55.176,161.133,38.574,-56.152
1573889732.880,45.898,49.805,669.922,56.152,120.117
1573889732.883,34.668,37.109,119.141,26.367,67.871
1573889732.887,19.531,38.086,-706.543,2.930,-114.258
1573889732.891,21.484,45.898,-68.359,20.996,-51.270
1573889732.895,37.109,51.270,885.254,44.922,160.645
1573889732.899,35.645,47.852,543.457,31.250,131.836
1573889732.903,21.484,39.062,-156.250,5.859,-69.824
1573889732.907,23.926,40.527,83.496,18.066,-97.656
1573889732.911,39.062,44.434,812.012,47.363,99.609
1573889732.915,40.039,38.086,709.473,43.945,162.598
1573889732.919,27.832,32.715,-24.414,20.020,-20.996
1573889732.923,24.414,33.203,-64.941,20.508,-112.793
1573889732.926,41.016,39.551,637.695,49.316,56.641
1573889732.930,54.688,41.016,741.699,60.547,191.406
1573889732.934,39.062,27.344,-67.383,32.715,31.738
1573889732.938,24.414,21.484,-489.746,15.625,-133.301
1573889732.942,38.574,26.367,156.250,41.016,-19.531
1573889732.946,47.852,28.320,470.215,56.152,163.086
1573889732.950,36.133,26.367,-5.371,30.762,104.004
1573889732.954,23.438,27.344,-222.656,14.160,-87.402
1573889732.958,29.785,31.738,132.324,37.109,-56.641
1573889732.962,39.551,30.762,712.891,52.246,156.738
1573889732.965,39.062,32.715,583.496,36.621,169.922
1573889732.969,21.973,25.879,-82.520,11.230,-47.363
1573889732.973,11.719,15.137,-139.648,9.277,-105.469
1573889732.977,31.738,21.484,315.918,39.062,60.059
1573889732.981,37.109,27.832,356.934,43.945,158.691
1573889732.985,20.508,25.391,-114.746,18.555,15.625
1573889732.989,18.066,26.855,-495.117,14.160,-138.184
1573889732.993,33.691,33.203,-222.168,39.551,-35.645
1573889732.997,38.086,30.762,344.727,53.223,138.184
1573889733.001,32.227,31.738,87.891,37.598,64.941
1573889733.005,24.414,27.832,-378.906,19.043,-80.078
1573889733.008,31.250,17.090,-8.301,33.691,-45.410
1573889733.012,48.828,20.508,649.902,60.547,148.926
1573889733.016,43.945,25.391,353.027,42.480,124.512
1573889733.020,31.738,24.902,-375.488,20.020,-71.289
1573889733.024,36.621,25.391,-333.984,37.109,-80.566
1573889733.028,49.316,30.762,364.746,60.547,130.859
1573889733.032,54.199,28.320,452.148,59.570,181.641
1573889733.036,42.969,20.996,-601.074,32.227,-79.590
1573889733.040,35.156,19.043,-754.883,28.320,-144.043
1573889733.044,50.293,19.531,180.664,57.617,54.688
1573889733.048,55.664,23.438,281.738,60.059,166.504
1573889733.051,43.457,25.391,-360.840,32.227,18.066
1573889733.055,36.621,21.973,-491.699,24.902,-111.328
1573889733.059,50.293,24.414,193.848,50.781,12.695
1573889733.063,56.641,26.855,499.512,54.688,174.316
1573889733.067,39.062,19.043,-62.988,26.367,86.914
1573889733.071,28.809,16.602,-641.113,14.160,-106.934
1573889733.075,36.133,27.832,-236.328,35.645,-52.734
1573889733.079,46.387,26.855,412.598,51.758,171.875
1573889733.083,35.645,18.555,-92.285,29.785,144.531
1573889733.087,18.066,21.484,-577.637,7.324,-62.988
1573889733.090,24.414,24.902,-173.340,22.461,-97.656
1573889733.094,42.969,21.484,441.895,48.340,103.516
1573889733.098,48.828,21.484,385.742,44.922,172.363
1573889733.102,33.203,22.461,-243.164,15.625,5.859
1573889733.106,28.809,24.414,-318.848,14.160,-97.656
1573889733.110,51.270,32.227,289.551,48.828,32.715
1573889733.114,57.617,29.785,593.262,52.246,201.172
1573889733.118,38.086,25.391,-146.973,18.555,33.203
1573889733.122,27.344,20.508,-556.152,6.836,-120.117
1573889733.126,42.969,17.578,-106.445,37.109,-1.953
1573889733.130,54.199,14.160,251.465,55.176,158.691
1573889733.133,41.504,13.672,170.898,33.203,103.027
1573889733.137,31.738,19.531,-334.473,19.043,-99.121
1573889733.141,39.062,20.020,-27.832,38.086,-46.875
1573889733.145,58.105,22.949,663.086,62.988,143.066
1573889733.149,60.059,26.367,535.645,52.734,158.691
1573889733.153,43.457,27.344,-204.102,22.949,-58.105
1573889733.157,42.969,27.344,-313.477,28.320,-132.812
1573889733.161,52.734,18.066,425.293,56.641,96.191
1573889733.165,48.828,16.113,511.230,49.805,188.477
1573889733.169,36.621,23.926,-267.090,20.508,13.672
1573889733.173,31.250,23.926,-807.129,13.184,-128.418
1573889733.176,43.457,24.414,-136.230,36.621,-0.977
1573889733.180,50.781,25.879,666.992,50.781,185.059
1573889733.184,38.086,20.996,149.414,26.367,92.773
1573889733.188,22.461,17.578,-330.078,9.277,-90.332
1573889733.192,33.691,20.508,291.992,32.227,-9.766
1573889733.196,56.641,25.391,884.766,58.105,199.219
1573889733.200,51.270,24.414,323.730,47.363,108.398
1573889733.204,35.645,20.508,-350.586,24.414,-97.656
1573889733.208,39.551,26.855,35.156,33.203,-62.988
1573889733.212,53.711,28.320,559.082,57.617,125.977
1573889733.215,51.270,23.438,41.016,46.387,145.020
1573889733.219,37.598,22.461,-637.207,20.996,-47.363
1573889733.223,39.551,20.020,-316.895,29.297,-136.230
1573889733.227,51.758,16.602,494.141,57.129,67.871
1573889733.231,56.641,22.461,373.047,57.129,185.059
1573889733.235,40.527,22.461,-390.625,28.320,-16.602
1573889733.239,29.785,21.973,-312.988,20.508,-125.977
1573889733.243,47.852,32.227,293.457,47.852,18.066
1573889733.247,57.617,28.320,554.199,59.082,183.105
1573889733.251,39.551,20.996,20.996,27.344,43.457
1573889733.255,27.832,23.438,-422.363,8.789,-151.367
1573889733.258,41.016,26.367,-103.027,33.691,-57.129
1573889733.262,54.199,24.902,77.637,51.758,112.305
1573889733.266,41.016,25.879,-98.145,28.320,76.660
1573889733.270,22.461,32.715,-457.520,6.348,-93.750
1573889733.274,29.785,30.762,-368.164,20.020,-95.703
1573889733.278,48.340,23.438,328.125,44.434,88.867
1573889733.282,52.246,20.508,344.727,41.992,119.141
1573889733.286,40.527,23.438,-267.578,20.020,-51.270
1573889733.290,35.645,31.250,-367.676,22.461,-135.742
1573889733.294,47.852,41.016,310.059,49.316,50.781
1573889733.298,54.688,40.039,673.340,54.688,216.797
1573889733.301,38.086,23.438,26.855,21.973,40.527
1573889733.305,26.367,17.090,-544.434,3.418,-152.832
1573889733.309,38.086,24.902,-105.957,28.809,-32.715
1573889733.313,50.293,28.809,468.262,52.246,155.273
1573889733.317,41.992,26.855,109.375,35.156,88.867
1573889733.321,23.926,23.926,-566.406,10.742,-93.750
1573889733.325,33.691,27.344,-189.941,30.762,-62.500
1573889733.329,53.223,31.250,507.812,56.641,140.625
1573889733.333,46.387,30.762,149.902,40.039,102.051
1573889733.337,30.762,28.809,-708.008,10.742,-98.145
1573889733.340,33.203,28.320,-500.000,18.555,-115.723
1573889733.344,54.199,28.320,467.773,49.316,92.773
1573889733.348,59.570,30.273,419.434,47.852,163.574
1573889733.352,45.898,34.668,-459.473,20.508,-45.898
1573889733.356,36.133,29.297,-581.543,18.066,-120.605
1573889733.360,47.852,30.762,324.707,42.969,79.590
1573889733.364,54.199,30.273,498.535,42.969,188.965
1573889733.368,31.250,20.996,-316.895,13.672,22.461
1573889733.372,16.602,23.438,-452.637,4.883,-98.145
1573889733.376,24.902,26.367,279.785,28.809,15.137
1573889733.380,38.086,23.926,517.090,46.875,165.527
1573889733.383,39.062,22.461,-358.887,33.203,53.711
1573889733.387,25.391,26.367,-765.625,14.648,-124.023
1573889733.391,30.273,25.391,-76.172,28.320,-48.828
1573889733.395,51.270,24.414,576.660,53.711,164.062
1573889733.399,44.922,26.367,226.074,37.598,165.039
1573889733.403,27.832,24.414,-460.938,11.719,-3.418
1573889733.407,27.344,21.973,-323.730,19.531,-76.172
1573889733.411,43.457,21.973,88.379,44.434,50.781
1573889733.415,48.340,30.762,64.453,42.480,143.066
1573889733.419,30.762,32.227,-200.684,17.090,2.930
1573889733.423,24.902,20.508,-313.965,12.207,-111.816
1573889733.426,35.156,17.578,216.797,34.668,20.508
1573889733.430,48.828,29.785,576.660,47.363,175.293
1573889733.434,42.969,37.598,69.824,29.297,46.387
1573889733.438,24.902,20.996,-439.453,6.836,-135.742
1573889733.442,29.297,12.695,-158.691,21.973,-70.312
1573889733.446,46.875,23.438,293.457,46.875,133.301
1573889733.450,34.180,27.344,66.895,26.855,117.676
1573889733.454,13.184,30.762,-505.859,2.930,-78.125
1573889733.458,21.484,30.273,-513.184,15.625,-101.074
1573889733.462,32.227,26.367,281.250,33.691,90.332
1573889733.465,23.438,20.996,417.480,19.043,141.113
1573889733.469,12.695,19.531,-336.426,-4.395,-44.922
1573889733.473,18.555,24.414,-317.871,7.324,-90.332
1573889733.477,35.156,27.344,539.062,34.668,105.469
1573889733.481,43.457,36.133,625.488,41.504,179.688
1573889733.485,26.367,44.434,-138.184,13.672,15.625
1573889733.489,19.531,36.621,-410.645,5.371,-128.906
1573889733.493,36.133,27.344,71.289,37.598,-24.902
1573889733.497,38.574,24.902,390.137,42.480,170.410
1573889733.501,27.344,26.367,-347.168,20.020,55.176
1573889733.505,15.137,31.250,-824.707,0.000,-107.422
1573889733.508,20.020,38.574,41.992,22.461,-20.996
1573889733.512,38.574,40.039,663.574,47.852,155.762
1573889733.516,33.691,31.738,271.484,24.414,143.066
1573889733.520,20.020,23.926,-254.395,2.441,-33.691
1573889733.524,30.273,29.785,71.289,19.043,-45.410
1573889733.528,46.875,36.621,640.137,47.852,134.766
1573889733.532,45.410,36.133,420.898,42.969,170.410
1573889733.536,29.297,34.180,-121.094,12.207,13.184
1573889733.540,24.414,37.109,-139.648,11.230,-37.598
1573889733.544,42.969,40.039,267.578,41.016,63.965
1573889733.548,44.922,32.715,212.402,41.016,149.902
1573889733.551,27.344,33.203,-194.336,12.695,26.855
1573889733.555,25.879,34.668,-262.207,6.836,-104.004
1573889733.559,34.668,28.809,265.625,26.855,10.254
1573889733.563,47.363,32.227,706.543,42.969,169.922
1573889733.567,44.922,32.227,367.676,28.320,96.191
1573889733.571,32.227,31.250,-94.727,11.230,-89.844
1573889733.575,40.039,32.715,195.801,30.273,-64.453
1573889733.579,57.129,33.691,768.555,51.270,139.160
1573889733.583,48.340,32.227,579.102,30.762,135.254
1573889733.587,31.250,31.738,-162.109,10.254,-61.035
1573889733.590,34.668,33.691,-331.543,24.902,-91.797
1573889733.594,35.156,29.785,261.230,40.039,71.777
1573889733.598,34.668,31.738,643.555,37.598,165.039
1573889733.602,31.738,32.715,91.797,20.020,-7.812
1573889733.606,22.461,24.902,-98.633,11.719,-104.492
1573889733.610,30.762,25.391,526.367,26.855,57.129
1573889733.614,30.762,23.438,797.852,31.738,178.223
1573889733.618,22.461,23.926,216.309,16.113,53.711
1573889733.622,17.090,23.438,-201.172,6.348,-89.355
1573889733.626,25.391,25.879,351.074,24.414,-14.160
1573889733.630,43.457,27.832,814.453,45.898,146.973
1573889733.633,44.434,21.484,160.645,35.645,78.613
1573889733.637,30.273,21.973,-479.492,13.672,-76.172
1573889733.641,33.203,23.926,85.938,27.832,-26.855
1573889733.645,47.852,23.926,832.520,53.223,166.504
1573889733.649,43.945,20.508,376.465,39.062,145.508
1573889733.653,29.785,18.066,-678.223,9.766,-92.773
1573889733.657,23.438,28.320,-380.859,11.230,-120.117
1573889733.661,36.133,34.668,581.055,38.086,90.332
1573889733.665,41.504,23.438,506.348,39.062,164.551
1573889733.669,19.531,10.254,-339.355,7.324,-10.254
1573889733.673,12.695,13.672,-457.520,0.977,-136.230
1573889733.676,28.809,19.531,323.730,33.203,24.902
1573889733.680,31.738,25.879,521.484,43.945,197.754
1573889733.684,22.461,31.738,-246.094,18.555,48.828
1573889733.688,15.625,26.367,-574.707,8.789,-136.230
1573889733.692,28.320,22.949,118.652,34.180,-31.250
1573889733.696,38.086,19.531,287.598,42.969,133.789
1573889733.700,23.438,14.648,-291.016,16.113,69.336
1573889733.704,9.766,20.020,-434.082,0.000,-55.176
1573889733.708,22.461,27.832,-63.477,18.066,-32.227
1573889733.712,41.504,32.227,403.320,46.387,113.770
1573889733.715,27.832,30.762,259.766,30.762,125.977
1573889733.719,5.371,28.320,-357.422,-5.859,-70.312
1573889733.723,14.160,30.273,-483.887,6.348,-142.090
1573889733.727,35.156,25.879,50.293,37.109,53.223
1573889733.731,34.180,26.367,188.965,28.809,177.246
1573889733.735,21.484,32.227,-295.898,3.418,22.461
1573889733.739,23.438,35.645,-593.750,-1.465,-125.000
1573889733.743,30.273,31.250,-305.664,15.625,-14.648
1573889733.747,36.621,28.320,256.348,28.809,160.645
1573889733.751,30.762,35.645,20.508,10.742,79.590
1573889733.755,21.973,41.992,-562.012,-1.953,-128.418
1573889733.758,30.273,38.086,-186.523,19.531,-78.613
1573889733.762,38.086,28.809,520.996,37.109,147.949
1573889733.766,35.156,24.414,192.383,22.461,103.516
1573889733.770,21.484,27.344,-524.902,2.441,-104.492
1573889733.774,19.043,29.297,-374.512,10.742,-88.379
1573889733.778,36.133,23.926,265.137,34.180,111.328
1573889733.782,36.621,25.391,156.250,31.738,143.066
1573889733.786,20.508,30.762,-718.262,6.836,-68.359
1573889733.790,16.113,30.762,-700.684,5.859,-118.652
1573889733.794,32.227,34.180,405.762,35.156,84.961
1573889733.798,40.039,35.156,641.602,38.086,187.500
1573889733.801,21.973,29.785,-141.113,8.789,16.602
1573889733.805,6.348,30.762,-379.883,0.977,-130.371
1573889733.809,15.137,36.133,308.594,25.879,-0.488
1573889733.813,30.273,34.180,658.691,46.387,179.199
1573889733.817,21.973,27.344,152.832,28.320,114.258
1573889733.821,3.418,23.926,-458.496,3.418,-85.938
1573889733.825,10.742,31.738,-101.562,18.555,-56.641
1573889733.829,31.250,35.645,539.062,42.480,153.809
1573889733.833,28.809,27.832,8.789,26.367,121.094
1573889733.837,11.230,24.902,-532.715,-0.977,-39.551
1573889733.840,16.113,35.156,-85.938,13.184,-50.293
1573889733.844,38.574,37.109,577.148,46.387,105.957
1573889733.848,46.875,30.273,522.949,43.945,171.875
1573889733.852,31.738,33.203,-72.266,13.672,-8.789
1573889733.856,19.043,26.855,-180.176,8.301,-104.980
1573889733.860,35.156,19.043,437.500,31.738,56.152
1573889733.864,52.246,28.809,614.746,39.062,188.965
1573889733.868,38.574,33.203,-95.215,10.254,63.965
1573889733.872,25.879,29.297,-471.191,0.977,-104.004
1573889733.876,31.250,25.391,-172.363,21.484,-59.570
1573889733.880,37.109,22.949,246.582,33.203,130.859
1573889733.883,30.762,24.902,194.824,24.414,97.168
1573889733.887,18.555,30.762,-306.152,5.859,-98.633
1573889733.891,27.344,34.668,-208.496,22.461,-92.773
1573889733.895,47.852,36.133,400.879,53.223,121.094
1573889733.899,46.387,36.133,410.645,40.527,138.672
1573889733.903,35.156,39.062,-280.273,16.602,-58.105
1573889733.907,39.551,36.133,-276.367,28.809,-101.562
1573889733.911,50.293,34.668,467.285,51.758,68.359
1573889733.915,48.828,40.039,473.145,49.805,154.785
1573889733.919,28.809,41.992,-397.949,21.973,1.465
1573889733.923,18.555,39.062,-654.297,11.719,-116.211
1573889733.926,31.250,34.180,230.957,35.645,26.855
1573889733.930,40.039,30.762,715.332,47.363,183.594
1573889733.934,26.855,30.762,-72.266,18.555,52.246
1573889733.938,15.137,32.715,-805.664,-1.465,-122.070
1573889733.942,35.645,38.574,-118.652,30.762,-51.270
1573889733.946,49.805,38.086,621.582,56.152,138.672
1573889733.950,32.715,34.668,94.238,28.320,86.914
1573889733.954,15.137,25.391,-574.707,1.465,-121.094
1573889733.958,12.207,18.066,-180.664,14.160,-111.328
1573889733.962,28.809,25.879,440.430,41.016,110.840
1573889733.965,27.832,27.832,-72.754,30.762,122.070
1573889733.969,12.695,27.344,-806.152,1.465,-57.129
1573889733.973,16.113,30.762,-334.473,13.184,-88.867
1573889733.977,31.738,26.855,439.941,46.387,65.918
1573889733.981,41.016,28.320,438.477,47.852,165.527
1573889733.985,27.832,36.133,-83.008,21.484,59.082
1573889733.989,18.555,30.762,-186.523,16.602,-59.082
1573889733.993,34.180,30.273,265.625,46.875,11.719
1573889733.997,43.457,32.227,464.844,55.176,148.438
1573889734.001,27.832,24.414,3.418,23.926,56.152
1573889734.005,15.137,25.391,-403.809,8.789,-82.520
1573889734.008,26.855,27.344,-157.227,30.273,-17.090
1573889734.012,43.457,25.879,190.430,47.852,118.652
1573889734.016,37.109,30.273,51.758,33.691,109.375
1573889734.020,17.578,32.227,-286.133,9.277,-35.645
1573889734.024,23.926,29.297,-212.891,21.484,-68.359
1573889734.028,46.387,26.367,90.820,43.945,89.355
1573889734.032,39.551,23.926,180.176,35.645,160.156
1573889734.036,19.043,20.508,-293.945,11.719,-62.012
1573889734.040,17.090,20.020,-517.090,11.719,-140.137
1573889734.044,35.156,26.367,143.066,43.945,82.520
1573889734.048,39.062,27.832,543.945,51.270,186.523
1573889734.051,21.973,29.297,-32.715,23.438,41.504
1573889734.055,13.672,29.297,-477.051,14.648,-95.703
1573889734.059,21.484,28.809,-86.426,40.527,-17.090
1573889734.063,35.645,28.320,362.305,57.617,139.648
1573889734.067,29.785,22.461,15.137,31.738,84.961
1573889734.071,14.648,23.438,-473.145,6.348,-71.777
1573889734.075,21.973,26.367,-140.137,23.926,-51.270
1573889734.079,41.016,31.738,607.910,51.758,169.434
1573889734.083,38.086,38.574,369.141,37.598,154.297
1573889734.087,18.066,39.551,-642.090,0.488,-77.637
1573889734.090,19.043,36.133,-490.723,9.277,-104.980
1573889734.094,35.645,32.715,471.680,41.016,95.703
1573889734.098,32.715,30.762,480.469,29.785,191.406
1573889734.102,17.090,22.949,-373.047,0.977,-3.418
1573889734.106,18.066,20.020,-631.348,4.883,-140.625
1573889734.110,36.621,35.645,115.234,38.574,9.277
1573889734.114,48.340,43.945,418.945,51.270,170.898
1573889734.118,33.203,29.297,-430.664,19.531,47.363
1573889734.122,19.531,22.461,-724.121,5.859,-136.719
1573889734.126,33.203,23.926,67.383,35.645,-54.199
1573889734.130,42.969,20.996,588.867,48.828,173.828
1573889734.133,32.227,24.902,172.852,23.926,123.047
1573889734.137,17.578,34.668,-303.711,3.906,-85.449
1573889734.141,24.414,41.992,4.395,23.926,-84.473
1573889734.145,41.504,35.645,544.434,50.293,126.953
1573889734.149,35.156,25.879,249.023,37.598,164.551
1573889734.153,22.461,25.391,-561.523,12.695,-72.266
1573889734.157,24.414,23.438,-422.363,21.484,-124.512
1573889734.161,41.016,25.391,74.707,50.781,51.758
1573889734.165,45.898,31.738,17.090,44.922,133.301
1573889734.169,28.320,37.598,-111.816,9.277,67.383
1573889734.173,25.879,45.410,-150.879,12.207,-34.668
1573889734.176,37.598,42.969,201.660,42.969,22.461
1573889734.180,37.598,26.855,478.027,44.922,152.344
1573889734.184,20.508,25.879,104.492,16.602,66.406
1573889734.188,14.160,33.691,-364.746,3.418,-92.285
1573889734.192,29.785,33.691,16.113,27.832,-34.668
1573889734.196,40.039,34.668,441.895,49.805,120.605
1573889734.200,35.645,41.992,42.969,32.715,96.191
1573889734.204,20.996,42.480,-494.141,8.301,-59.082
1573889734.208,26.367,35.645,-411.133,23.926,-67.383
1573889734.212,48.828,36.133,340.820,53.223,94.727
1573889734.215,47.852,37.109,471.191,43.457,128.906
1573889734.219,34.180,39.062,-163.086,16.602,-10.742
1573889734.223,35.645,45.898,-113.281,22.461,-62.500
1573889734.227,51.270,49.805,690.918,50.781,82.031
1573889734.231,53.711,42.969,699.219,51.270,162.598
1573889734.235,37.109,37.598,-90.332,26.367,10.254
1573889734.239,27.344,32.227,-204.102,15.625,-106.445
1573889734.243,39.062,29.785,396.484,36.621,27.832
1573889734.247,50.781,40.527,757.812,49.805,191.406
1573889734.251,42.480,38.574,5.371,27.832,51.758
1573889734.255,31.738,27.832,-629.883,12.695,-149.414
1573889734.258,42.480,30.273,173.340,40.527,-75.684
1573889734.262,66.406,38.574,856.934,73.242,142.090
1573889734.266,65.918,41.016,476.074,57.617,127.441
1573889734.270,44.922,49.316,-20.508,23.926,-34.180
1573889734.274,43.457,45.410,297.852,33.203,-43.945
1573889734.278,53.711,33.691,816.895,54.199,110.840
1573889734.282,52.734,39.551,635.254,42.480,153.320
1573889734.286,35.156,38.086,-42.480,13.184,-29.785
1573889734.290,21.484,28.809,-144.043,11.719,-94.727
1573889734.294,33.203,28.809,333.984,41.016,39.551
1573889734.298,39.551,29.785,260.254,42.480,133.789
1573889734.301,26.855,34.668,-208.008,17.090,-26.855
1573889734.305,16.113,39.551,-263.672,11.719,-188.477
1573889734.309,25.391,36.621,313.965,35.645,-30.762
1573889734.313,33.203,31.738,781.250,48.828,182.617
1573889734.317,20.996,29.297,323.242,24.414,59.082
1573889734.321,9.277,27.344,-234.375,7.812,-150.391
1573889734.325,16.602,20.020,90.332,27.344,-83.984
1573889734.329,34.668,19.531,669.434,48.340,131.348
1573889734.333,30.762,27.344,502.441,35.645,137.695
1573889734.337,12.207,29.785,-328.125,10.254,-75.195
1573889734.340,16.113,32.227,-306.641,16.113,-107.422
1573889734.344,34.180,34.668,435.547,41.992,82.520
1573889734.348,40.527,33.203,394.531,41.504,138.184
1573889734.352,36.133,34.180,-148.438,23.926,-28.320
1573889734.356,34.668,40.527,-601.562,28.320,-162.598
1573889734.360,42.480,43.945,-138.184,45.410,-25.391
1573889734.364,44.434,30.273,557.129,42.969,176.270
1573889734.368,33.691,20.996,-2.930,21.484,53.223
1573889734.372,21.484,23.926,-476.074,5.371,-100.586
1573889734.376,29.785,25.879,192.871,23.438,9.766
1573889734.380,49.316,27.832,690.430,46.875,162.598
1573889734.383,47.852,29.297,-12.695,33.203,74.707
1573889734.387,36.621,29.297,-721.680,14.160,-121.582
1573889734.391,41.504,37.109,-142.090,33.203,-62.012
1573889734.395,58.105,42.969,614.746,65.430,136.230
1573889734.399,53.711,40.527,220.703,51.758,134.766
1573889734.403,37.598,37.109,-796.387,21.973,-91.797
1573889734.407,33.691,30.762,-543.457,31.250,-134.766
1573889734.411,46.387,26.855,435.059,58.594,89.844
1573889734.415,45.898,26.855,408.691,56.641,187.500
1573889734.419,25.879,25.391,-310.547,25.391,12.207
1573889734.423,17.578,24.414,-408.691,14.648,-115.234
1573889734.426,30.762,26.855,237.305,42.480,20.508
1573889734.430,36.133,28.809,330.566,45.898,145.508
1573889734.434,16.602,29.785,-321.289,12.695,66.406
1573889734.438,12.695,31.738,-596.680,5.371,-96.680
1573889734.442,20.996,28.320,101.074,26.367,-14.648
1573889734.446,30.273,31.250,281.738,37.598,142.090
1573889734.450,29.297,28.809,-332.520,20.508,99.121
1573889734.454,14.160,25.879,-423.340,4.395,-29.785
1573889734.458,26.367,30.762,-153.320,24.902,-74.219
1573889734.462,43.457,29.785,364.258,47.363,115.234
1573889734.465,36.621,29.785,397.949,37.109,174.316
1573889734.469,23.926,28.320,-166.504,13.672,-19.043
1573889734.473,26.367,31.738,-264.160,20.020,-117.676
1573889734.477,48.340,38.086,199.219,51.270,50.781
1573889734.481,53.711,31.738,289.551,51.758,154.785
1573889734.485,36.621,25.879,-153.320,22.949,4.883
1573889734.489,30.273,29.297,-410.645,16.602,-112.793
1573889734.493,42.969,32.715,-159.180,40.039,-11.719
1573889734.497,47.363,29.785,314.453,46.875,169.434
1573889734.501,34.668,22.949,78.613,19.531,72.754
1573889734.505,18.066,27.344,-471.680,0.977,-140.137
1573889734.508,21.973,30.762,7.324,19.043,-41.016
1573889734.512,34.180,28.809,714.844,38.086,174.805
1573889734.516,25.879,24.414,332.520,22.461,148.438
1573889734.520,16.602,18.066,-354.492,-2.441,-43.457
1573889734.524,23.438,19.531,-270.020,10.742,-93.262
1573889734.528,31.738,22.461,327.637,32.227,96.680
1573889734.532,27.832,28.320,433.105,24.414,184.570
1573889734.536,16.602,28.320,-416.504,-2.930,-2.441
1573889734.540,12.695,28.320,-590.820,-3.906,-90.332
1573889734.544,28.809,37.598,449.219,31.250,74.707
1573889734.548,35.645,34.668,674.805,39.062,188.477
1573889734.551,21.484,28.809,-129.883,11.230,10.742
1573889734.555,14.648,30.273,-347.656,4.395,-112.305
1573889734.559,32.227,35.156,373.535,38.574,33.203
1573889734.563,46.387,27.832,691.406,56.152,189.453
1573889734.567,37.109,18.555,126.465,29.297,105.957
1573889734.571,23.438,25.391,-444.824,6.836,-70.312
1573889734.575,32.227,31.250,-144.043,30.273,-40.527
1573889734.579,51.270,26.367,305.664,53.711,125.000
1573889734.583,44.922,23.438,-14.160,40.527,117.188
1573889734.587,24.902,24.902,-416.992,13.672,-62.012
1573889734.590,25.879,29.297,-146.973,20.996,-108.887
1573889734.594,43.945,31.738,331.055,50.781,62.988
1573889734.598,40.527,25.879,84.961,35.645,156.738
1573889734.602,21.484,25.391,-376.465,5.371,-19.043
1573889734.606,18.555,29.785,-328.125,6.348,-134.277
1573889734.610,32.227,34.180,313.965,33.203,56.641
1573889734.614,37.109,31.738,576.172,44.434,204.590
1573889734.618,18.555,22.949,-124.023,8.789,57.617
1573889734.622,1.953,21.484,-605.469,-9.766,-117.676
1573889734.626,14.648,26.367,-78.125,17.578,-24.414
1573889734.630,28.320,28.320,375.000,32.227,164.062
1573889734.633,16.113,29.297,114.746,8.301,119.629
1573889734.637,2.441,27.832,-312.012,-8.789,-69.824
1573889734.641,10.742,28.320,-379.395,9.766,-83.984
1573889734.645,27.344,27.832,83.496,38.086,99.121
1573889734.649,24.902,23.926,300.293,33.203,147.949
1573889734.653,13.184,25.879,-338.379,6.348,-45.898
1573889734.657,19.043,25.879,-437.500,11.719,-101.562
1573889734.661,35.156,27.832,334.473,40.039,77.148
1573889734.665,38.086,27.344,415.039,36.621,166.992
1573889734.669,23.926,24.414,-437.988,10.742,-15.137
1573889734.673,17.578,24.414,-869.141,6.348,-161.133
1573889734.676,30.762,22.949,-47.363,29.785,-4.395
1573889734.680,41.016,24.414,656.250,46.387,187.500
1573889734.684,35.645,27.344,41.016,26.855,87.402
1573889734.688,24.414,26.367,-480.469,11.230,-70.312
1573889734.692,30.273,28.320,141.113,31.250,-10.742
1573889734.696,50.293,35.156,769.531,55.176,181.152
1573889734.700,46.387,36.133,281.250,35.156,130.859
1573889734.704,30.762,36.621,-401.367,10.742,-85.449
1573889734.708,35.156,36.621,-144.043,25.879,-91.309
1573889734.712,47.363,30.273,339.844,44.922,87.891
1573889734.715,45.898,23.926,-41.992,31.250,127.441
1573889734.719,24.414,22.949,-737.793,-3.418,-41.992
1573889734.723,23.926,25.879,-313.965,6.348,-69.336
1573889734.727,48.828,29.297,473.633,46.875,73.242
1573889734.731,50.293,27.832,486.328,43.457,168.945
1573889734.735,38.086,25.879,-131.348,18.555,16.602
1573889734.739,30.273,24.414,-315.430,10.254,-126.953
1573889734.743,40.039,24.414,109.375,31.738,-7.812
1573889734.747,46.875,24.414,375.977,43.945,160.645
1573889734.751,30.762,20.996,17.090,18.555,77.637
1573889734.755,18.066,23.926,-352.051,3.418,-99.121
1573889734.758,25.391,29.297,-97.656,23.438,-44.434
1573889734.762,37.109,28.320,82.031,42.969,121.094
1573889734.766,30.762,24.902,-13.672,24.414,132.324
1573889734.770,21.973,25.391,-251.465,8.301,-22.949
1573889734.774,33.203,29.785,-171.875,30.762,-78.125
1573889734.778,50.293,33.691,378.906,57.617,90.332
1573889734.782,44.922,30.762,453.125,47.852,167.480
1573889734.786,28.809,30.762,-177.246,21.484,-17.090
1573889734.790,24.902,31.250,-345.703,21.973,-114.258
1573889734.794,36.621,27.832,308.105,41.504,58.594
1573889734.798,39.551,23.926,539.551,37.598,196.777
1573889734.801,22.949,20.020,-174.316,9.277,37.109
1573889734.805,17.578,21.484,-599.609,-3.418,-116.699
1573889734.809,29.785,25.391,-39.062,22.461,20.508
1573889734.813,37.598,28.320,557.129,39.551,195.312
1573889734.817,26.367,29.785,200.195,17.090,110.840
1573889734.821,11.719,26.855,-615.234,-2.930,-79.102
1573889734.825,20.996,29.297,-324.707,13.184,-54.688
1573889734.829,38.574,32.227,614.746,41.016,143.555
1573889734.833,37.598,25.391,373.535,31.250,144.043
1573889734.837,24.414,22.949,-350.098,6.348,-45.898
1573889734.840,25.391,29.785,-193.359,15.137,-101.074
1573889734.844,43.457,26.855,548.340,41.992,92.773
1573889734.848,50.781,20.996,482.910,41.016,168.945
1573889734.852,35.645,21.973,-337.891,7.324,13.672
1573889734.856,32.227,26.855,-537.598,3.418,-83.984
1573889734.860,46.387,32.227,229.980,31.250,53.711
1573889734.864,53.711,31.738,496.582,36.621,179.199
1573889734.868,38.574,29.297,-415.039,9.766,22.949
1573889734.872,23.438,27.832,-634.766,-2.930,-128.906
1573889734.876,30.273,25.879,143.555,19.531,-41.992
1573889734.880,40.527,22.949,615.234,37.598,172.852
1573889734.883,34.668,21.973,177.734,23.438,121.094
1573889734.887,20.508,20.508,-329.102,1.465,-90.820
1573889734.891,26.367,20.508,-24.414,17.578,-88.867
1573889734.895,42.969,29.785,521.973,44.922,116.699
1573889734.899,39.551,34.668,240.234,33.691,150.879
1573889734.903,27.344,33.691,-456.055,8.789,-53.223
1573889734.907,21.484,29.785,-279.785,10.254,-141.113
1573889734.911,28.320,26.855,209.473,30.273,35.156
1573889734.915,30.762,28.320,209.473,28.320,147.461
1573889734.919,18.555,26.367,-57.129,3.906,20.020
1573889734.923,19.043,22.949,-166.992,4.395,-103.516
1573889734.926,37.109,27.344,413.574,28.320,15.625
1573889734.930,45.898,30.273,800.781,37.598,174.805
1573889734.934,38.574,28.320,338.867,18.555,49.316
1573889734.938,30.762,27.832,-98.145,3.906,-106.934
1573889734.942,40.527,29.297,356.934,28.809,-16.602
1573889734.946,53.711,28.320,792.969,48.828,157.227
1573889734.950,44.922,23.438,411.133,29.785,115.723
1573889734.954,30.273,22.949,-171.387,10.742,-80.078
1573889734.958,37.598,26.855,-221.680,27.832,-113.281
1573889734.962,51.270,29.297,590.332,54.688,96.191
1573889734.965,48.340,32.227,820.801,45.898,175.781
1573889734.969,28.809,29.785,-1.465,18.066,-32.227
1573889734.973,23.438,30.762,-46.387,18.555,-110.352
1573889734.977,38.086,35.645,737.305,43.457,47.852
1573889734.981,42.969,29.297,909.180,46.875,172.852
1573889734.985,35.156,29.785,180.176,21.484,11.230
1573889734.989,29.297,36.133,-106.445,15.137,-128.418
1573889734.993,36.133,29.297,458.984,40.527,28.320
1573889734.997,51.758,27.832,842.773,55.176,207.031
1573889735.001,46.387,32.227,113.281,32.715,91.309
1573889735.005,28.320,32.227,-585.449,5.371,-116.699
1573889735.008,29.785,34.668,176.270,20.508,-60.059
1573889735.012,39.551,31.250,841.797,39.062,145.020
1573889735.016,34.668,28.809,419.434,19.531,127.930
1573889735.020,21.973,31.738,-207.520,-3.418,-93.750
1573889735.024,24.902,33.203,-77.148,13.672,-134.277
1573889735.028,41.016,32.227,550.781,46.387,101.562
1573889735.032,46.387,27.344,577.148,45.898,187.988
1573889735.036,34.668,26.367,-38.086,20.508,1.465
1573889735.040,30.273,31.738,-208.008,19.043,-89.844
1573889735.044,47.363,36.133,243.164,50.781,30.273
1573889735.048,55.664,36.621,131.836,56.641,121.582
1573889735.051,41.016,34.668,-343.750,28.320,13.184
1573889735.055,29.785,31.738,-312.988,17.578,-122.559
1573889735.059,40.527,37.109,146.484,38.574,-29.785
1573889735.063,50.293,36.621,543.457,55.176,163.086
1573889735.067,32.715,29.785,146.484,28.809,70.312
1573889735.071,14.648,32.715,-349.609,5.859,-105.957
1573889735.075,20.996,31.250,0.000,27.344,-38.086
1573889735.079,34.668,26.367,620.605,49.316,173.828
1573889735.083,24.414,25.391,317.871,30.762,151.855
1573889735.087,1.953,23.438,-430.664,-0.488,-36.133
1573889735.090,12.695,27.832,-631.836,9.766,-117.676
1573889735.094,30.762,32.227,-157.227,38.086,11.719
1573889735.098,34.180,35.156,299.316,39.062,152.832
1573889735.102,23.926,34.668,-170.410,14.648,18.555
1573889735.106,15.625,28.809,-399.414,6.348,-82.031
1573889735.110,29.297,29.297,239.258,32.227,46.387
1573889735.114,38.574,31.738,595.215,43.945,192.383
1573889735.118,36.621,32.227,-40.039,26.367,66.406
1573889735.122,36.621,33.691,-605.469,21.484,-147.461
1573889735.126,48.828,37.598,-61.523,42.969,-68.848
1573889735.130,61.035,35.156,483.887,56.152,147.461
1573889735.133,53.711,27.832,-106.445,34.180,109.375
1573889735.137,41.016,28.809,-889.160,9.766,-93.750
1573889735.141,47.363,34.180,-424.316,26.367,-93.262
1573889735.145,59.082,32.715,476.562,49.316,112.305
1573889735.149,51.758,29.297,162.598,29.785,112.305
1573889735.153,35.645,30.273,-754.883,-4.395,-57.129
1573889735.157,32.715,34.668,-457.031,0.000,-88.867
1573889735.161,40.527,30.273,444.336,31.250,63.477
1573889735.165,41.016,24.414,441.406,32.227,166.504
1573889735.169,22.461,26.367,-243.652,2.930,-3.906
1573889735.173,13.184,27.832,-321.289,-0.977,-122.070
1573889735.176,28.809,30.273,345.703,30.273,26.367
1573889735.180,38.574,30.762,502.930,42.480,170.898
1573889735.184,24.902,27.344,-180.664,15.137,62.012
1573889735.188,14.160,31.250,-522.949,1.953,-131.348
1573889735.192,31.738,34.180,156.250,34.668,-37.109
1573889735.196,47.852,29.785,395.508,53.223,151.855
1573889735.200,37.109,28.320,-192.383,31.250,91.309
1573889735.204,25.879,33.203,-381.348,20.020,-68.848
1573889735.208,38.574,40.039,-58.105,37.598,-81.543
1573889735.212,55.664,41.504,516.113,59.570,122.559
1573889735.215,53.223,36.133,558.594,50.781,208.984
1573889735.219,35.645,27.832,-47.852,26.367,-2.441
1573889735.223,36.133,28.809,-243.652,31.250,-134.277
1573889735.227,55.664,27.832,258.301,57.129,57.129
1573889735.231,60.547,23.438,372.559,54.688,196.777
1573889735.235,40.527,21.973,-124.023,21.973,46.387
1573889735.239,32.227,25.391,-426.270,14.648,-117.188
1573889735.243,47.363,31.738,-198.730,39.062,-7.324
1573889735.247,54.688,32.227,349.121,48.340,188.965
1573889735.251,41.504,27.832,70.312,20.020,95.703
1573889735.255,29.297,31.738,-621.094,1.953,-145.996
1573889735.258,33.691,36.621,-153.320,21.484,-90.820
1573889735.262,41.016,40.527,634.766,39.062,153.809
1573889735.266,33.203,38.086,418.945,22.949,154.297
1573889735.270,13.184,31.738,-302.734,-6.836,-48.828
1573889735.274,10.254,31.738,-282.227,2.930,-78.613
1573889735.278,19.531,30.762,332.520,28.320,116.211
1573889735.282,16.113,26.855,294.922,20.508,155.273
1573889735.286,4.395,22.949,-487.793,-5.859,-39.551
1573889735.290,3.906,23.926,-498.535,-2.930,-86.914
1573889735.294,20.020,23.926,378.906,27.344,76.172
1573889735.298,27.832,24.902,623.535,32.715,194.824
1573889735.301,14.648,21.973,-337.402,8.789,52.246
1573889735.305,8.789,20.996,-850.098,2.930,-109.863
1573889735.309,20.508,26.855,-16.113,32.715,1.953
1573889735.313,29.785,28.320,506.348,49.805,183.594
1573889735.317,22.461,26.367,28.320,27.344,104.004
1573889735.321,11.719,27.344,-548.828,8.301,-75.195
1573889735.325,19.043,27.344,-188.965,20.996,-48.340
1573889735.329,31.738,24.902,519.531,41.992,169.922
1573889735.333,30.273,26.855,23.438,30.762,152.832
1573889735.337,18.555,28.320,-545.898,7.812,-58.105
1573889735.340,19.043,33.203,-210.938,15.137,-82.520
1573889735.344,36.621,34.180,315.430,41.992,76.660
1573889735.348,40.039,27.832,317.871,40.527,138.672
1573889735.352,24.902,25.879,-165.039,10.742,5.371
1573889735.356,17.090,23.926,-278.809,7.324,-104.004
1573889735.360,28.809,25.879,217.285,30.762,1.465
1573889735.364,41.504,27.344,397.949,37.109,145.020
1573889735.368,25.879,21.973,-236.816,10.254,42.480
1573889735.372,11.719,22.949,-660.156,-6.836,-119.141
1573889735.376,22.461,25.879,-304.199,15.625,-40.039
1573889735.380,33.691,28.809,144.531,32.227,140.625
1573889735.383,25.391,30.273,98.633,14.160,99.609
1573889735.387,12.695,30.762,-329.590,-2.930,-69.824
1573889735.391,19.043,29.785,-152.344,11.230,-77.637
1573889735.395,29.297,31.738,476.074,36.133,99.121
1573889735.399,31.738,35.645,395.508,33.203,133.301
