timestamps,TP9,AF7,AF8,TP10,Right AUX
1573889906.395,19.043,44.922,150.391,28.320,-59.570
1573889906.399,39.551,46.875,692.871,50.781,186.035
1573889906.403,35.156,53.223,183.105,32.715,139.648
1573889906.407,19.043,57.129,-357.422,5.371,-67.871
1573889906.411,21.484,55.664,-33.691,19.043,-70.312
1573889906.415,36.133,50.781,372.070,37.598,98.145
1573889906.419,38.574,47.852,120.605,27.832,163.086
1573889906.423,19.531,46.387,-400.879,2.441,-23.926
1573889906.426,14.648,52.734,-210.449,3.418,-114.746
1573889906.430,29.785,56.152,297.852,30.273,55.664
1573889906.434,33.691,52.246,369.629,32.715,186.035
1573889906.438,24.414,59.082,-91.309,11.719,32.227
1573889906.442,19.531,60.059,-307.129,4.883,-114.258
1573889906.446,29.785,52.734,360.352,25.391,24.902
1573889906.450,40.527,55.664,698.242,41.016,161.133
1573889906.454,40.527,57.617,96.680,23.926,77.148
1573889906.458,37.109,60.059,-379.883,8.789,-73.242
1573889906.462,47.363,60.547,-26.367,32.227,-61.523
1573889906.466,62.500,52.734,472.168,51.270,137.695
1573889906.469,58.105,51.270,190.430,34.180,145.508
1573889906.473,43.945,41.992,-524.902,14.160,-42.480
1573889906.477,41.016,37.598,-511.719,24.902,-101.562
1573889906.481,49.316,48.340,429.199,46.387,81.543
1573889906.485,51.758,49.805,523.926,40.039,172.363
1573889906.489,33.203,45.410,-338.379,10.742,-29.297
1573889906.493,29.785,56.641,-331.055,14.160,-124.512
1573889906.497,42.969,57.129,547.363,43.945,47.852
1573889906.501,41.016,38.574,699.707,41.992,197.266
1573889906.505,24.414,29.297,-129.883,10.254,54.688
1573889906.508,14.648,28.320,-543.945,-2.441,-107.422
1573889906.512,22.949,29.785,43.457,17.578,-17.578
1573889906.516,33.203,37.109,485.840,31.738,136.719
1573889906.520,24.902,37.598,-299.805,14.648,73.730
1573889906.524,8.789,35.645,-836.914,-4.395,-97.656
1573889906.528,11.719,43.945,31.250,11.230,-64.941
1573889906.532,27.832,39.062,557.129,31.250,125.488
1573889906.536,23.926,23.438,129.395,18.555,147.949
1573889906.540,4.883,17.578,-324.707,-6.348,-11.719
1573889906.544,11.230,21.973,-43.457,4.395,-75.684
1573889906.548,34.668,30.762,514.648,36.621,61.523
1573889906.551,41.992,36.621,372.070,41.992,156.738
1573889906.555,30.762,36.621,-423.828,18.066,0.488
1573889906.559,22.461,32.227,-493.652,14.160,-119.629
1573889906.563,38.574,32.715,154.785,44.434,-11.230
1573889906.567,52.734,36.133,57.129,53.711,123.535
1573889906.571,43.945,31.250,-404.785,30.273,29.297
1573889906.575,32.715,31.738,-461.426,15.137,-136.719
1573889906.579,38.086,42.969,145.996,34.180,-35.156
1573889906.583,52.246,43.457,602.539,52.246,152.832
1573889906.587,47.852,38.086,-2.441,36.133,61.523
1573889906.591,30.273,36.621,-635.254,12.695,-116.211
1573889906.594,33.203,35.156,-124.512,25.391,-64.453
1573889906.598,50.781,38.086,587.891,50.781,118.652
1573889906.602,46.875,31.250,253.906,38.574,161.621
1573889906.606,26.855,23.438,-500.000,5.371,-27.832
1573889906.610,24.414,30.273,-605.957,6.348,-138.672
1573889906.614,35.156,34.668,5.371,30.762,9.277
1573889906.618,39.062,39.551,447.754,34.668,170.410
1573889906.622,30.762,41.016,-251.465,16.113,33.691
1573889906.626,24.902,39.062,-541.992,10.742,-129.395
1573889906.630,38.574,49.316,305.176,34.668,-6.348
1573889906.633,45.410,44.434,660.156,41.992,159.180
1573889906.637,26.855,33.691,-152.344,17.578,39.062
1573889906.641,9.766,32.227,-601.074,1.465,-117.188
1573889906.645,18.066,23.926,51.758,23.438,-23.926
1573889906.649,32.715,18.555,517.090,49.805,160.645
1573889906.653,33.691,24.414,-141.113,35.645,106.934
1573889906.657,17.090,28.809,-909.668,9.766,-88.867
1573889906.661,13.672,27.832,-240.234,22.461,-66.895
1573889906.665,33.691,32.227,703.613,50.781,132.812
1573889906.669,36.621,30.273,422.852,41.504,193.359
1573889906.673,17.578,18.555,-355.957,9.277,3.906
1573889906.676,9.766,13.672,-218.262,6.836,-98.145
1573889906.680,25.879,20.020,533.691,33.203,64.453
1573889906.684,33.203,23.926,463.867,39.551,170.898
1573889906.688,18.066,20.996,-312.988,14.648,18.066
1573889906.692,0.977,13.672,-469.238,1.953,-138.672
1573889906.696,6.348,10.254,130.859,21.484,-29.785
1573889906.700,21.973,12.207,145.508,31.250,150.879
1573889906.704,13.184,15.625,-719.727,9.277,37.598
1573889906.708,-6.836,12.695,-782.227,-5.859,-127.441
1573889906.712,0.977,12.695,39.062,14.648,-53.223
1573889906.716,21.973,22.949,569.336,43.945,148.926
1573889906.719,20.020,22.461,242.676,31.250,141.602
1573889906.723,3.906,11.230,-359.375,1.465,-68.848
1573889906.727,6.348,11.230,-106.934,10.742,-70.801
1573889906.731,26.367,25.879,598.633,41.504,136.230
1573889906.735,32.715,30.762,516.113,36.621,205.078
1573889906.739,27.344,21.973,-184.570,14.160,20.996
1573889906.743,29.297,21.484,-415.039,17.090,-92.285
1573889906.747,49.316,29.297,-5.371,42.969,46.387
1573889906.751,58.594,34.668,371.094,52.246,185.059
1573889906.755,40.039,29.297,-101.074,18.555,62.988
1573889906.758,28.320,28.809,-521.973,5.371,-96.680
1573889906.762,38.574,34.180,116.211,34.668,-15.625
1573889906.766,56.641,28.320,657.227,54.199,158.203
1573889906.770,51.270,20.508,102.539,36.621,101.074
1573889906.774,29.297,17.578,-492.676,11.719,-78.125
1573889906.778,28.809,20.996,-25.391,21.484,-57.617
1573889906.782,38.086,25.391,669.434,42.480,135.254
1573889906.786,30.273,26.367,303.223,32.715,143.555
1573889906.790,9.277,18.555,-539.551,3.906,-59.082
1573889906.794,5.371,21.484,-489.746,5.371,-136.230
1573889906.798,20.996,26.367,413.574,32.715,74.219
1573889906.801,19.043,19.531,530.762,30.273,179.199
1573889906.805,0.488,13.184,-556.152,-1.953,-3.906
1573889906.809,-5.859,10.742,-716.309,-8.301,-120.605
1573889906.813,7.812,7.812,368.652,20.508,31.738
1573889906.817,21.973,0.488,553.711,33.691,186.523
1573889906.821,23.438,6.836,-99.609,22.461,70.312
1573889906.825,18.066,8.301,-318.359,15.137,-133.789
1573889906.829,29.297,8.301,420.410,32.715,-36.621
1573889906.833,46.387,19.043,841.309,51.270,164.062
1573889906.837,44.922,17.578,106.445,31.738,104.004
1573889906.841,32.715,6.836,-440.430,10.742,-73.730
1573889906.844,41.016,-1.953,149.414,29.785,-92.285
1573889906.848,60.547,0.000,683.594,52.246,95.215
1573889906.852,60.059,6.836,151.855,41.016,137.695
1573889906.856,42.480,12.207,-300.781,19.043,-45.898
1573889906.860,41.504,15.625,145.508,24.902,-80.566
1573889906.864,57.617,9.766,873.047,49.805,115.234
1573889906.868,58.594,5.859,759.766,47.852,183.594
1573889906.872,48.340,5.371,-4.883,27.344,15.137
1573889906.876,41.016,0.977,-123.047,27.344,-116.699
1573889906.880,50.293,4.395,580.078,47.363,9.766
1573889906.883,61.523,7.812,758.789,55.664,182.617
1573889906.887,51.270,9.766,29.785,34.668,76.172
1573889906.891,44.434,17.090,-315.430,22.949,-101.074
1573889906.895,56.641,24.414,72.754,40.527,-45.898
1573889906.899,63.965,27.344,499.023,54.199,124.023
1573889906.903,55.664,33.691,420.410,42.480,125.977
1573889906.907,41.016,36.133,-133.789,22.949,-42.969
1573889906.911,39.062,26.367,102.539,31.738,-59.082
1573889906.915,52.246,28.809,841.797,58.105,119.629
1573889906.919,55.664,35.156,652.832,56.152,161.621
1573889906.923,39.062,33.203,-180.664,21.484,-29.785
1573889906.926,33.203,33.203,-303.711,20.996,-146.973
1573889906.930,46.875,33.691,305.664,50.781,11.230
1573889906.934,42.969,27.344,495.605,44.922,183.105
1573889906.938,26.367,21.973,-276.855,12.207,29.297
1573889906.942,19.531,24.902,-733.887,3.906,-131.836
1573889906.946,30.762,29.297,186.035,30.762,-0.977
1573889906.950,44.434,31.250,748.047,52.246,167.480
1573889906.954,34.668,33.203,65.918,34.180,99.121
1573889906.958,21.973,28.320,-404.785,8.789,-73.242
1573889906.962,28.320,18.555,162.109,23.438,-51.270
1573889906.966,38.086,20.508,717.773,44.434,142.578
1573889906.969,32.715,17.578,163.086,30.273,114.746
1573889906.973,19.531,13.672,-474.609,6.348,-55.176
1573889906.977,20.508,17.090,-206.543,12.207,-67.383
1573889906.981,36.621,22.949,428.711,42.480,86.426
1573889906.985,39.062,23.438,64.941,37.598,143.555
1573889906.989,16.602,17.090,-737.305,3.906,-25.879
1573889906.993,10.742,14.160,-310.547,9.277,-98.145
1573889906.997,32.227,20.996,431.641,41.504,35.156
1573889907.001,32.227,28.809,416.504,41.504,152.344
1573889907.005,18.555,22.949,-229.492,13.184,23.438
1573889907.008,14.648,19.531,-399.902,2.930,-120.117
1573889907.012,27.832,21.484,128.906,27.832,-42.480
1573889907.016,43.945,15.137,453.125,44.922,146.484
1573889907.020,35.156,11.719,-21.973,22.949,98.633
1573889907.024,18.066,17.578,-663.574,2.930,-120.117
1573889907.028,23.926,23.438,-433.594,22.949,-121.094
1573889907.032,40.039,20.508,21.484,47.363,75.684
1573889907.036,35.645,14.648,-4.883,31.250,132.324
1573889907.040,21.973,14.648,-474.609,7.324,-53.223
1573889907.044,25.391,16.113,-411.621,20.996,-117.676
1573889907.048,44.922,20.508,418.945,49.805,83.008
1573889907.051,52.246,23.926,554.199,48.340,192.871
1573889907.055,36.621,27.832,-86.914,20.508,60.059
1573889907.059,26.367,32.715,-297.852,12.695,-97.656
1573889907.063,39.062,30.762,329.102,38.574,-0.488
1573889907.067,47.852,23.926,707.031,49.805,202.637
1573889907.071,42.480,15.137,-80.078,32.227,78.613
1573889907.075,31.250,18.066,-804.688,19.043,-86.426
1573889907.079,33.203,24.902,-186.035,32.227,-6.348
1573889907.083,49.805,27.344,658.691,53.223,160.645
1573889907.087,50.293,31.738,119.141,40.039,86.426
1573889907.091,32.227,31.250,-526.855,15.137,-89.844
1573889907.094,28.809,29.297,57.617,25.391,-49.316
1573889907.098,41.992,27.344,705.078,48.340,123.047
1573889907.102,38.574,18.066,355.957,39.062,162.109
1573889907.106,17.090,11.719,-343.262,11.719,-20.020
1573889907.110,12.695,13.672,-148.926,19.043,-105.957
1573889907.114,26.855,12.695,642.090,48.340,59.570
1573889907.118,32.227,7.324,412.109,47.852,162.598
1573889907.122,16.602,0.977,-678.223,19.531,-9.277
1573889907.126,-2.441,-0.977,-615.723,8.301,-141.602
1573889907.130,6.836,6.836,395.996,34.180,1.953
1573889907.133,25.391,10.742,609.375,48.828,167.480
1573889907.137,13.184,7.812,-52.246,22.949,79.590
1573889907.141,-6.348,3.418,-369.629,3.418,-108.398
1573889907.145,8.301,-0.977,195.801,26.855,-67.383
1573889907.149,27.832,-0.488,663.086,48.340,141.113
1573889907.153,21.484,0.000,124.512,28.809,134.277
1573889907.157,7.324,2.441,-426.270,5.859,-51.758
1573889907.161,17.090,12.207,23.438,21.484,-67.383
1573889907.165,39.062,23.926,635.254,49.805,139.160
1573889907.169,39.551,16.602,292.969,45.410,198.242
1573889907.173,22.461,-0.488,-414.551,19.043,-16.113
1573889907.176,14.160,0.488,-242.676,17.090,-110.352
1573889907.180,30.273,3.906,121.582,40.039,20.996
1573889907.184,36.133,4.395,159.668,42.969,165.039
1573889907.188,20.996,5.859,-106.445,16.602,75.684
1573889907.192,12.695,4.395,-434.570,5.371,-125.000
1573889907.196,20.020,10.742,121.094,26.367,-30.762
1573889907.200,24.902,11.719,623.535,38.086,170.898
1573889907.204,12.695,2.930,104.492,11.719,102.539
1573889907.208,-2.441,-1.465,-510.742,-6.836,-113.770
1573889907.212,5.859,-5.371,-279.785,9.766,-115.723
1573889907.216,25.879,1.465,270.508,33.203,88.379
1573889907.219,24.414,17.090,133.789,23.438,123.535
1573889907.223,5.371,15.625,-506.348,-2.930,-49.805
1573889907.227,6.348,9.277,-323.242,5.859,-109.375
1573889907.231,21.484,7.324,551.270,30.762,91.309
1573889907.235,26.855,6.836,569.824,29.297,191.895
1573889907.239,20.996,7.812,-446.777,6.348,-6.836
1573889907.243,20.508,12.695,-763.672,4.395,-126.465
1573889907.247,40.039,23.438,232.422,37.598,23.926
1573889907.251,52.734,23.926,565.430,50.781,173.828
1573889907.255,40.039,17.090,-224.609,23.926,49.316
1573889907.258,27.344,16.602,-698.730,12.207,-138.672
1573889907.262,32.715,23.926,-28.809,32.715,-29.785
1573889907.266,47.363,23.438,566.895,50.781,192.383
1573889907.270,46.875,19.043,-215.332,34.180,122.559
1573889907.274,26.367,30.762,-838.867,13.672,-102.539
1573889907.278,27.832,34.668,29.297,30.762,-61.523
1573889907.282,43.457,17.578,713.379,51.270,153.809
1573889907.286,34.180,10.254,183.594,33.203,130.371
1573889907.290,19.531,14.160,-434.570,9.766,-59.082
1573889907.294,29.297,16.113,-110.352,23.926,-96.191
1573889907.298,37.598,9.277,514.648,40.039,78.125
1573889907.301,38.086,13.184,448.730,34.668,197.266
1573889907.305,28.320,22.949,-304.688,13.184,41.504
1573889907.309,20.996,19.531,-480.469,9.766,-88.379
1573889907.313,31.738,15.625,201.660,33.691,50.293
1573889907.317,38.574,13.184,262.207,39.551,187.988
1573889907.321,25.879,10.254,-324.707,17.578,65.918
1573889907.325,8.301,9.766,-554.688,1.953,-103.027
1573889907.329,12.695,15.137,95.703,23.438,-19.531
1573889907.333,31.250,23.926,671.875,46.387,192.383
1573889907.337,28.809,23.438,229.980,28.809,135.742
1573889907.341,7.324,6.836,-406.738,3.906,-77.148
1573889907.344,6.836,3.418,-103.027,13.672,-74.219
1573889907.348,26.855,10.742,541.504,37.109,113.770
1573889907.352,28.809,5.859,177.246,27.344,145.996
1573889907.356,16.602,4.883,-576.172,1.953,-37.109
1573889907.360,20.020,11.230,-653.320,5.371,-120.605
1573889907.364,38.574,17.090,-33.203,32.715,45.898
1573889907.368,46.387,20.508,453.613,38.574,194.336
1573889907.372,36.133,18.066,-172.852,14.648,48.340
1573889907.376,31.250,19.043,-453.125,7.812,-109.375
1573889907.380,49.805,19.043,224.609,38.574,0.000
1573889907.383,59.082,21.484,565.918,57.617,183.105
1573889907.387,48.340,22.461,-50.293,27.832,96.680
1573889907.391,35.645,21.484,-503.418,8.301,-83.984
1573889907.395,45.410,29.297,162.109,35.156,-25.879
1573889907.399,62.500,22.949,658.203,58.105,165.039
1573889907.403,54.199,11.719,-27.344,39.551,137.695
1573889907.407,34.180,14.648,-839.844,13.184,-48.340
1573889907.411,31.250,13.184,-320.312,22.461,-77.637
1573889907.415,50.293,10.254,607.910,46.875,105.957
1573889907.419,55.176,14.648,334.961,42.969,166.504
1573889907.423,32.715,15.137,-417.480,17.090,-10.742
1573889907.426,25.391,11.719,-229.004,21.484,-94.238
1573889907.430,38.574,6.348,589.844,46.875,76.660
1573889907.434,37.598,2.930,535.645,45.410,198.730
1573889907.438,23.926,4.395,-399.902,19.531,7.812
1573889907.442,19.531,16.602,-516.602,10.742,-143.555
1573889907.446,31.738,26.367,192.871,38.574,-2.441
1573889907.450,42.969,19.531,223.633,55.176,160.156
1573889907.454,31.738,13.184,-395.020,34.668,88.867
1573889907.458,19.043,16.602,-455.078,22.461,-60.059
1573889907.462,31.250,21.973,131.348,44.434,-40.527
1573889907.466,42.480,21.973,492.676,57.617,110.352
1573889907.469,33.203,20.020,182.129,38.574,140.137
1573889907.473,16.602,20.508,-287.109,13.672,-38.574
1573889907.477,13.184,18.555,-110.840,15.625,-106.934
1573889907.481,28.320,17.578,553.223,41.504,78.613
1573889907.485,32.715,20.996,576.172,42.480,180.664
1573889907.489,20.020,19.531,-41.016,17.090,29.297
1573889907.493,16.602,19.531,-230.469,18.066,-75.684
1573889907.497,29.785,20.508,133.301,42.969,32.227
1573889907.501,42.969,21.484,473.145,50.781,164.062
1573889907.505,32.227,20.020,127.930,29.297,73.242
1573889907.508,21.973,20.020,-257.324,18.066,-95.703
1573889907.512,30.273,22.949,344.238,38.086,-21.973
1573889907.516,41.504,13.184,942.871,53.223,177.734
1573889907.520,36.621,7.812,352.539,35.645,86.914
1573889907.524,15.137,16.113,-253.418,13.672,-89.355
1573889907.528,16.602,17.578,235.840,25.391,-43.457
1573889907.532,33.691,7.324,882.812,42.480,116.699
1573889907.536,26.855,3.906,581.543,25.879,144.531
1573889907.540,12.695,8.789,-228.516,4.883,-30.762
1573889907.544,12.695,11.230,-180.176,7.812,-103.516
1573889907.548,30.273,10.254,592.773,31.250,65.918
1573889907.551,32.715,7.812,606.934,29.297,168.945
1573889907.555,19.043,11.230,-366.699,0.000,2.930
1573889907.559,15.137,10.254,-554.199,-3.418,-145.508
1573889907.563,28.809,5.859,521.973,27.344,-7.812
1573889907.567,41.504,5.371,798.828,41.992,167.480
1573889907.571,29.297,6.836,41.992,13.672,57.129
1573889907.575,18.066,4.395,-278.809,1.953,-130.859
1573889907.579,27.832,4.395,395.508,25.879,-48.340
1573889907.583,41.992,9.277,835.449,41.504,158.691
1573889907.587,45.898,15.625,140.625,33.203,107.422
1573889907.591,29.785,15.137,-499.512,11.230,-58.105
1573889907.594,23.926,10.742,9.277,18.066,-43.457
1573889907.598,49.316,11.719,567.383,52.246,94.727
1573889907.602,52.246,6.836,27.832,46.875,135.742
1573889907.606,31.738,5.859,-566.406,22.461,-17.090
1573889907.610,28.320,11.719,-221.191,29.785,-112.793
1573889907.614,35.645,18.555,470.215,47.363,20.996
1573889907.618,39.062,21.484,508.301,48.828,155.762
1573889907.622,22.949,14.648,-64.453,21.484,37.598
1573889907.626,13.672,14.648,-281.250,14.648,-129.395
1573889907.630,36.133,15.625,300.293,43.457,-26.855
1573889907.633,48.340,9.277,494.629,52.734,148.926
1573889907.637,32.227,3.906,-184.570,24.414,80.078
1573889907.641,20.508,9.766,-552.246,2.930,-90.332
1573889907.645,29.297,13.184,-258.789,20.996,-87.891
1573889907.649,40.527,6.836,216.797,38.086,97.168
1573889907.653,35.645,9.277,199.707,25.391,123.535
1573889907.657,20.020,13.184,-366.699,4.883,-54.199
1573889907.661,18.066,8.301,-243.164,10.742,-97.656
1573889907.665,26.367,4.883,369.141,25.879,63.965
1573889907.669,23.926,6.836,354.492,14.648,148.926
1573889907.673,9.277,12.207,-351.562,-8.301,-18.555
1573889907.676,3.906,11.230,-463.379,-7.324,-127.930
1573889907.680,15.137,1.953,200.684,14.648,27.344
1573889907.684,21.484,-0.488,329.590,21.484,173.828
1573889907.688,16.113,6.836,-485.352,3.906,27.832
1573889907.692,3.906,9.277,-887.695,-7.812,-147.461
1573889907.696,15.625,9.766,41.992,18.066,-18.555
1573889907.700,32.715,8.789,655.762,37.598,169.922
1573889907.704,20.020,0.488,-36.621,12.207,81.055
1573889907.708,7.324,0.488,-588.379,-7.812,-120.605
1573889907.712,15.625,8.301,25.879,13.184,-84.473
1573889907.716,37.598,12.207,623.535,38.086,106.445
1573889907.719,36.621,4.395,112.793,24.414,106.934
1573889907.723,17.578,-0.488,-540.039,-4.395,-70.312
1573889907.727,23.926,11.230,-301.270,6.348,-117.676
1573889907.731,46.875,19.043,341.797,41.992,56.641
1573889907.735,47.363,11.719,-32.715,32.715,124.023
1573889907.739,28.809,6.348,-881.348,-0.977,-62.500
1573889907.743,26.855,13.184,-471.191,5.371,-158.691
1573889907.747,43.945,20.508,403.809,34.668,1.465
1573889907.751,53.223,12.207,562.012,44.434,175.293
1573889907.755,46.387,6.348,-18.066,24.414,67.383
1573889907.758,36.133,11.230,-253.418,12.207,-95.215
1573889907.762,41.504,15.137,325.195,35.645,-7.324
1573889907.766,50.293,11.230,622.559,44.922,141.602
1573889907.770,40.527,7.324,108.887,21.484,82.520
1573889907.774,21.484,3.418,-499.023,2.441,-101.562
1573889907.778,24.414,5.859,-332.520,17.578,-114.746
1573889907.782,37.598,12.207,152.344,39.551,87.891
1573889907.786,38.574,20.020,154.785,32.227,146.484
1573889907.790,27.832,18.066,-283.691,17.090,-44.434
1573889907.794,19.043,11.719,-168.457,20.020,-96.680
1573889907.798,30.273,15.625,525.391,40.527,73.242
1573889907.801,36.133,18.555,595.703,48.340,176.270
1573889907.805,20.996,21.484,-55.176,22.949,44.922
1573889907.809,9.277,17.578,-275.879,10.742,-100.586
1573889907.813,20.508,19.531,395.508,36.621,27.832
1573889907.817,29.785,27.344,757.324,48.340,202.148
1573889907.821,22.949,20.508,-128.906,23.926,64.941
1573889907.825,14.648,17.090,-688.477,7.812,-113.281
1573889907.829,17.578,21.484,18.066,25.879,-52.734
1573889907.833,30.762,26.367,522.949,44.922,123.047
1573889907.837,28.320,24.414,51.270,26.855,89.355
1573889907.841,13.672,19.043,-837.891,-0.488,-136.230
1573889907.844,13.672,17.090,-527.344,6.836,-133.301
1573889907.848,31.250,20.508,552.734,32.227,100.098
1573889907.852,37.109,31.250,366.699,26.855,170.898
1573889907.856,19.531,36.621,-390.137,3.906,1.953
1573889907.860,12.207,26.367,-232.422,2.930,-107.910
1573889907.864,29.297,19.043,538.086,25.391,45.410
1573889907.868,38.574,13.184,396.973,30.762,178.223
1573889907.872,22.461,18.066,-654.785,1.953,16.602
1573889907.876,9.277,21.973,-664.062,-8.301,-134.277
1573889907.880,20.020,15.625,350.098,21.484,12.695
1573889907.883,30.273,15.625,667.969,35.156,203.125
1573889907.887,23.438,13.184,-125.000,16.602,87.891
1573889907.891,14.648,11.230,-635.254,7.812,-97.656
1573889907.895,26.367,12.207,53.711,29.297,-26.367
1573889907.899,41.016,15.137,639.160,48.340,154.785
1573889907.903,39.062,17.578,198.242,36.133,144.531
1573889907.907,26.855,14.160,-354.980,15.625,-44.434
1573889907.911,25.879,13.184,-72.754,24.414,-94.238
1573889907.915,37.109,20.996,477.051,50.293,103.027
1573889907.919,42.480,24.414,219.727,46.875,172.852
1573889907.923,35.645,13.672,-397.461,20.996,-6.836
1573889907.926,30.762,8.301,-262.695,21.484,-96.191
1573889907.930,42.480,11.719,67.383,42.480,4.395
1573889907.934,48.828,15.137,18.066,45.410,134.277
1573889907.938,38.086,21.484,-250.000,26.855,36.621
1573889907.942,27.832,20.996,-492.676,13.184,-135.254
1573889907.946,36.133,20.508,4.395,31.250,-33.203
1573889907.950,49.316,27.344,502.441,46.387,156.250
1573889907.954,41.504,26.855,63.965,24.902,83.984
1573889907.958,25.879,16.602,-548.340,5.371,-120.117
1573889907.962,28.809,13.672,-266.113,18.555,-98.145
1573889907.966,41.992,16.113,306.152,36.133,103.027
1573889907.969,37.598,12.207,208.496,24.414,156.250
1573889907.973,23.438,17.578,-511.230,0.977,-43.945
1573889907.977,21.484,20.508,-631.836,5.859,-133.301
1573889907.981,35.645,11.230,301.270,31.738,72.266
1573889907.985,41.016,6.348,498.535,36.133,184.082
1573889907.989,23.438,7.812,-332.031,14.648,-0.488
1573889907.993,12.695,7.812,-435.547,15.137,-123.535
1573889907.997,24.414,3.906,471.191,42.969,48.828
1573889908.001,37.109,6.348,575.195,53.711,181.641
1573889908.005,27.344,15.625,-236.816,32.715,75.684
1573889908.008,13.672,14.160,-561.523,17.090,-72.266
1573889908.012,22.461,13.184,-42.480,31.250,-36.621
1573889908.016,38.086,16.602,500.488,49.316,155.762
1573889908.020,32.715,12.207,-218.262,27.832,97.656
1573889908.024,17.090,12.695,-905.762,1.953,-120.117
1573889908.028,23.438,22.949,-97.656,20.020,-86.914
1573889908.032,46.387,24.414,603.516,46.387,107.910
1573889908.036,49.316,8.301,258.789,33.203,166.016
1573889908.040,30.762,2.441,-349.121,7.812,-9.277
1573889908.044,34.668,12.695,-119.629,20.020,-83.008
1573889908.048,53.223,18.066,497.559,48.340,71.777
1573889908.051,55.664,18.066,382.812,49.316,162.598
1573889908.055,42.969,19.531,-410.156,25.391,9.766
1573889908.059,32.227,12.695,-653.809,18.555,-140.625
1573889908.063,39.062,1.953,42.480,39.062,-8.301
1573889908.067,50.781,3.418,98.633,42.969,145.020
1573889908.071,43.945,7.324,-348.633,26.855,68.359
1573889908.075,34.180,8.301,-406.250,19.043,-96.191
1573889908.079,50.293,15.137,86.426,41.016,-55.176
1573889908.083,63.477,20.996,594.238,62.500,141.113
1573889908.087,51.270,19.043,241.211,39.551,119.629
1573889908.091,36.133,13.184,-329.590,17.578,-47.852
1573889908.094,40.039,7.812,-54.688,37.109,-62.012
1573889908.098,51.270,7.324,515.137,57.129,102.051
1573889908.102,46.387,6.836,175.293,44.434,142.090
1573889908.106,25.879,3.418,-573.242,15.137,-26.367
1573889908.110,20.996,1.953,-694.336,14.160,-123.535
1573889908.114,36.133,2.930,-86.914,41.992,16.113
1573889908.118,35.156,5.371,317.871,42.480,169.922
1573889908.122,21.973,5.371,-234.863,17.090,39.062
1573889908.126,14.160,4.883,-487.305,12.207,-120.605
1573889908.130,26.855,16.602,282.227,40.527,-8.789
1573889908.133,39.062,12.695,781.250,54.199,189.941
1573889908.137,20.508,-5.371,134.277,25.879,125.000
1573889908.141,1.953,-2.441,-475.098,5.859,-94.727
1573889908.145,15.625,10.742,73.242,22.461,-81.543
1573889908.149,35.156,5.859,573.730,42.969,118.164
1573889908.153,29.785,-0.977,-49.805,29.297,102.051
1573889908.157,16.113,6.836,-861.328,4.395,-100.098
1573889908.161,16.602,10.254,-328.125,17.578,-124.023
1573889908.165,32.715,9.277,702.637,46.387,83.008
1573889908.169,33.691,10.254,556.152,35.156,180.176
1573889908.173,13.184,5.859,-283.691,4.883,0.000
1573889908.176,10.254,2.930,-149.414,5.859,-100.586
1573889908.180,27.832,4.883,751.953,32.715,65.918
1573889908.184,34.668,10.742,797.363,38.574,192.383
1573889908.188,21.484,13.672,22.949,11.719,46.387
1573889908.192,15.137,13.184,-138.184,7.812,-93.262
1573889908.196,30.762,18.066,459.473,35.156,-2.441
1573889908.200,46.875,22.949,510.742,50.781,156.250
1573889908.204,38.086,15.137,-122.070,30.762,81.055
1573889908.208,23.438,17.090,-275.391,12.695,-93.262
1573889908.212,32.227,23.438,344.238,31.738,-37.109
1573889908.216,46.387,16.113,831.055,49.805,130.859
1573889908.219,42.480,15.137,489.258,37.109,135.742
1573889908.223,29.785,18.555,-57.617,13.184,-38.574
1573889908.227,30.273,20.020,4.883,20.508,-117.676
1573889908.231,42.480,15.137,602.051,43.945,61.523
1573889908.235,39.551,13.184,703.613,39.551,180.176
1573889908.239,28.809,19.043,23.926,19.531,0.977
1573889908.243,28.320,28.809,-268.066,21.484,-113.281
1573889908.247,36.133,22.949,98.633,39.551,5.859
1573889908.251,45.410,18.555,515.137,49.805,162.109
1573889908.255,37.109,20.020,137.695,30.762,65.918
1573889908.258,16.602,7.812,-339.844,4.883,-125.000
1573889908.262,20.508,7.324,170.898,20.996,-69.824
1573889908.266,33.203,16.602,785.645,41.992,146.484
1573889908.270,26.855,21.484,334.961,21.973,114.258
1573889908.274,15.137,23.926,-389.160,0.488,-110.840
1573889908.278,16.113,19.043,-0.977,18.066,-86.426
1573889908.282,25.879,16.602,821.777,39.062,161.133
1573889908.286,24.902,18.555,410.156,26.855,156.250
1573889908.290,9.277,15.625,-636.719,-1.953,-72.754
1573889908.294,6.348,13.184,-469.727,0.000,-103.027
1573889908.298,25.391,17.578,505.371,31.250,67.871
1573889908.301,30.762,18.066,538.086,34.668,157.227
1573889908.305,13.672,14.160,-409.180,8.789,14.648
1573889908.309,5.371,5.859,-633.301,4.883,-120.605
1573889908.313,21.484,8.301,292.480,38.086,4.395
1573889908.317,36.133,13.672,646.973,57.129,184.082
1573889908.321,23.926,7.324,-116.211,28.320,58.594
1573889908.325,14.648,12.695,-445.801,14.648,-91.309
1573889908.329,25.391,21.484,309.082,38.574,20.996
1573889908.333,35.645,20.508,677.734,51.270,160.156
1573889908.337,28.809,12.695,-82.031,36.621,87.891
1573889908.341,18.066,9.277,-776.367,18.066,-93.262
1573889908.344,14.160,9.277,-321.777,23.438,-63.477
1573889908.348,29.297,7.812,302.246,46.875,100.098
1573889908.352,41.992,8.301,-145.020,45.898,115.723
1573889908.356,28.320,10.254,-595.703,17.578,-7.812
1573889908.360,23.438,11.719,-259.277,19.531,-76.660
1573889908.364,39.551,11.230,348.145,42.480,34.668
1573889908.368,46.387,15.137,421.875,47.363,171.387
1573889908.372,32.715,11.719,-191.406,26.367,36.621
1573889908.376,22.949,1.953,-430.176,14.648,-119.629
1573889908.380,35.156,5.371,178.711,39.551,-14.160
1573889908.383,45.410,8.301,453.125,50.781,164.062
1573889908.387,30.762,5.859,-183.105,27.832,103.516
1573889908.391,19.043,11.230,-607.422,11.230,-89.355
1573889908.395,27.832,23.438,-296.875,28.320,-74.707
1573889908.399,46.875,27.344,187.500,52.734,119.141
1573889908.403,41.016,14.160,187.500,38.086,138.184
1573889908.407,18.555,2.441,-388.672,8.301,-47.363
1573889908.411,22.949,4.883,-185.547,18.555,-72.754
1573889908.415,41.992,6.348,589.355,46.875,88.867
1573889908.419,45.410,7.324,456.543,41.016,132.324
1573889908.423,31.250,12.695,-303.223,15.137,-0.488
1573889908.426,24.902,12.207,-334.473,15.625,-103.027
1573889908.430,41.504,12.207,313.477,42.969,25.879
1573889908.434,47.363,14.648,455.078,47.852,169.922
1573889908.438,29.785,13.672,-271.973,20.020,34.180
1573889908.442,17.578,11.230,-832.031,5.859,-141.602
1573889908.446,28.809,12.695,34.180,35.156,-25.879
1573889908.450,42.969,13.184,746.582,56.152,163.086
1573889908.454,33.203,12.207,4.395,33.691,71.777
1573889908.458,20.996,17.090,-546.875,15.137,-92.285
1573889908.462,28.320,20.996,128.906,31.738,-52.246
1573889908.466,40.039,23.438,790.527,56.641,132.324
1573889908.469,36.133,26.855,340.820,41.016,137.207
1573889908.473,20.996,20.508,-347.168,9.277,-34.668
1573889908.477,19.531,16.113,-263.184,21.484,-105.957
1573889908.481,33.203,20.508,403.809,49.805,53.711
1573889908.485,31.738,15.625,201.660,35.645,158.203
1573889908.489,16.113,18.066,-655.762,2.930,-7.324
1573889908.493,16.113,29.785,-372.070,10.254,-112.305
1573889908.497,30.273,28.809,423.340,36.621,11.230
1573889908.501,37.109,24.414,524.414,38.086,154.785
1573889908.505,21.484,24.902,-49.805,9.277,83.008
1573889908.508,14.648,17.578,-270.508,1.465,-51.270
1573889908.512,33.203,14.648,123.047,27.832,-21.973
1573889908.516,37.598,18.066,515.625,36.621,145.996
1573889908.520,30.273,18.555,87.402,18.066,115.723
1573889908.524,26.367,27.832,-563.477,6.348,-70.801
1573889908.528,32.227,27.832,-320.312,21.973,-79.102
1573889908.532,45.410,23.926,178.223,39.551,96.680
1573889908.536,45.898,26.367,165.039,31.250,148.438
1573889908.540,30.762,20.996,-328.125,10.254,-43.945
1573889908.544,26.367,20.508,-372.070,13.184,-127.930
1573889908.548,41.504,27.832,270.020,39.062,38.574
1573889908.551,48.828,23.926,518.555,43.945,173.828
1573889908.555,33.691,23.926,-139.160,21.484,30.762
1573889908.559,27.832,30.762,-377.930,15.137,-95.215
1573889908.563,41.016,32.715,332.031,33.691,29.785
1573889908.567,50.781,25.391,628.418,41.504,195.801
1573889908.571,39.062,19.043,-131.836,23.926,97.168
1573889908.575,23.438,24.902,-861.328,4.395,-88.867
1573889908.579,34.668,32.715,-356.445,28.320,-41.504
1573889908.583,48.828,32.715,563.965,55.664,142.090
1573889908.587,44.434,28.320,225.586,42.969,135.254
1573889908.591,31.250,30.273,-488.770,25.879,-54.199
1573889908.594,22.461,31.250,-131.348,27.344,-87.891
1573889908.598,39.062,28.809,680.176,49.805,114.258
1573889908.602,46.387,23.926,414.551,49.316,177.246
1573889908.606,29.297,19.043,-477.539,21.484,-31.250
1573889908.610,24.414,20.020,-327.637,20.996,-106.934
1573889908.614,36.133,20.508,516.113,51.270,64.453
1573889908.618,33.691,16.602,339.355,44.922,146.973
1573889908.622,21.484,18.066,-743.164,9.277,-2.441
1573889908.626,14.160,16.113,-891.113,3.906,-134.277
1573889908.630,24.414,17.090,72.754,30.273,-35.156
1573889908.633,35.156,23.438,529.297,41.504,160.156
1573889908.637,22.461,19.531,-23.438,15.625,112.793
1573889908.641,9.766,16.113,-382.812,-0.977,-64.453
1573889908.645,16.602,17.090,139.648,18.555,-45.898
1573889908.649,33.203,21.973,582.031,37.598,121.094
1573889908.653,28.809,18.555,178.711,21.973,142.090
1573889908.657,9.766,9.766,-373.047,-2.441,-29.297
1573889908.661,19.531,14.648,-130.371,12.207,-83.496
1573889908.665,40.039,21.484,429.199,42.480,94.727
1573889908.669,37.109,26.367,144.531,35.645,155.273
1573889908.673,22.461,31.738,-485.840,8.301,-22.949
1573889908.676,12.207,18.555,-309.082,6.348,-87.402
1573889908.680,20.020,13.184,138.184,32.227,35.645
1573889908.684,37.109,16.602,226.562,40.039,156.738
1573889908.688,27.832,9.766,-135.742,14.648,65.918
1573889908.692,16.602,9.277,-506.348,1.465,-118.164
1573889908.696,37.109,19.531,41.992,34.180,-45.898
1573889908.700,49.805,18.555,586.426,53.223,162.109
1573889908.704,38.574,17.090,148.926,29.297,122.559
1573889908.708,32.715,30.762,-484.863,14.648,-74.707
1573889908.712,41.992,39.062,-242.676,41.016,-72.754
1573889908.716,50.781,23.438,323.730,62.988,119.629
1573889908.719,47.852,8.301,222.168,43.457,175.781
1573889908.723,33.691,9.277,-481.934,18.066,-7.324
1573889908.727,28.809,13.672,-559.082,24.414,-64.453
1573889908.731,45.898,17.578,300.293,55.664,92.773
1573889908.735,55.176,22.461,443.359,58.594,179.688
1573889908.739,40.039,24.414,-386.719,31.738,3.906
1573889908.743,30.273,20.508,-480.957,31.250,-116.211
1573889908.747,41.016,21.973,444.824,58.105,42.969
1573889908.751,52.734,19.043,708.984,70.312,188.965
1573889908.755,41.504,10.742,-53.223,44.434,80.566
1573889908.758,24.902,9.766,-608.398,21.973,-111.328
1573889908.762,38.086,12.207,-120.605,42.480,-66.895
1573889908.766,50.781,17.578,457.520,65.430,143.555
1573889908.770,34.180,19.531,-59.082,39.062,124.023
1573889908.774,18.555,18.555,-648.926,12.695,-83.008
1573889908.778,25.879,19.043,-97.656,28.320,-99.121
1573889908.782,43.945,16.113,612.305,51.758,102.051
1573889908.786,44.434,7.812,-49.805,42.969,98.633
1573889908.790,25.879,12.695,-804.199,16.113,-71.289
1573889908.794,20.020,18.066,-294.434,17.578,-71.289
1573889908.798,36.133,10.254,377.441,43.457,60.547
1573889908.801,38.086,3.418,406.250,42.969,157.715
1573889908.805,24.414,9.277,-325.195,15.137,20.020
1573889908.809,17.090,14.160,-504.883,9.766,-123.047
1573889908.813,27.832,14.160,212.891,34.180,1.465
1573889908.817,38.574,14.648,359.375,41.016,186.523
1573889908.821,23.438,9.277,-104.492,13.672,86.426
1573889908.825,8.789,11.230,-390.137,-3.418,-132.812
1573889908.829,18.555,18.066,104.004,16.602,-63.477
1573889908.833,36.133,19.531,652.832,38.574,142.578
1573889908.837,26.367,14.160,388.184,18.555,150.391
1573889908.841,10.254,12.695,-220.703,-2.930,-56.641
1573889908.844,16.113,16.113,44.434,12.207,-71.289
1573889908.848,28.320,20.020,674.316,31.250,110.840
1573889908.852,31.738,22.461,361.816,25.391,148.438
1573889908.856,18.066,19.531,-413.086,0.977,-40.527
1573889908.860,16.602,23.926,-593.750,1.465,-144.531
1573889908.864,35.645,29.785,210.449,32.227,53.711
1573889908.868,37.598,18.555,773.438,33.691,212.402
1573889908.872,20.508,17.578,136.719,5.371,65.918
1573889908.876,13.184,20.020,-252.441,-1.465,-118.164
1573889908.880,35.645,21.484,509.766,31.738,-3.418
1573889908.883,53.711,21.484,969.238,51.758,169.922
1573889908.887,39.062,10.742,230.957,24.902,72.266
1573889908.891,22.461,6.836,-371.094,0.000,-113.770
1573889908.895,34.180,15.137,251.465,21.484,-62.012
1573889908.899,50.781,18.555,844.238,48.340,146.484
1573889908.903,46.387,13.672,264.648,30.762,145.508
1573889908.907,36.133,13.672,-666.016,5.371,-73.242
1573889908.911,35.156,23.438,-183.594,15.625,-97.168
1573889908.915,49.316,30.762,846.680,41.016,99.609
1573889908.919,56.152,23.438,600.586,42.480,153.320
1573889908.923,42.480,13.184,-161.621,18.066,6.348
1573889908.926,31.738,7.812,-70.312,9.766,-89.844
1573889908.930,40.039,9.277,629.395,36.621,25.391
1573889908.934,49.316,17.578,761.230,47.852,191.895
1573889908.938,41.992,15.625,17.090,27.344,56.641
1573889908.942,28.809,8.301,-311.035,14.160,-103.027
1573889908.946,31.738,7.324,230.469,32.715,0.488
1573889908.950,39.062,6.836,534.668,43.945,161.133
1573889908.954,28.320,9.277,87.891,22.461,113.281
1573889908.958,9.277,17.578,-307.129,0.488,-71.289
1573889908.962,13.184,13.672,98.145,12.695,-71.289
1573889908.966,39.551,6.836,376.465,43.945,97.168
1573889908.969,38.574,11.719,30.273,34.668,115.723
1573889908.973,20.020,19.531,-334.961,5.859,-42.969
1573889908.977,20.996,24.902,-117.188,15.625,-67.383
1573889908.981,35.156,22.949,533.691,41.992,94.238
1573889908.985,38.086,21.484,488.770,39.062,161.133
1573889908.989,23.438,18.066,-180.176,11.230,11.230
1573889908.993,15.625,13.672,-551.758,7.324,-151.367
1573889908.997,30.273,18.555,-175.293,34.668,-25.879
1573889909.001,34.180,22.949,301.758,43.457,154.297
1573889909.005,23.438,22.461,-43.457,25.391,69.824
1573889909.008,12.695,19.043,-524.414,12.207,-113.770
1573889909.012,25.879,28.320,-28.320,33.691,-70.801
1573889909.016,41.504,33.691,599.121,52.734,127.441
1573889909.020,33.203,24.902,75.684,32.715,103.516
1573889909.024,14.648,21.484,-642.090,6.836,-98.145
1573889909.028,19.531,30.273,-208.984,20.508,-98.633
1573889909.032,38.574,36.133,625.488,45.898,130.859
1573889909.036,36.621,32.715,401.367,34.668,170.898
1573889909.040,24.414,30.762,-527.344,11.719,-37.109
1573889909.044,26.855,31.250,-619.141,18.066,-129.883
1573889909.048,37.109,26.855,190.918,41.992,17.090
1573889909.051,39.062,20.508,453.613,39.551,168.945
1573889909.055,30.273,20.508,-480.957,12.695,52.734
1573889909.059,18.066,19.043,-836.426,5.371,-125.000
1573889909.063,26.367,20.508,181.152,28.809,-22.949
1573889909.067,40.039,27.344,639.160,45.410,191.406
1573889909.071,30.762,32.227,-83.008,24.902,84.961
1573889909.075,22.949,32.227,-616.211,8.789,-135.254
1573889909.079,31.250,23.926,-78.613,28.320,-74.707
1573889909.083,42.969,13.184,596.680,42.480,157.715
1573889909.087,34.668,9.277,74.707,28.320,132.812
1573889909.091,18.066,7.324,-701.660,4.883,-95.703
1573889909.094,24.414,10.254,-222.656,15.137,-106.445
1573889909.098,43.457,16.602,467.773,45.898,84.473
1573889909.102,45.898,20.508,27.344,38.574,136.719
1573889909.106,27.344,23.926,-510.742,9.277,-35.156
1573889909.110,20.020,20.020,-200.684,13.184,-105.469
1573889909.114,31.738,9.766,446.289,37.598,44.922
1573889909.118,34.668,8.789,495.605,41.504,158.691
1573889909.122,16.602,13.184,-85.938,15.137,33.691
1573889909.126,1.953,13.672,-260.742,3.418,-89.355
1573889909.130,16.113,17.578,371.582,27.832,21.973
1573889909.133,31.250,20.996,654.785,42.969,199.707
1573889909.137,20.020,25.391,26.367,21.484,139.648
1573889909.141,5.371,20.996,-553.223,0.977,-98.145
1573889909.145,8.789,8.789,-354.980,14.160,-107.910
1573889909.149,25.391,11.230,287.109,35.645,120.605
1573889909.153,23.926,21.484,237.793,27.832,135.742
1573889909.157,10.742,27.832,-455.078,6.836,-79.102
1573889909.161,15.137,23.926,-205.078,17.090,-99.121
1573889909.165,30.273,18.555,614.258,41.992,86.914
1573889909.169,31.250,20.020,619.629,40.527,181.641
1573889909.173,15.625,29.297,-185.059,15.137,10.254
1573889909.176,9.766,34.668,-369.629,5.371,-140.625
1573889909.180,25.879,31.738,297.852,29.297,19.531
1573889909.184,38.574,25.879,505.371,38.574,179.199
1573889909.188,24.414,22.461,-213.867,15.137,54.199
1573889909.192,14.648,25.879,-836.914,3.418,-125.000
1573889909.196,25.879,25.879,-7.812,25.391,-34.180
1573889909.200,39.062,26.367,737.793,46.875,162.109
1573889909.204,34.668,22.461,87.891,29.297,96.191
1573889909.208,20.020,22.949,-536.621,5.371,-106.934
1573889909.212,23.438,30.762,67.871,21.973,-64.941
1573889909.216,36.133,25.391,775.879,49.316,143.555
1573889909.219,30.273,15.625,353.516,34.180,153.320
1573889909.223,13.184,20.020,-349.121,1.465,-12.207
1573889909.227,13.672,27.344,-250.977,9.766,-74.219
1573889909.231,29.297,25.391,330.078,41.504,53.223
1573889909.235,28.320,19.043,111.328,34.180,162.598
1573889909.239,11.230,14.648,-639.160,2.930,13.184
1573889909.243,1.953,12.207,-415.039,0.000,-118.652
1573889909.247,12.207,18.066,268.555,28.320,12.695
1573889909.251,24.414,27.344,429.199,42.480,162.109
1573889909.255,20.508,23.438,-66.406,20.508,70.312
1573889909.258,8.789,14.648,-382.324,1.465,-110.840
1573889909.262,18.555,19.531,99.609,19.531,-60.059
1573889909.266,31.250,15.625,558.594,37.598,139.648
1573889909.270,23.926,5.371,192.871,17.578,128.906
1573889909.274,12.207,7.324,-473.145,-0.977,-51.758
1573889909.278,19.043,17.090,-344.238,18.555,-87.891
1573889909.282,41.992,19.043,365.723,49.316,108.887
1573889909.286,39.062,15.137,395.508,43.457,186.035
1573889909.290,23.926,15.625,-241.699,18.555,-11.230
1573889909.294,24.902,13.184,-438.965,21.973,-142.090
1573889909.298,34.668,5.859,43.945,44.434,31.738
1573889909.301,36.133,-0.488,299.805,42.969,188.965
1573889909.305,21.973,1.953,-354.004,13.184,17.090
1573889909.309,9.277,9.277,-557.617,4.395,-119.629
1573889909.313,21.484,11.719,243.652,29.297,27.832
1573889909.317,36.133,8.789,755.371,40.527,207.031
1573889909.321,28.809,15.625,-21.484,15.137,102.051
1573889909.325,16.602,25.391,-726.562,0.000,-97.656
1573889909.329,22.461,24.414,-70.801,21.484,-51.758
1573889909.333,30.273,14.648,685.547,33.691,150.391
1573889909.337,20.996,9.277,328.613,16.113,147.461
1573889909.341,2.930,13.672,-698.242,-5.859,-63.965
1573889909.344,1.465,14.648,-510.742,-1.465,-82.031
1573889909.348,15.137,5.371,648.438,24.414,140.137
1573889909.352,16.113,0.488,423.340,20.020,157.227
1573889909.356,7.324,7.324,-496.094,-6.348,-37.109
1573889909.360,6.348,19.531,-456.543,-2.930,-120.117
1573889909.364,20.996,18.555,289.551,23.438,14.160
1573889909.368,24.902,14.160,342.285,24.902,166.992
1573889909.372,15.625,20.508,-623.535,2.930,29.297
1573889909.376,10.254,21.973,-679.688,-3.418,-100.586
1573889909.380,18.066,11.719,349.609,17.090,18.555
1573889909.383,36.133,7.812,674.316,34.180,175.293
1573889909.387,31.738,6.348,67.871,16.113,117.676
1573889909.391,16.602,4.395,-354.492,-1.953,-69.824
1573889909.395,23.438,13.184,80.078,14.160,-80.566
1573889909.399,42.480,19.043,541.504,42.480,88.867
1573889909.403,45.898,19.043,137.695,36.133,102.539
1573889909.407,31.250,20.508,-408.203,9.277,-59.082
1573889909.411,27.344,19.531,-126.953,16.602,-92.285
1573889909.415,38.574,11.230,443.359,36.133,81.543
1573889909.419,39.551,5.859,244.141,31.250,173.340
1573889909.423,25.391,9.766,-476.562,9.766,2.441
1573889909.426,24.414,12.207,-451.172,13.184,-133.301
1573889909.430,41.992,11.719,120.605,39.551,2.441
1573889909.434,48.340,20.020,303.223,48.340,164.551
1573889909.438,38.574,23.926,-138.184,28.320,27.344
1573889909.442,24.902,17.578,-460.449,9.766,-117.676
1573889909.446,27.832,20.020,82.031,32.227,-32.715
1573889909.450,37.109,16.602,644.043,46.387,166.992
1573889909.454,26.855,11.230,246.094,23.438,139.648
1573889909.458,13.672,18.555,-455.078,4.395,-80.566
1573889909.462,19.043,20.508,-232.422,22.461,-87.402
1573889909.466,28.320,17.578,367.676,41.016,100.586
1573889909.469,27.344,18.066,261.230,27.344,146.484
1573889909.473,16.602,13.672,-503.418,6.836,-25.391
1573889909.477,11.719,9.277,-601.074,9.277,-91.797
1573889909.481,19.043,3.418,379.395,30.762,78.613
1573889909.485,28.809,4.883,648.438,37.598,186.035
1573889909.489,29.297,17.578,-340.820,17.578,9.277
1573889909.493,20.020,19.531,-726.074,7.812,-135.254
1573889909.497,25.879,14.648,281.250,30.762,3.906
1573889909.501,43.457,16.602,718.262,45.898,167.480
1573889909.505,38.574,21.484,20.996,27.832,73.242
1573889909.508,27.344,20.020,-496.094,10.742,-93.262
1573889909.512,34.668,17.578,-9.766,29.297,-55.176
1573889909.516,53.711,21.484,682.129,52.734,137.207
1573889909.520,54.199,17.578,-13.184,40.039,81.055
1573889909.524,37.598,17.578,-733.398,14.648,-96.680
1573889909.528,38.086,16.113,-30.273,25.879,-76.172
1573889909.532,48.828,11.719,611.328,51.270,90.332
1573889909.536,52.734,20.020,375.000,48.340,128.418
1573889909.540,43.945,24.414,-172.852,27.832,-23.926
1573889909.544,34.180,14.160,45.898,31.250,-93.750
1573889909.548,42.969,8.789,678.711,56.641,47.852
1573889909.551,52.246,20.508,703.125,56.641,185.059
1573889909.555,35.156,23.438,-85.449,23.926,36.133
1573889909.559,19.531,21.484,-301.270,8.789,-106.934
1573889909.563,33.691,23.438,343.262,28.320,-38.574
1573889909.567,44.922,22.461,451.660,42.969,134.766
1573889909.571,34.180,27.832,50.781,24.414,76.172
1573889909.575,24.902,27.832,-210.938,8.789,-96.191
1573889909.579,28.809,20.020,186.035,23.926,-60.547
1573889909.583,46.875,24.414,762.695,45.898,125.000
1573889909.587,48.828,27.832,378.418,35.156,113.770
1573889909.591,29.297,18.555,-251.953,1.953,-73.242
1573889909.594,25.879,16.602,71.289,5.371,-80.078
1573889909.598,42.969,21.484,784.668,33.691,104.004
1573889909.602,45.898,20.020,486.816,28.320,143.555
1573889909.606,32.715,23.926,-290.039,4.883,-16.602
1573889909.610,32.227,25.391,-450.684,7.324,-110.840
1573889909.614,44.922,24.902,118.652,27.832,6.348
1573889909.618,53.711,34.180,675.781,39.551,177.246
1573889909.622,42.480,35.645,67.383,20.996,62.988
1573889909.626,26.367,28.320,-347.168,9.277,-96.680
1573889909.630,35.645,23.926,303.223,29.785,-33.203
1573889909.633,47.363,23.926,791.016,42.969,148.438
1573889909.637,38.574,26.855,146.484,26.367,82.031
1573889909.641,25.391,27.344,-571.777,8.301,-116.211
1573889909.645,24.414,23.438,-167.969,19.043,-105.957
1573889909.649,40.039,30.762,491.699,39.551,97.168
1573889909.653,39.551,31.250,36.133,30.762,113.770
1573889909.657,22.461,27.344,-858.398,4.395,-76.660
1573889909.661,22.461,28.809,-388.184,8.301,-88.867
1573889909.665,35.156,27.832,623.047,31.738,78.613
1573889909.669,40.527,27.344,459.473,30.762,158.691
1573889909.673,30.273,24.414,-344.727,7.324,-17.090
1573889909.676,25.879,22.461,-351.562,5.371,-149.414
1573889909.680,46.387,29.297,427.246,34.668,12.207
1573889909.684,61.035,35.156,599.609,49.805,186.523
1573889909.688,45.898,32.227,-81.055,29.785,85.938
1573889909.692,32.715,31.738,-413.574,17.090,-110.840
1573889909.696,34.668,25.879,-17.090,35.156,-58.594
1573889909.700,46.875,19.043,341.309,47.363,163.086
1573889909.704,44.434,25.391,-19.531,31.738,128.906
1573889909.708,29.785,21.484,-457.031,9.766,-55.176
1573889909.712,36.621,19.043,30.762,25.391,-38.574
1573889909.716,52.734,27.832,267.090,48.340,96.680
1573889909.719,50.293,26.855,-193.359,36.621,117.188
1573889909.723,38.574,23.926,-488.281,18.555,-28.809
1573889909.727,38.086,23.926,-273.926,21.973,-83.496
1573889909.731,45.898,23.438,391.602,44.922,88.867
1573889909.735,52.246,27.344,427.734,49.805,170.898
1573889909.739,41.504,30.273,-273.926,28.320,-9.277
1573889909.743,29.785,31.738,-625.488,22.949,-150.879
1573889909.747,31.738,25.391,-225.586,38.086,-26.367
1573889909.751,34.180,16.602,307.129,43.945,156.250
1573889909.755,26.855,16.602,-78.125,22.461,82.520
1573889909.758,15.137,20.020,-649.414,2.441,-89.844
1573889909.762,20.020,20.508,-17.578,18.555,-30.762
1573889909.766,35.645,21.973,697.754,37.109,156.738
1573889909.770,32.715,32.715,214.844,19.531,95.703
1573889909.774,16.113,24.414,-553.711,-0.488,-125.977
1573889909.778,20.508,13.184,-135.254,12.695,-86.426
1573889909.782,35.645,18.066,686.523,38.574,111.328
1573889909.786,32.715,13.672,439.941,31.250,151.367
1573889909.790,20.508,15.137,-609.375,4.883,-10.254
1573889909.794,13.672,18.066,-710.449,5.371,-117.188
1573889909.798,22.949,12.207,390.137,30.273,35.645
1573889909.801,32.227,9.277,630.859,34.668,179.199
1573889909.805,23.926,15.625,-172.363,10.742,33.203
1573889909.809,13.672,14.648,-415.039,-0.488,-125.000
1573889909.813,27.832,14.648,343.750,25.391,13.184
1573889909.817,43.945,16.602,767.578,41.016,207.031
1573889909.821,34.180,14.160,92.773,13.672,105.957
1573889909.825,25.391,14.648,-388.184,1.953,-94.727
1573889909.829,34.180,14.648,234.375,28.809,-35.156
1573889909.833,50.293,15.625,716.309,51.270,144.043
1573889909.837,46.387,17.090,88.379,36.621,121.582
1573889909.841,28.320,21.484,-646.484,10.742,-79.102
1573889909.844,32.227,33.691,-219.727,23.438,-115.234
1573889909.848,50.781,33.203,498.047,51.270,80.566
1573889909.852,48.340,19.531,52.734,40.527,138.184
1573889909.856,28.809,14.648,-484.863,10.742,-11.719
1573889909.860,21.484,19.531,-292.480,7.812,-130.859
1573889909.864,32.715,25.391,405.273,32.227,32.715
1573889909.868,36.133,26.855,475.586,34.668,179.688
1573889909.872,19.043,29.297,-271.484,7.324,23.926
1573889909.876,12.207,33.203,-486.816,-3.906,-146.973
1573889909.880,23.438,32.715,193.359,15.625,-27.344
1573889909.883,32.227,23.438,539.551,29.297,173.340
1573889909.887,27.344,15.625,-166.504,11.719,78.613
1573889909.891,11.719,16.602,-630.859,-8.301,-106.934
1573889909.895,18.066,20.996,-343.750,6.348,-92.285
1573889909.899,32.227,26.367,177.246,25.391,99.121
1573889909.903,24.902,23.438,320.312,13.184,180.664
1573889909.907,8.789,18.066,-331.543,-8.789,-29.785
1573889909.911,9.766,15.137,-286.133,5.371,-103.027
1573889909.915,24.414,12.695,552.246,30.273,102.539
1573889909.919,25.879,11.230,600.586,22.461,200.684
1573889909.923,14.160,13.672,-260.254,-5.371,20.508
1573889909.926,8.789,18.066,-511.719,-8.301,-120.605
1573889909.930,22.461,14.648,213.379,19.043,32.715
1573889909.934,33.691,8.301,408.691,28.320,179.199
1573889909.938,24.902,9.277,-339.355,3.418,83.008
1573889909.942,19.531,17.578,-912.109,-9.766,-105.957
1573889909.946,32.227,16.113,-136.719,16.602,-55.664
1573889909.950,39.062,12.695,668.945,37.598,157.227
1573889909.954,29.785,17.090,104.980,18.555,123.535
1573889909.958,16.602,18.555,-470.215,0.488,-42.969
1573889909.962,21.973,18.555,41.992,17.578,-47.363
1573889909.966,37.598,15.137,632.324,40.527,102.051
1573889909.969,30.273,7.324,334.473,31.738,166.992
1573889909.973,8.789,-0.977,-341.309,4.883,-0.977
1573889909.977,10.742,0.977,-364.258,14.160,-117.188
1573889909.981,26.367,5.859,280.762,41.992,53.223
1573889909.985,28.320,7.324,140.625,32.715,170.898
1573889909.989,18.555,18.066,-620.605,5.371,20.996
1573889909.993,15.137,15.625,-423.340,6.836,-113.281
1573889909.997,27.832,5.371,297.363,32.227,3.906
1573889910.001,39.551,10.742,430.176,42.480,144.043
1573889910.005,29.297,12.695,-145.508,25.879,43.945
1573889910.008,10.254,9.277,-407.227,9.766,-96.191
1573889910.012,15.137,9.277,110.352,24.902,-50.781
1573889910.016,27.344,13.672,601.562,46.387,152.832
1573889910.020,18.555,17.090,246.582,29.785,144.043
1573889910.024,2.930,10.254,-514.160,7.324,-83.984
1573889910.028,3.906,7.324,-441.895,15.625,-123.047
1573889910.032,19.531,7.324,95.215,32.715,53.223
1573889910.036,18.066,-0.488,61.035,26.367,131.836
1573889910.040,1.953,1.465,-404.297,2.930,-0.977
1573889910.044,0.488,1.465,-383.789,-2.930,-77.637
1573889910.048,18.066,4.883,230.469,22.461,60.547
1573889910.051,27.344,19.531,489.746,30.273,161.621
1573889910.055,18.066,11.719,-138.184,1.465,24.902
1573889910.059,13.672,6.348,-396.973,-2.930,-89.355
1573889910.063,31.738,14.648,278.809,28.320,11.230
1573889910.067,42.969,13.184,683.594,40.527,155.762
1573889910.071,34.180,18.066,-18.555,20.996,75.195
1573889910.075,26.855,18.066,-881.836,3.906,-119.141
1573889910.079,32.227,16.113,-422.363,18.066,-75.684
1573889910.083,48.340,30.273,595.703,42.969,133.301
1573889910.087,42.480,23.926,315.918,26.855,131.836
1573889910.091,22.949,8.301,-455.078,-2.441,-67.383
1573889910.094,25.879,10.254,-273.438,11.230,-123.535
1573889910.098,41.992,19.531,553.223,41.504,85.938
1573889910.102,43.945,26.855,459.961,40.527,160.645
1573889910.106,32.715,26.855,-348.145,14.648,-2.441
1573889910.110,25.879,17.090,-265.137,8.789,-78.613
1573889910.114,38.086,6.348,490.234,32.715,37.598
1573889910.118,44.434,1.953,416.016,37.109,159.180
1573889910.122,20.996,1.465,-606.934,-0.488,47.363
1573889910.126,10.254,16.113,-713.379,-9.277,-102.539
1573889910.130,25.879,28.809,232.910,20.508,-20.508
1573889910.133,34.668,14.648,575.684,27.832,145.508
1573889910.137,25.391,12.207,20.508,5.859,104.004
1573889910.141,8.301,19.043,-359.375,-15.625,-62.012
1573889910.145,13.672,16.602,138.184,1.953,-53.711
1573889910.149,24.902,20.020,640.137,23.926,128.906
1573889910.153,15.137,19.043,119.629,9.766,137.207
1573889910.157,-1.953,17.578,-487.305,-14.648,-55.176
1573889910.161,4.883,27.344,-175.781,-3.418,-122.070
1573889910.165,20.996,25.391,417.480,20.996,51.270
1573889910.169,17.090,13.184,269.043,17.090,155.762
1573889910.173,1.465,6.348,-272.461,-10.742,23.926
1573889910.176,-3.906,3.418,-169.922,-16.113,-86.914
1573889910.180,16.602,6.836,268.555,15.625,5.371
1573889910.184,30.762,14.160,432.129,29.785,151.855
1573889910.188,23.438,13.672,35.645,11.719,35.645
1573889910.192,17.090,20.996,-296.875,0.488,-121.094
1573889910.196,30.762,27.832,257.812,23.438,-47.852
1573889910.200,41.992,16.602,798.340,40.039,138.672
1573889910.204,36.621,13.672,422.852,25.879,119.629
1573889910.208,19.043,17.090,-316.406,1.953,-78.613
1573889910.212,15.137,15.625,-149.414,10.742,-86.426
1573889910.216,29.785,16.113,557.617,41.504,105.469
1573889910.219,31.250,16.113,551.758,41.016,168.457
1573889910.223,19.531,11.719,-192.383,17.090,-26.367
1573889910.227,18.555,16.113,-423.828,19.531,-127.930
1573889910.231,31.738,13.184,520.996,46.875,56.152
1573889910.235,36.133,6.348,849.121,46.875,187.012
1573889910.239,23.926,13.184,7.324,18.555,23.438
1573889910.243,16.113,20.020,-161.133,7.812,-88.867
1573889910.247,27.832,23.438,688.965,24.414,51.758
1573889910.251,34.180,20.996,-992.676,33.203,198.242
1573889910.255,21.973,19.531,295.410,16.602,108.887
1573889910.258,12.695,22.949,-307.129,-0.488,-62.012
1573889910.262,23.926,25.391,88.379,20.020,-54.688
1573889910.266,40.527,26.367,655.762,42.480,142.578
1573889910.270,34.668,16.113,-33.203,22.461,104.004
1573889910.274,12.695,8.301,-757.324,-4.883,-105.469
1573889910.278,10.254,14.160,-1.465,7.324,-85.938
1573889910.282,28.809,18.555,747.559,37.109,87.402
1573889910.286,31.250,21.973,457.031,29.297,147.461
1573889910.290,16.602,29.785,-186.523,1.953,-8.789
1573889910.294,13.672,31.250,-20.020,3.418,-83.008
1573889910.298,30.273,23.438,631.348,30.273,62.012
1573889910.301,34.668,22.461,642.578,32.227,187.500
1573889910.305,20.020,21.484,-157.227,9.277,63.965
1573889910.309,10.254,19.043,-404.297,-0.977,-73.242
1573889910.313,20.996,28.320,262.695,20.020,6.836
1573889910.317,37.109,33.691,388.672,35.645,168.457
1573889910.321,27.832,25.391,-122.559,11.719,118.652
1573889910.325,17.090,26.367,-435.059,-2.930,-85.449
1573889910.329,26.855,30.273,39.551,14.648,-54.688
1573889910.333,38.086,28.809,614.746,29.297,141.113
1573889910.337,37.598,25.879,321.777,18.555,133.789
1573889910.341,23.926,21.484,-313.965,1.465,-35.156
1573889910.344,22.949,22.461,-115.723,9.766,-67.383
1573889910.348,41.992,23.438,558.105,34.668,88.379
1573889910.352,48.828,21.484,331.055,38.086,160.645
1573889910.356,38.086,22.949,-448.242,16.602,-5.371
1573889910.360,34.180,29.297,-684.570,15.137,-130.859
1573889910.364,46.875,27.832,-156.250,41.992,-26.367
1573889910.368,53.223,18.066,395.996,46.875,144.531
1573889910.372,43.457,17.578,-129.395,25.879,54.688
1573889910.376,34.180,21.484,-626.953,20.508,-120.117
1573889910.380,43.945,17.578,-60.547,44.922,-42.480
1573889910.383,61.035,23.926,553.223,61.035,142.578
1573889910.387,54.688,26.855,17.578,42.969,93.262
1573889910.391,41.992,20.508,-598.145,29.785,-84.961
1573889910.395,43.945,18.555,-51.758,38.574,-68.848
1573889910.399,55.176,15.625,478.027,55.664,99.121
1573889910.403,52.734,18.066,-58.105,43.457,105.469
1573889910.407,31.738,24.414,-857.910,10.742,-52.246
1573889910.411,24.902,24.902,-427.734,14.648,-85.449
1573889910.415,34.668,19.043,530.762,39.062,60.547
1573889910.419,35.156,15.625,417.969,35.156,163.086
1573889910.423,21.973,20.996,-356.445,11.230,-3.906
1573889910.426,16.602,27.832,-380.859,12.695,-152.344
1573889910.430,27.344,23.926,415.527,39.062,4.883
1573889910.434,35.156,18.066,585.449,46.387,178.223
1573889910.438,21.484,13.184,-159.668,15.625,42.969
1573889910.442,4.395,13.672,-411.621,-3.418,-107.910
1573889910.446,12.695,16.602,147.949,19.531,-17.090
1573889910.450,28.809,14.160,285.156,34.180,117.188
1573889910.454,23.926,12.695,-292.969,14.160,39.551
1573889910.458,2.930,9.277,-533.203,-7.324,-101.562
1573889910.462,11.230,8.789,60.059,11.719,-59.570
1573889910.466,36.621,19.531,533.691,41.016,104.004
1573889910.469,33.691,16.602,274.414,28.320,159.668
1573889910.473,20.508,4.883,-253.418,5.859,-34.180
1573889910.477,27.832,10.742,-240.723,16.113,-151.855
1573889910.481,44.922,16.602,448.730,44.434,41.504
1573889910.485,49.805,20.020,608.887,48.340,178.711
1573889910.489,36.133,20.020,-162.598,21.973,-2.441
1573889910.493,31.738,13.184,-576.172,13.184,-138.672
1573889910.497,44.922,11.230,19.531,35.645,0.977
1573889910.501,50.293,18.066,519.043,44.922,162.598
1573889910.505,44.922,20.020,112.793,22.949,87.402
1573889910.508,37.598,20.996,-463.379,8.789,-81.055
1573889910.512,43.457,28.809,-119.629,24.902,-50.781
1573889910.516,57.129,37.109,612.305,42.480,130.371
1573889910.520,50.293,30.762,326.660,28.320,138.184
1573889910.524,31.738,22.461,-401.855,3.906,-60.547
1573889910.528,32.227,22.461,-187.988,11.719,-112.793
1573889910.532,54.688,23.926,635.254,41.016,103.516
1573889910.536,55.664,27.344,498.047,37.598,169.434
1573889910.540,33.691,26.367,-439.453,8.301,-27.344
1573889910.544,33.203,27.344,-560.059,10.254,-119.629
1573889910.548,48.340,23.438,275.391,34.668,59.570
1573889910.551,51.758,19.043,557.129,35.645,191.406
1573889910.555,38.086,24.414,-408.203,6.348,41.504
1573889910.559,26.855,27.832,-804.688,-2.930,-102.051
1573889910.563,42.480,29.297,218.262,32.715,3.906
1573889910.567,61.035,32.227,648.926,51.758,171.387
1573889910.571,51.270,30.762,-21.973,29.297,106.445
1573889910.575,27.832,13.184,-439.941,7.324,-60.059
1573889910.579,23.926,2.930,143.066,17.578,-31.250
1573889910.583,38.574,6.836,634.766,35.645,145.996
1573889910.587,37.109,11.230,45.410,22.949,127.441
1573889910.591,21.973,17.578,-698.242,1.465,-67.383
1573889910.594,24.902,24.414,-282.715,14.160,-94.238
1573889910.598,48.340,34.668,439.453,44.922,72.266
1573889910.602,54.688,37.598,2.441,43.945,141.602
1573889910.606,35.645,23.926,-625.000,18.066,-23.438
1573889910.610,25.391,12.695,-359.375,17.578,-121.094
1573889910.614,38.086,14.160,308.594,45.410,17.578
1573889910.618,43.945,15.137,454.590,52.734,159.668
1573889910.622,30.273,19.531,-107.910,25.879,56.152
1573889910.626,20.020,22.461,-430.664,19.043,-123.535
1573889910.630,37.109,23.438,111.328,48.828,-52.734
1573889910.633,50.293,20.996,422.363,58.594,135.254
1573889910.637,35.156,15.137,-204.590,30.762,83.008
1573889910.641,17.578,10.742,-585.938,11.230,-68.848
1573889910.645,20.996,4.883,-281.250,21.484,-59.082
1573889910.649,34.180,6.348,188.477,38.574,99.121
1573889910.653,33.691,15.625,218.262,27.344,132.812
1573889910.657,28.809,25.391,-403.320,8.301,-48.828
1573889910.661,28.809,25.391,-365.234,17.578,-99.609
1573889910.665,40.527,10.742,461.426,40.039,92.773
1573889910.669,47.363,7.812,572.754,40.039,178.223
1573889910.673,32.715,15.625,-202.148,12.695,45.410
1573889910.676,31.250,20.020,-409.668,10.254,-90.820
1573889910.680,43.457,17.090,253.906,35.645,20.508
1573889910.684,50.293,16.113,478.027,47.852,186.035
1573889910.688,42.969,12.695,-205.566,29.297,90.820
1573889910.692,25.879,9.277,-754.395,10.254,-39.551
1573889910.696,26.855,9.277,-50.293,27.832,-9.277
1573889910.700,43.945,15.137,722.656,54.199,164.062
1573889910.704,40.039,13.672,166.016,40.527,138.184
1573889910.708,20.020,10.254,-589.355,14.648,-111.328
1573889910.712,22.461,20.508,-131.836,26.855,-134.277
1573889910.716,42.480,22.461,461.426,49.805,60.547
1573889910.719,38.086,14.160,93.262,37.598,117.676
1573889910.723,24.414,14.648,-427.734,12.695,-11.719
1573889910.727,25.879,8.789,-395.996,15.625,-106.934
1573889910.731,39.551,6.348,334.473,45.898,57.617
1573889910.735,49.805,16.113,256.348,54.199,173.340
1573889910.739,33.691,19.531,-677.246,23.438,-16.602
1573889910.743,17.578,17.578,-459.961,10.742,-109.863
1573889910.747,34.668,14.648,366.211,39.551,19.531
1573889910.751,46.875,9.277,576.172,51.758,171.387
1573889910.755,33.203,9.277,-23.438,19.531,84.473
1573889910.758,29.297,20.996,-401.367,7.812,-104.980
1573889910.762,42.480,32.715,102.539,35.645,-64.453
1573889910.766,54.199,32.227,548.340,52.246,116.211
1573889910.770,46.387,20.996,199.219,33.203,122.070
1573889910.774,28.809,9.277,-469.727,9.277,-61.035
1573889910.778,33.691,13.184,-410.645,18.555,-113.770
1573889910.782,48.828,24.902,74.707,39.062,62.500
1573889910.786,47.852,26.367,110.840,31.250,142.578
1573889910.790,36.621,28.320,-309.570,7.324,-14.648
1573889910.794,31.738,24.414,-349.609,3.906,-112.305
1573889910.798,36.133,22.461,344.727,23.438,36.621
1573889910.801,40.527,22.949,549.316,31.738,155.762
1573889910.805,37.598,12.695,-115.234,14.648,39.062
1573889910.809,31.738,9.277,-466.309,6.836,-121.094
1573889910.813,44.434,21.484,178.711,34.180,-14.648
1573889910.817,55.664,30.273,690.430,49.805,175.781
1573889910.821,40.039,27.344,-94.727,20.996,71.777
1573889910.825,25.391,22.949,-739.746,-0.977,-125.977
1573889910.829,31.250,15.625,-94.727,18.066,-57.129
1573889910.833,48.828,19.043,593.750,40.527,138.672
1573889910.837,45.410,32.227,219.238,27.344,101.562
1573889910.841,30.762,28.320,-545.898,2.441,-47.852
1573889910.844,35.645,24.414,-271.973,10.742,-74.219
1573889910.848,49.316,31.738,649.902,35.645,97.656
1573889910.852,43.945,26.367,568.359,28.809,176.758
1573889910.856,25.391,14.160,-449.219,1.953,11.230
1573889910.860,21.484,13.184,-443.848,5.371,-88.867
1573889910.864,34.668,18.066,559.082,33.203,41.504
1573889910.868,41.992,15.625,663.574,40.039,199.707
1573889910.872,29.297,18.066,-333.984,14.648,69.336
1573889910.876,23.438,27.344,-526.855,10.254,-114.746
1573889910.880,39.062,27.832,423.340,41.504,-35.645
1573889910.883,45.410,29.785,847.168,51.758,166.992
1573889910.887,34.180,30.762,212.891,28.320,118.652
1573889910.891,22.461,20.508,-215.820,10.742,-75.195
1573889910.895,29.297,18.555,380.371,28.320,-38.574
1573889910.899,44.922,20.996,957.031,49.805,155.762
1573889910.903,48.828,29.785,569.824,42.969,155.273
1573889910.907,35.156,34.668,-44.434,23.438,-26.367
1573889910.911,30.762,29.297,132.324,28.320,-98.145
1573889910.915,41.016,31.250,641.113,45.898,43.457
1573889910.919,42.969,32.715,492.676,40.527,168.945
1573889910.923,33.691,28.809,-114.258,20.020,9.766
1573889910.926,25.879,22.949,-63.965,14.160,-114.258
1573889910.930,41.016,19.531,386.719,38.086,13.184
1573889910.934,52.734,20.508,518.555,47.363,162.109
1573889910.938,38.574,17.578,166.016,23.926,73.242
1573889910.942,20.508,9.766,-308.105,8.301,-117.188
1573889910.946,33.691,20.996,184.570,37.109,-44.922
1573889910.950,52.734,26.855,807.617,58.594,147.461
1573889910.954,43.457,19.043,394.531,38.574,118.164
1573889910.958,27.344,14.648,-254.395,16.602,-60.059
1573889910.962,33.691,12.695,-71.777,28.809,-74.219
1573889910.966,46.875,11.719,516.602,52.246,115.234
1573889910.969,45.410,11.230,439.941,45.410,168.945
1573889910.973,35.156,10.742,-343.262,22.461,-46.875
1573889910.977,33.203,9.766,-653.320,22.949,-176.270
1573889910.981,45.410,11.230,228.516,47.363,10.254
1573889910.985,50.293,10.254,580.078,53.223,152.832
1573889910.989,31.250,10.742,-292.480,22.461,-26.855
1573889910.993,18.066,14.160,-502.441,7.812,-150.391
1573889910.997,27.832,15.625,408.691,33.691,12.695
1573889911.001,33.203,11.719,675.293,41.504,175.293
1573889911.005,26.855,18.555,-49.805,17.578,94.238
1573889911.008,23.926,29.785,-562.500,12.207,-78.125
1573889911.012,31.738,21.973,-57.129,36.621,-34.180
1573889911.016,41.992,19.531,616.699,53.711,156.250
1573889911.020,43.457,25.879,-62.012,40.039,99.121
1573889911.024,28.320,20.996,-899.414,14.160,-125.000
1573889911.028,27.832,17.090,-180.176,22.461,-107.422
1573889911.032,44.434,23.926,627.930,47.852,91.797
1573889911.036,46.875,25.879,333.008,44.922,148.926
1573889911.040,32.227,19.043,-303.711,21.484,-0.488
1573889911.044,30.273,24.414,-216.309,23.438,-117.676
1573889911.048,42.969,22.461,405.273,46.387,18.555
1573889911.051,45.898,12.207,454.102,48.340,193.359
1573889911.055,35.156,15.625,-347.656,23.926,49.316
1573889911.059,27.344,17.090,-666.016,13.184,-121.094
1573889911.063,35.645,20.508,-27.344,34.180,-1.953
1573889911.067,50.293,26.855,143.066,49.316,145.020
1573889911.071,43.945,22.461,-211.426,30.273,99.609
1573889911.075,22.461,17.090,-370.605,5.859,-51.270
1573889911.079,26.367,19.531,-1.465,21.973,-57.129
1573889911.083,46.387,23.438,455.566,48.340,85.449
1573889911.087,44.922,27.832,210.449,39.062,103.516
1573889911.091,25.879,23.926,-335.938,10.254,-39.062
1573889911.094,21.973,21.484,-141.113,11.719,-73.730
1573889911.098,38.086,26.855,497.070,38.086,64.453
1573889911.102,41.016,21.484,313.477,35.156,151.855
1573889911.106,21.484,8.301,-420.898,2.930,-15.137
1573889911.110,16.602,11.230,-664.062,-3.906,-151.367
1573889911.114,33.203,28.320,-77.148,26.367,6.348
1573889911.118,42.969,33.203,569.336,40.039,193.848
1573889911.122,33.203,21.973,18.555,15.137,65.918
1573889911.126,23.438,21.973,-471.680,2.441,-123.047
1573889911.130,35.156,29.297,241.699,24.902,-17.578
1573889911.133,45.410,25.879,856.934,36.133,184.082
1573889911.137,35.645,24.902,267.090,16.113,136.230
1573889911.141,24.414,30.762,-470.215,1.465,-98.633
1573889911.145,31.738,34.668,-7.324,17.090,-103.027
1573889911.149,48.828,35.156,620.605,41.992,112.305
1573889911.153,44.922,29.785,123.047,33.203,141.113
1573889911.157,24.902,19.531,-811.523,3.418,-65.918
1573889911.161,19.531,17.578,-520.020,5.859,-149.414
1573889911.165,26.855,22.949,537.109,30.273,43.945
1573889911.169,32.715,29.785,504.395,32.715,172.363
1573889911.173,24.902,41.016,-339.844,10.254,1.953
1573889911.176,12.695,32.715,-354.004,0.977,-139.160
1573889911.180,30.273,20.508,493.164,30.762,17.578
1573889911.184,53.711,25.879,683.594,49.316,181.641
1573889911.188,38.086,26.855,-14.648,19.043,77.637
1573889911.192,19.531,26.367,-395.508,-1.953,-124.512
1573889911.196,27.344,18.066,99.609,22.949,-49.316
1573889911.200,39.551,12.695,298.828,37.109,142.578
1573889911.204,33.691,21.973,-272.461,18.555,110.840
1573889911.208,19.043,23.438,-535.156,1.465,-77.637
1573889911.212,19.043,13.672,-67.871,15.625,-105.469
1573889911.216,33.691,13.672,511.230,46.387,93.750
1573889911.219,41.016,21.973,376.953,41.016,175.781
1573889911.223,25.879,27.344,-222.656,13.672,-8.301
1573889911.227,21.484,25.879,-323.730,17.090,-115.234
1573889911.231,34.180,17.578,320.312,39.062,55.664
1573889911.235,39.062,19.043,416.504,39.551,138.672
1573889911.239,29.785,22.461,-206.543,19.043,8.789
1573889911.243,22.461,18.555,-499.512,11.719,-96.680
1573889911.247,29.785,19.043,5.371,28.809,-11.230
1573889911.251,38.086,20.508,572.754,40.527,182.129
1573889911.255,29.785,22.949,160.645,24.414,125.000
1573889911.258,19.531,23.438,-472.168,6.836,-76.172
1573889911.262,26.855,18.555,-350.098,19.531,-67.383
1573889911.266,37.598,14.160,353.027,39.062,128.418
1573889911.270,36.133,18.066,269.043,29.297,151.855
1573889911.274,29.785,27.832,-536.621,15.137,-83.496
1573889911.278,26.367,24.902,-246.094,22.949,-100.098
1573889911.282,37.598,22.949,536.133,44.434,108.398
1573889911.286,44.434,20.020,325.684,45.410,156.250
1573889911.290,28.809,16.602,-471.191,20.508,-19.531
1573889911.294,20.996,26.367,-577.148,19.043,-119.141
1573889911.298,32.715,26.367,314.941,45.410,40.039
1573889911.301,42.480,20.508,679.199,52.734,199.707
1573889911.305,37.598,20.508,-294.922,31.738,66.895
1573889911.309,23.926,15.625,-731.934,19.531,-113.281
1573889911.313,32.227,17.090,225.586,41.992,-19.043
1573889911.317,51.270,25.879,693.359,60.547,180.176
1573889911.321,43.945,24.902,51.758,45.410,111.328
1573889911.325,27.832,17.090,-483.398,25.879,-111.816
1573889911.329,28.320,2.441,71.777,34.180,-65.918
1573889911.333,46.387,0.977,665.527,57.617,153.320
1573889911.337,48.828,4.395,77.637,47.852,139.648
1573889911.341,31.738,3.906,-712.891,20.996,-36.133
1573889911.344,32.227,11.230,-297.852,27.832,-72.266
1573889911.348,47.852,20.996,387.207,49.805,61.035
1573889911.352,48.828,26.367,65.430,43.945,127.930
1573889911.356,36.621,17.090,-444.336,21.973,3.418
1573889911.360,29.785,9.766,-266.113,13.672,-98.633
1573889911.364,46.387,10.254,281.250,37.109,18.555
1573889911.368,61.523,6.348,290.039,54.688,149.902
1573889911.372,47.852,3.418,-152.344,29.785,65.918
1573889911.376,30.273,2.930,-377.930,13.672,-90.332
1573889911.380,37.109,10.742,157.715,37.598,-24.414
1573889911.383,52.246,13.184,468.262,57.129,148.926
1573889911.387,43.457,12.207,-106.445,40.527,122.559
1573889911.391,27.344,15.625,-453.125,23.926,-30.273
1573889911.395,33.203,17.090,-259.277,33.691,-70.312
1573889911.399,50.293,22.461,152.832,57.129,85.449
1573889911.403,39.551,16.602,266.602,43.457,150.391
1573889911.407,20.996,15.137,-289.062,18.066,-7.812
1573889911.411,23.926,17.578,-323.730,30.762,-109.863
1573889911.415,38.574,11.230,446.777,50.781,60.547
1573889911.419,42.969,13.672,567.383,52.246,176.758
1573889911.423,31.250,14.160,-295.898,29.785,-7.812
1573889911.426,22.461,12.695,-472.168,21.973,-117.188
1573889911.430,36.133,20.508,177.734,48.340,17.090
1573889911.434,50.781,26.855,427.734,58.105,164.551
1573889911.438,43.457,32.227,-125.977,38.086,89.355
1573889911.442,31.250,25.879,-851.562,27.832,-117.676
1573889911.446,31.738,11.719,-147.949,42.480,-53.223
1573889911.450,44.922,13.184,708.496,62.500,177.246
1573889911.454,41.504,15.137,30.273,50.781,120.117
1573889911.458,23.926,12.207,-641.602,26.855,-102.051
1573889911.462,24.902,18.555,-102.051,38.574,-101.562
1573889911.466,36.621,28.320,671.387,61.523,115.234
1573889911.469,36.133,22.461,433.105,53.223,183.105
1573889911.473,21.973,6.836,-376.465,24.902,-2.930
1573889911.477,18.066,5.859,-447.754,22.461,-112.793
1573889911.481,33.203,17.090,235.840,49.805,35.156
1573889911.485,41.016,16.113,332.031,50.781,162.109
1573889911.489,26.367,9.766,-332.031,20.508,25.879
1573889911.493,17.090,13.184,-402.344,13.184,-111.328
1573889911.497,32.715,17.578,382.812,36.133,4.395
1573889911.501,50.293,18.555,367.676,44.434,148.438
1573889911.505,43.457,20.996,-400.391,22.949,56.152
1573889911.508,26.367,22.461,-552.246,9.277,-99.609
1573889911.512,34.668,23.438,-104.980,27.832,-61.523
1573889911.516,53.711,27.344,426.270,47.852,119.629
1573889911.520,48.828,30.273,215.820,38.574,127.441
1573889911.524,24.902,27.344,-472.168,15.137,-69.336
1573889911.528,29.297,23.926,-370.605,27.832,-116.699
1573889911.532,53.223,28.320,171.387,58.105,68.359
1573889911.536,49.805,29.297,233.887,48.340,161.133
1573889911.540,30.762,23.438,-170.410,20.508,-4.395
1573889911.544,25.391,26.855,-195.312,21.484,-99.121
1573889911.548,41.016,28.809,459.473,47.363,28.320
1573889911.551,50.293,20.508,721.191,58.105,166.504
1573889911.555,38.086,16.113,113.281,37.109,50.781
1573889911.559,28.809,17.090,-314.941,23.926,-145.996
1573889911.563,45.410,23.926,291.016,53.223,-33.691
1573889911.567,57.617,29.785,740.234,72.266,159.180
1573889911.571,44.434,29.785,180.176,54.199,103.027
1573889911.575,27.832,20.020,-554.199,32.227,-75.684
1573889911.579,32.715,20.508,-223.633,41.016,-81.543
1573889911.583,49.316,27.344,799.316,65.918,137.207
1573889911.587,53.711,25.879,661.133,58.105,177.734
1573889911.591,41.504,23.926,-110.352,32.715,-22.461
1573889911.594,36.133,22.949,117.188,33.691,-81.543
1573889911.598,58.594,40.039,937.500,63.965,108.398
1573889911.602,68.359,44.922,822.266,68.359,186.035
1573889911.606,46.875,17.578,-89.844,35.156,-25.391
1573889911.610,34.668,10.254,-103.516,24.902,-112.305
1573889911.614,54.199,24.414,767.578,54.199,62.500
1573889911.618,65.918,29.297,768.066,63.965,181.152
1573889911.622,46.387,26.855,-317.871,35.156,50.781
1573889911.626,33.203,32.715,-533.203,20.996,-108.398
1573889911.630,43.945,38.086,428.711,46.875,-24.902
1573889911.633,50.781,29.297,828.125,61.035,161.621
1573889911.637,39.062,27.832,285.645,37.598,141.602
1573889911.641,24.902,29.785,-149.902,12.695,-41.504
1573889911.645,27.832,25.879,249.512,27.344,-64.453
1573889911.649,41.992,26.367,751.953,53.223,107.910
1573889911.653,35.645,19.043,421.387,43.457,147.949
1573889911.657,21.973,15.625,-199.707,20.508,-10.742
1573889911.661,31.250,30.273,-51.758,34.180,-80.566
1573889911.665,45.898,31.738,494.141,61.035,57.129
1573889911.669,47.852,15.137,309.570,52.734,152.832
1573889911.673,25.879,6.348,-287.598,20.508,18.066
1573889911.676,17.090,12.695,-334.961,17.090,-121.582
1573889911.680,33.691,14.160,41.992,42.480,-28.320
1573889911.684,43.945,16.113,262.695,51.758,164.551
1573889911.688,37.109,20.508,-50.293,36.133,93.750
1573889911.692,27.832,17.090,-465.820,23.438,-131.836
1573889911.696,32.227,20.996,32.715,40.527,-69.336
1573889911.700,46.387,23.438,686.035,58.105,157.227
1573889911.704,41.504,17.090,234.863,39.062,102.051
1573889911.708,20.996,16.113,-446.289,13.184,-70.312
1573889911.712,23.926,25.391,-256.348,22.949,-80.078
1573889911.716,38.574,31.250,361.328,45.410,98.145
1573889911.719,42.480,28.809,309.570,37.109,154.297
1573889911.723,32.227,24.414,-457.031,19.043,-44.922
1573889911.727,29.785,22.461,-719.727,21.484,-129.395
1573889911.731,41.016,25.391,226.562,42.969,57.617
1573889911.735,45.410,23.926,552.734,49.805,189.941
1573889911.739,33.691,18.066,-399.902,24.902,12.695
1573889911.743,25.391,22.461,-608.887,14.160,-138.184
1573889911.747,36.621,29.785,241.211,39.551,-20.020
1573889911.751,42.480,23.926,635.254,49.805,161.621
1573889911.755,32.715,14.160,-30.273,25.879,87.402
1573889911.758,20.508,12.695,-659.668,12.695,-100.098
1573889911.762,26.855,18.555,-188.477,31.250,-54.688
1573889911.766,47.852,22.461,590.820,53.223,142.090
1573889911.770,46.387,20.020,21.484,40.039,137.695
1573889911.774,23.926,21.973,-863.770,10.742,-78.125
1573889911.778,22.949,20.996,-232.910,19.531,-112.305
1573889911.782,46.875,12.207,583.496,51.758,79.102
1573889911.786,51.270,12.207,352.539,51.758,147.949
1573889911.790,37.598,13.672,-394.043,24.902,-16.602
1573889911.794,33.691,13.184,-365.234,26.367,-107.910
1573889911.798,51.270,16.602,425.781,60.059,42.969
1573889911.801,53.223,10.742,495.605,60.059,146.973
1573889911.805,33.691,8.789,-281.738,27.344,37.598
1573889911.809,24.902,17.578,-530.762,15.625,-100.098
1573889911.813,38.086,19.531,137.695,38.574,-39.551
1573889911.817,52.246,13.672,328.613,52.246,142.090
1573889911.821,40.527,12.695,-90.332,31.738,102.539
1573889911.825,29.785,18.555,-353.027,17.090,-85.938
1573889911.829,41.016,21.973,34.180,38.086,-68.359
1573889911.833,50.781,15.625,624.512,58.594,130.859
1573889911.837,48.828,15.137,392.578,43.945,151.855
1573889911.841,34.180,20.508,-325.684,18.555,-75.684
1573889911.844,29.297,16.113,-173.340,22.461,-112.793
1573889911.848,44.922,6.836,459.961,49.316,84.961
1573889911.852,45.410,8.301,295.410,45.898,154.785
1573889911.856,32.227,19.531,-383.789,20.508,15.137
1573889911.860,32.715,22.461,-672.852,20.996,-115.723
1573889911.864,43.457,20.508,34.180,43.457,38.574
1573889911.868,51.270,27.832,663.574,53.223,207.031
1573889911.872,38.086,28.809,74.707,25.391,82.031
1573889911.876,21.484,17.578,-424.805,6.836,-98.145
1573889911.880,32.227,12.207,236.328,32.227,-11.719
1573889911.883,44.434,18.555,809.082,49.316,171.387
1573889911.887,32.715,21.484,189.941,27.832,115.723
1573889911.891,21.973,25.879,-445.801,11.719,-61.035
1573889911.895,25.879,27.832,-89.844,24.902,-87.402
1573889911.899,43.457,25.879,506.348,50.293,112.305
1573889911.903,51.270,32.227,112.793,50.781,138.184
1573889911.907,36.621,33.691,-819.824,20.020,-62.988
1573889911.911,33.691,33.203,-419.922,19.043,-81.055
1573889911.915,43.457,27.832,656.250,42.969,97.168
1573889911.919,45.898,22.949,432.617,42.480,147.949
1573889911.923,34.668,22.461,-460.449,15.137,-1.953
1573889911.926,25.391,24.414,-383.789,7.812,-103.516
1573889911.930,38.574,27.344,407.715,35.156,7.812
1573889911.934,52.246,28.320,604.004,49.316,162.598
1573889911.938,42.480,26.855,-68.359,29.785,83.496
1573889911.942,29.297,22.461,-458.008,12.207,-103.027
1573889911.946,31.738,25.879,-30.273,29.297,-76.660
1573889911.950,46.875,32.227,243.164,48.340,129.883
1573889911.954,41.504,27.344,-258.789,31.738,127.441
1573889911.958,22.461,20.508,-592.773,8.301,-86.914
1573889911.962,28.809,23.926,-211.426,20.020,-103.516
1573889911.966,46.387,30.273,325.195,48.828,87.891
1573889911.969,42.480,30.273,239.258,43.457,148.926
1573889911.973,23.438,25.879,-205.078,16.602,32.227
1573889911.977,18.555,24.902,-162.109,14.648,-62.500
1573889911.981,35.156,26.367,423.340,37.598,54.199
1573889911.985,41.992,20.020,609.863,45.898,203.613
1573889911.989,27.832,20.996,-60.059,25.391,41.504
1573889911.993,20.996,23.438,-537.109,19.531,-139.160
1573889911.997,30.273,11.719,-225.586,39.062,-27.344
1573889912.001,38.574,8.301,265.137,51.758,150.879
1573889912.005,28.320,15.625,-16.113,32.227,74.707
1573889912.008,12.695,16.602,-562.500,10.254,-112.305
1573889912.012,19.043,19.531,-99.609,27.344,-78.125
1573889912.016,34.180,27.832,595.703,55.176,135.254
1573889912.020,37.598,26.367,209.473,45.410,144.531
1573889912.024,23.438,15.137,-538.086,15.137,-81.543
1573889912.028,18.066,13.672,-276.367,20.020,-119.141
1573889912.032,35.645,18.555,587.402,44.922,98.145
1573889912.036,36.621,26.855,474.609,37.598,165.039
1573889912.040,17.578,30.273,-436.035,9.766,-9.277
1573889912.044,15.625,25.391,-595.215,13.184,-108.887
1573889912.048,38.086,28.320,253.418,43.945,23.438
1573889912.051,47.852,28.809,573.242,51.758,163.574
1573889912.055,33.691,22.949,-439.453,16.113,-5.371
1573889912.059,24.414,19.531,-834.961,0.488,-154.785
1573889912.063,35.156,19.043,156.738,31.738,-22.461
1573889912.067,52.246,22.461,663.086,55.664,169.434
1573889912.071,49.805,26.855,19.531,42.969,111.816
1573889912.075,34.180,22.949,-594.238,24.414,-86.426
1573889912.079,35.645,15.137,-38.086,41.016,-55.176
1573889912.083,45.410,8.789,596.191,62.500,124.512
1573889912.087,41.504,5.859,30.273,51.270,106.934
1573889912.091,22.949,8.301,-725.098,24.902,-63.965
1573889912.094,21.973,16.602,-327.637,32.715,-100.586
1573889912.098,32.715,18.066,371.094,48.828,45.898
1573889912.102,28.809,18.066,215.820,41.016,148.438
1573889912.106,19.531,10.254,-359.863,18.066,27.344
1573889912.110,15.625,-0.488,-354.004,13.184,-100.098
1573889912.114,26.855,6.348,233.398,35.156,13.184
1573889912.118,33.203,14.160,252.441,37.598,163.574
1573889912.122,17.578,11.230,-248.535,12.207,39.062
1573889912.126,6.836,1.953,-481.934,-2.441,-134.277
1573889912.130,22.949,6.836,9.766,23.926,-64.941
1573889912.133,29.785,14.648,404.297,42.480,139.160
1573889912.137,17.578,10.742,-57.129,19.043,123.047
1573889912.141,7.812,9.766,-590.332,4.395,-52.734
1573889912.145,17.090,18.066,-410.645,27.832,-77.148
1573889912.149,33.203,19.043,155.273,50.293,87.402
1573889912.153,29.297,14.648,292.969,38.574,149.902
1573889912.157,15.625,2.930,-280.273,13.672,-22.461
1573889912.161,15.137,-3.906,-248.047,16.113,-92.773
1573889912.165,32.227,3.906,557.617,45.898,85.449
1573889912.169,36.621,14.160,657.715,53.223,185.547
1573889912.173,25.391,16.602,-144.043,29.297,36.621
1573889912.176,20.996,14.648,-416.992,21.973,-112.793
1573889912.180,32.715,20.020,177.246,46.387,-7.324
1573889912.184,44.922,22.949,485.840,59.082,181.152
1573889912.188,37.598,21.484,-241.211,37.598,55.664
1573889912.192,28.320,22.949,-974.121,21.484,-170.898
1573889912.196,33.691,15.137,-249.023,40.527,-101.562
1573889912.200,47.852,8.301,642.090,61.035,131.836
1573889912.204,44.434,14.160,197.754,41.992,142.090
1573889912.208,26.855,18.555,-505.859,19.043,-76.660
1573889912.212,25.391,17.578,-80.566,32.227,-104.980
1573889912.216,39.551,20.508,745.117,56.152,133.301
1573889912.219,38.574,17.578,481.445,45.898,189.453
1573889912.223,25.879,10.742,-318.359,23.438,-2.441
1573889912.227,22.461,13.184,-371.094,26.855,-94.727
1573889912.231,34.668,22.461,383.789,49.805,67.871
1573889912.235,42.969,32.715,309.570,53.223,161.133
1573889912.239,26.855,28.320,-559.082,21.484,12.207
1573889912.243,12.695,14.160,-519.531,9.277,-123.535
1573889912.247,25.391,7.324,267.578,33.691,8.789
1573889912.251,33.691,5.371,690.430,41.504,186.523
1573889912.255,21.973,4.395,165.527,18.555,96.680
1573889912.258,6.836,8.789,-203.125,0.977,-83.496
1573889912.262,16.602,18.066,241.211,21.973,-70.312
1573889912.266,41.016,24.902,778.320,54.199,136.719
1573889912.270,34.668,20.020,498.535,38.086,151.367
1573889912.274,21.484,20.508,-221.191,17.090,-50.293
1573889912.278,24.414,23.926,-178.711,31.250,-104.492
1573889912.282,38.086,12.695,562.012,58.594,89.355
1573889912.286,41.504,2.441,706.543,57.129,193.359
1573889912.290,20.508,3.418,116.699,26.367,40.039
1573889912.294,22.949,14.648,-105.469,31.738,-97.168
1573889912.298,40.039,24.414,265.625,59.570,7.324
1573889912.301,45.410,24.414,507.812,63.965,151.855
1573889912.305,38.086,22.949,31.738,41.016,25.879
1573889912.309,22.949,23.926,-253.418,25.879,-102.051
1573889912.313,28.809,27.832,431.641,46.875,9.277
1573889912.317,42.480,25.879,896.484,59.570,165.039
1573889912.321,33.691,19.043,218.750,38.086,92.773
1573889912.325,14.160,20.996,-635.742,14.648,-114.258
1573889912.329,17.578,26.855,-327.637,29.785,-116.699
1573889912.333,32.715,30.273,701.660,55.664,108.887
1573889912.337,33.203,22.461,524.414,44.434,128.418
1573889912.341,17.090,18.066,-263.184,15.625,-51.270
1573889912.344,15.625,29.297,-25.879,19.043,-88.379
1573889912.348,38.086,33.691,779.785,47.363,70.801
1573889912.352,40.039,34.668,654.785,46.387,146.973
1573889912.356,24.902,35.645,-226.562,21.973,8.789
1573889912.360,19.043,36.621,-345.703,15.137,-98.145
1573889912.364,30.762,50.293,484.375,36.133,10.742
1573889912.368,40.039,51.758,594.727,49.805,145.996
1573889912.372,25.879,41.992,-445.312,24.902,40.039
1573889912.376,7.324,30.273,-677.246,0.000,-98.633
1573889912.380,17.578,23.926,234.863,24.414,-46.875
1573889912.383,42.480,31.250,612.793,54.199,113.770
1573889912.387,36.621,33.691,66.406,38.086,94.727
1573889912.391,11.719,39.551,-405.762,11.719,-92.285
1573889912.395,12.695,46.875,2.930,25.391,-98.633
1573889912.399,32.227,40.527,668.945,52.734,135.742
1573889912.403,31.250,28.809,382.324,40.527,165.527
1573889912.407,9.277,31.738,-320.801,10.254,-36.133
1573889912.411,6.836,34.668,-172.852,15.137,-94.727
1573889912.415,32.715,35.156,405.762,48.340,57.617
1573889912.419,37.598,41.992,279.297,49.316,174.316
1573889912.423,26.367,51.758,-403.809,26.367,42.969
1573889912.426,24.902,51.758,-434.082,26.367,-107.910
1573889912.430,31.738,38.574,59.082,44.434,-17.090
1573889912.434,37.598,29.297,253.906,51.758,146.973
1573889912.438,25.879,29.785,-57.617,29.785,74.707
1573889912.442,18.066,34.668,-461.426,14.160,-89.844
1573889912.446,27.344,34.668,37.598,32.715,-22.949
1573889912.450,34.668,30.762,640.137,50.293,166.504
1573889912.454,31.250,29.297,211.426,40.039,115.723
1573889912.458,20.996,35.156,-504.883,20.508,-77.148
1573889912.462,24.902,36.621,-354.004,25.879,-89.844
1573889912.466,34.668,30.273,295.410,42.969,85.938
1573889912.469,37.598,36.621,192.383,35.645,133.789
1573889912.473,32.227,40.039,-646.973,19.043,-49.316
1573889912.477,26.855,36.621,-766.113,18.066,-104.980
1573889912.481,38.574,37.109,109.863,39.551,7.324
1573889912.485,43.945,28.809,556.641,45.898,160.156
1573889912.489,30.273,25.879,-187.500,19.531,29.785
1573889912.493,22.949,32.715,-537.598,11.230,-146.973
1573889912.497,32.715,31.250,328.125,37.598,-4.395
1573889912.501,41.016,28.320,746.094,50.781,159.180
1573889912.505,33.203,29.297,124.512,25.391,112.305
1573889912.508,20.996,26.855,-523.438,4.883,-76.660
1573889912.512,28.320,27.832,-178.223,26.367,-87.402
1573889912.516,42.969,28.809,531.738,53.711,86.914
1573889912.520,41.504,30.762,11.719,42.480,94.727
1573889912.524,24.902,32.227,-785.156,17.090,-69.824
1573889912.528,28.809,25.879,-292.969,32.715,-106.445
1573889912.532,50.293,20.020,540.039,62.988,76.660
1573889912.536,48.340,21.973,485.840,52.734,172.363
1573889912.540,27.832,27.832,-207.031,21.484,-4.395
1573889912.544,23.438,26.855,-212.402,20.020,-140.625
1573889912.548,41.992,21.973,438.477,50.781,0.000
1573889912.551,51.758,18.066,530.762,56.152,139.648
1573889912.555,35.645,17.090,-274.902,29.785,5.371
1573889912.559,20.020,23.438,-521.484,15.137,-99.609
1573889912.563,32.715,21.973,236.328,37.109,8.301
1573889912.567,50.781,17.578,328.613,53.223,115.234
1573889912.571,40.527,15.137,-117.188,31.250,83.496
1573889912.575,21.973,7.324,-311.035,10.742,-49.316
1573889912.579,30.273,7.324,31.738,22.949,-62.500
1573889912.583,45.898,9.277,551.758,42.969,122.070
1573889912.587,42.480,7.812,330.566,35.645,150.391
1573889912.591,27.344,6.348,-291.016,15.137,-42.480
1573889912.594,21.973,16.113,-170.410,19.043,-90.332
1573889912.598,37.109,31.738,520.508,47.852,73.730
1573889912.602,47.852,23.926,378.906,48.828,153.320
1573889912.606,34.180,3.906,-338.867,19.043,23.926
1573889912.610,22.461,0.000,-577.637,8.789,-91.309
1573889912.614,32.715,3.418,-192.871,26.855,-30.762
1573889912.618,42.969,13.184,368.652,40.527,130.371
1573889912.622,37.598,19.531,7.812,29.297,83.984
1573889912.626,23.926,18.066,-475.586,14.648,-98.633
1573889912.630,30.273,15.625,124.512,33.691,-46.875
1573889912.633,48.828,16.602,758.301,54.199,155.762
1573889912.637,41.016,17.578,185.547,34.180,107.422
1573889912.641,24.414,15.137,-585.938,14.160,-69.824
1573889912.645,26.367,15.137,-151.367,28.320,-62.012
1573889912.649,38.574,11.719,571.289,52.734,121.094
1573889912.653,40.527,10.742,118.652,44.922,149.414
1573889912.657,22.949,9.766,-684.082,17.090,-23.438
1573889912.661,13.184,3.418,-432.617,15.625,-118.652
1573889912.665,29.297,3.906,469.727,40.039,35.645
1573889912.669,37.598,8.789,445.312,42.969,166.504
1573889912.673,28.320,15.625,-619.141,14.648,0.000
1573889912.676,23.926,27.832,-605.957,9.766,-96.680
1573889912.680,37.109,32.715,403.809,39.062,33.691
1573889912.684,48.828,20.020,618.164,47.363,177.734
1573889912.688,36.621,10.254,-54.199,23.926,95.215
1573889912.692,20.996,12.207,-451.172,8.789,-106.934
1573889912.696,25.391,12.695,-41.992,18.066,-86.426
1573889912.700,37.109,12.695,280.273,36.621,134.766
1573889912.704,36.133,13.672,-255.371,24.902,109.375
1573889912.708,23.926,20.508,-563.477,6.348,-69.336
1573889912.712,25.391,23.438,-75.684,20.508,-78.613
1573889912.716,38.574,21.973,519.531,38.086,86.914
1573889912.719,39.551,17.578,405.762,33.203,168.457
1573889912.723,30.762,15.137,-200.195,13.672,13.184
1573889912.727,27.832,13.184,-222.168,11.719,-87.891
1573889912.731,35.156,6.348,349.609,32.715,34.180
1573889912.735,41.016,4.883,503.906,41.504,161.621
1573889912.739,28.320,5.859,-159.668,16.602,48.340
1573889912.743,12.207,0.000,-639.160,-0.488,-112.305
1573889912.747,20.508,2.441,-320.312,22.949,-57.129
1573889912.751,31.738,14.160,158.203,38.574,115.723
1573889912.755,20.508,13.672,-169.434,16.113,51.758
1573889912.758,11.230,13.184,-649.414,0.000,-104.980
1573889912.762,23.438,16.113,-125.977,24.902,-63.965
1573889912.766,37.598,13.184,563.477,46.875,95.703
1573889912.770,36.621,11.719,322.754,33.203,130.859
1573889912.774,23.438,15.625,-458.496,7.324,-58.594
1573889912.778,24.414,16.602,-290.039,15.625,-102.539
1573889912.782,36.621,13.184,554.688,46.387,77.637
1573889912.786,40.039,17.090,480.957,47.363,153.320
1573889912.790,36.133,23.438,-383.789,25.391,17.090
1573889912.794,27.832,23.438,-540.527,19.043,-88.379
1573889912.798,34.180,20.020,360.840,41.016,47.852
1573889912.801,49.316,19.043,760.254,57.129,213.867
1573889912.805,41.016,15.137,-229.492,32.227,54.688
1573889912.809,24.902,13.184,-981.934,4.883,-163.086
1573889912.813,36.621,20.996,-143.555,27.832,-57.617
1573889912.817,54.688,20.996,542.480,53.223,137.207
1573889912.821,48.828,15.137,-10.254,37.109,86.426
1573889912.825,36.621,15.137,-516.113,15.625,-91.309
1573889912.829,43.945,19.043,102.051,30.762,-34.668
1573889912.833,57.617,20.508,729.980,57.129,143.555
1573889912.837,56.152,20.508,118.164,48.340,101.562
1573889912.841,42.969,26.367,-632.324,22.949,-36.621
1573889912.844,40.527,16.113,-235.840,23.926,-58.105
1573889912.848,54.688,6.836,454.102,46.387,59.570
1573889912.852,56.152,17.090,89.355,42.480,134.277
1573889912.856,39.062,21.484,-499.512,17.578,3.906
1573889912.860,32.227,21.973,-298.340,16.113,-96.680
1573889912.864,40.039,27.344,364.746,38.086,28.809
1573889912.868,42.480,23.926,500.000,43.457,173.340
1573889912.872,29.297,18.066,-70.312,18.555,66.895
1573889912.876,19.043,13.672,-394.531,4.883,-115.234
1573889912.880,27.344,14.648,119.629,31.738,-45.898
1573889912.883,38.574,12.695,545.410,52.734,164.551
1573889912.887,30.762,6.348,8.301,32.715,134.277
1573889912.891,18.066,11.719,-571.777,10.742,-89.355
1573889912.895,28.809,23.438,-386.230,25.879,-111.328
1573889912.899,41.504,19.531,187.500,46.875,101.074
1573889912.903,35.156,7.324,289.551,37.598,143.555
1573889912.907,21.973,5.371,-296.387,13.184,-16.113
1573889912.911,26.855,15.625,-243.652,20.020,-58.105
1573889912.915,46.875,17.090,557.617,44.922,91.309
1573889912.919,47.363,11.719,695.312,41.504,179.199
1573889912.923,33.691,19.043,-229.492,15.625,16.113
1573889912.926,32.715,20.996,-511.719,10.254,-90.820
1573889912.930,37.598,9.766,188.965,31.250,7.324
1573889912.934,43.457,6.836,535.645,41.504,153.320
1573889912.938,36.621,7.812,-56.152,19.531,64.941
1573889912.942,22.461,10.742,-817.383,2.441,-112.305
1573889912.946,31.250,15.137,-211.426,23.438,-88.867
1573889912.950,50.781,20.996,571.777,49.805,90.820
1573889912.954,50.293,24.902,123.047,39.062,105.469
1573889912.958,31.250,24.414,-407.715,14.160,-41.504
1573889912.962,33.691,27.832,60.547,25.879,-65.430
1573889912.966,48.828,16.602,833.984,54.688,109.375
1573889912.969,43.945,6.836,560.059,41.992,154.297
1573889912.973,27.832,14.160,-258.301,16.113,-42.480
1573889912.977,26.855,24.902,-285.156,22.949,-115.723
1573889912.981,40.527,27.832,412.598,50.293,39.551
1573889912.985,50.293,22.949,364.746,51.270,137.695
1573889912.989,38.574,21.484,-414.062,23.438,9.766
1573889912.993,27.344,21.484,-336.914,15.137,-134.766
1573889912.997,40.527,22.949,508.301,42.969,-26.367
1573889913.001,52.246,20.996,915.527,62.012,185.547
1573889913.005,41.992,24.902,292.969,42.480,79.590
1573889913.008,27.344,23.926,-135.254,24.902,-94.727
1573889913.012,31.250,11.719,306.152,34.180,-55.664
1573889913.016,41.016,4.395,777.344,48.828,117.188
1573889913.020,33.203,6.836,505.859,33.691,145.996
1573889913.024,22.461,15.137,-202.637,11.719,-22.949
1573889913.028,21.973,12.207,-236.816,22.461,-113.770
1573889913.032,33.203,11.230,350.586,39.062,37.109
1573889913.036,35.156,17.578,458.984,32.227,169.434
1573889913.040,20.508,17.090,-51.758,10.742,19.531
1573889913.044,11.719,14.160,-158.203,5.371,-86.426
1573889913.048,21.973,18.555,286.133,25.391,0.000
1573889913.051,33.203,16.113,675.293,33.203,168.457
1573889913.055,20.996,5.859,202.637,13.672,83.008
1573889913.059,7.324,4.395,-358.887,-1.465,-139.648
1573889913.063,21.484,7.324,207.031,21.484,-46.387
1573889913.067,35.156,6.836,780.273,44.434,150.879
1573889913.071,29.297,10.742,109.375,32.227,75.684
1573889913.075,19.043,11.230,-777.344,9.277,-111.328
1573889913.079,24.414,13.184,-453.613,21.484,-98.145
1573889913.083,40.527,24.414,564.453,45.898,109.863
1573889913.087,42.480,25.391,467.285,41.504,152.832
1573889913.091,22.949,9.277,-347.168,14.160,-27.832
1573889913.094,17.090,3.906,-331.543,16.113,-97.656
1573889913.098,26.855,7.812,481.445,41.992,67.871
1573889913.102,30.762,6.836,525.879,41.504,163.086
1573889913.106,27.832,12.695,-283.203,23.926,15.137
1573889913.110,25.391,21.973,-324.219,21.973,-82.520
1573889913.114,26.855,20.996,480.957,40.527,33.203
1573889913.118,34.668,17.578,565.430,46.875,161.621
1573889913.122,28.809,11.230,-528.320,23.438,20.508
1573889913.126,11.719,6.836,-798.340,7.812,-105.469
1573889913.130,21.484,13.184,211.914,30.273,-0.977
1573889913.133,37.598,10.742,602.051,49.316,127.930
1573889913.137,32.227,6.836,22.949,33.203,89.355
1573889913.141,14.648,9.766,-405.762,4.883,-54.199
1573889913.145,11.230,13.672,4.883,11.230,-59.570
1573889913.149,28.320,18.066,491.211,42.969,87.891
1573889913.153,27.832,7.812,191.895,32.227,136.719
1573889913.157,11.719,0.488,-354.492,2.441,0.000
1573889913.161,9.766,5.371,-263.672,9.277,-60.547
1573889913.165,23.926,7.324,276.855,32.715,72.266
1573889913.169,32.227,13.672,263.672,36.133,170.898
1573889913.173,20.508,16.602,-302.246,14.160,40.039
1573889913.176,9.766,15.625,-397.461,2.930,-120.605
1573889913.180,23.438,19.043,20.996,19.531,-29.297
1573889913.184,34.180,11.719,268.555,32.227,158.203
1573889913.188,30.762,8.301,-85.938,19.531,59.082
1573889913.192,16.602,11.719,-537.109,1.465,-133.301
1573889913.196,15.625,10.742,-38.574,16.113,-62.500
1573889913.200,33.203,13.672,613.770,36.621,137.695
1573889913.204,30.273,13.672,270.508,18.555,127.441
1573889913.208,13.672,15.625,-520.508,-2.930,-52.734
1573889913.212,15.137,20.508,-341.797,7.324,-61.035
1573889913.216,31.738,19.531,379.883,26.367,104.004
1573889913.219,32.715,16.113,409.180,20.996,169.922
1573889913.223,17.090,13.184,-296.387,-2.930,8.301
1573889913.227,17.578,17.578,-651.367,-5.371,-110.352
1573889913.231,32.227,24.902,184.570,22.949,27.832
1573889913.235,34.668,21.973,638.184,24.902,170.410
1573889913.239,19.531,11.230,-160.645,0.488,36.133
1573889913.243,8.789,7.812,-514.160,-4.883,-130.371
1573889913.247,20.508,18.555,315.430,20.996,-16.602
1573889913.251,32.715,20.508,795.898,34.180,167.969
1573889913.255,18.066,9.766,132.324,8.301,99.121
1573889913.258,6.836,12.695,-494.629,-8.789,-47.363
1573889913.262,16.113,20.508,-85.449,13.184,-41.504
1573889913.266,29.785,17.090,561.035,37.598,127.441
1573889913.270,34.668,18.555,0.488,20.020,114.258
1573889913.274,22.949,29.785,-834.473,0.000,-104.980
1573889913.278,20.508,29.785,-235.352,16.602,-122.559
1573889913.282,40.039,25.391,662.598,40.039,77.637
1573889913.286,43.457,20.996,472.656,37.109,154.785
1573889913.290,24.414,13.672,-255.859,11.719,-17.090
1573889913.294,20.996,15.625,-196.777,13.184,-111.328
1573889913.298,37.109,16.602,522.461,34.668,44.922
1573889913.301,44.922,21.973,619.629,41.504,164.551
1573889913.305,33.203,24.414,-169.434,18.555,55.176
1573889913.309,19.531,26.855,-526.367,6.836,-88.379
1573889913.313,28.320,39.551,121.582,27.832,-40.039
1573889913.317,41.992,36.133,253.906,39.551,104.004
1573889913.321,29.297,23.438,-291.992,23.438,54.688
1573889913.325,9.766,20.508,-490.234,3.418,-94.238
1573889913.329,12.695,23.438,-95.215,17.090,-93.750
1573889913.333,29.297,27.344,511.230,43.945,92.773
1573889913.337,25.879,27.344,420.898,33.203,160.645
1573889913.341,8.301,27.344,-224.121,7.324,-13.184
1573889913.344,7.812,32.227,-220.215,15.137,-107.910
1573889913.348,18.555,33.691,513.672,39.062,76.172
1573889913.352,23.438,16.113,474.121,38.574,193.359
1573889913.356,9.277,10.254,-360.352,10.742,23.926
1573889913.360,4.883,20.996,-633.789,6.348,-134.766
1573889913.364,21.484,19.531,51.270,36.133,-21.973
1573889913.368,33.203,23.438,638.184,51.270,183.105
1573889913.372,25.879,27.832,-24.414,29.785,65.430
1573889913.376,14.648,23.438,-788.574,8.789,-80.078
1573889913.380,20.996,26.855,-270.996,24.414,-3.418
1573889913.383,33.691,26.855,669.434,48.828,171.875
1573889913.387,30.762,16.602,341.309,36.133,173.828
1573889913.391,20.508,13.672,-481.445,14.648,-58.594
1573889913.395,27.832,21.973,-166.016,30.273,-112.305
1573889913.399,44.922,31.738,473.145,59.570,78.613
1573889913.403,44.434,34.180,148.438,53.711,135.254
1573889913.407,25.879,22.949,-753.906,20.020,-31.738
1573889913.411,20.996,16.602,-586.914,15.625,-98.633
1573889913.415,41.992,20.020,522.949,47.363,68.848
1573889913.419,47.852,20.996,584.473,52.734,197.754
1573889913.423,34.668,20.508,-248.047,21.973,41.016
1573889913.426,33.203,21.484,-357.910,17.578,-111.328
1573889913.430,49.805,23.438,302.246,49.316,-4.395
1573889913.434,58.105,23.926,430.664,57.617,138.672
1573889913.438,45.410,24.414,-101.562,30.762,83.984
1573889913.442,30.273,24.902,-416.992,12.207,-80.566
1573889913.446,38.574,22.461,26.855,36.133,-42.969
1573889913.450,56.152,20.508,317.383,58.105,139.160
1573889913.454,51.758,24.902,-263.672,38.574,97.656
1573889913.458,35.645,37.109,-562.500,16.602,-61.523
1573889913.462,39.062,34.180,-51.270,31.250,-66.895
1573889913.466,50.293,18.555,578.613,51.270,110.352
1573889913.469,50.293,16.602,378.906,41.016,144.531
1573889913.473,37.598,23.438,-213.867,18.066,14.648
1573889913.477,30.762,22.461,-257.812,14.160,-89.844
1573889913.481,46.387,22.461,324.219,43.945,24.902
1573889913.485,57.129,23.438,588.379,55.664,196.777
1573889913.489,39.551,22.949,-123.047,30.273,62.012
1573889913.493,25.391,21.973,-640.137,21.484,-120.605
1573889913.497,29.297,17.090,-309.570,39.062,-56.152
1573889913.501,36.621,18.555,285.645,52.734,146.973
1573889913.505,28.809,21.973,163.086,32.715,131.836
1573889913.508,17.578,26.367,-439.941,10.742,-51.270
1573889913.512,21.484,29.297,-35.645,22.949,-35.645
1573889913.516,31.738,25.391,737.793,40.527,155.762
1573889913.520,32.715,20.996,398.438,29.785,140.137
1573889913.524,18.555,15.137,-449.219,6.836,-65.918
1573889913.528,18.555,16.113,-311.523,19.531,-113.281
1573889913.532,39.551,22.949,539.062,47.363,72.754
1573889913.536,46.387,23.926,529.785,45.898,165.039
1573889913.540,25.879,26.855,-396.973,18.066,-0.977
1573889913.544,20.020,34.668,-620.605,13.184,-100.586
1573889913.548,35.645,35.645,96.191,40.039,8.301
1573889913.551,38.086,26.367,537.109,43.945,170.410
1573889913.555,30.762,20.020,-308.105,20.996,40.039
1573889913.559,27.344,23.438,-916.504,9.766,-154.297
1573889913.563,39.062,31.250,47.852,32.715,-46.387
1573889913.567,53.223,36.133,692.383,52.246,158.203
1573889913.571,42.969,28.809,149.414,28.320,121.094
1573889913.575,25.879,24.902,-443.359,0.977,-85.449
1573889913.579,27.832,34.180,47.363,12.695,-66.895
1573889913.583,42.969,33.691,654.785,37.109,129.395
1573889913.587,43.457,23.438,153.320,24.414,128.906
1573889913.591,24.902,24.902,-664.062,-8.301,-73.242
1573889913.594,23.438,29.785,-439.453,-0.977,-127.441
1573889913.598,41.992,30.273,441.895,30.273,83.984
1573889913.602,49.316,26.367,154.785,29.297,157.227
1573889913.606,39.551,27.832,-520.020,4.883,3.418
1573889913.610,38.574,35.645,-333.008,7.324,-103.027
1573889913.614,52.734,33.691,282.227,35.645,-8.789
1573889913.618,64.941,30.273,473.145,45.898,126.953
1573889913.622,53.711,31.738,-30.273,25.391,55.176
1573889913.626,41.016,27.344,-377.441,15.137,-105.957
1573889913.630,51.758,23.438,90.820,35.156,-53.223
1573889913.633,66.895,28.320,510.742,56.641,150.391
1573889913.637,61.523,41.992,12.207,43.457,129.883
1573889913.641,43.945,45.898,-517.090,20.996,-65.918
1573889913.645,41.504,34.180,-322.754,32.715,-98.145
1573889913.649,52.734,36.133,174.316,55.664,72.266
1573889913.653,50.781,44.922,372.070,48.828,153.809
1573889913.657,32.715,37.109,-219.238,15.137,11.719
1573889913.661,25.391,30.273,-291.992,12.695,-74.219
1573889913.665,36.621,30.273,540.527,38.086,62.988
1573889913.669,41.992,37.109,779.297,40.039,192.871
1573889913.673,31.250,43.457,50.781,14.648,65.430
1573889913.676,23.926,39.551,-260.742,0.977,-82.520
1573889913.680,38.574,36.621,301.270,30.273,5.859
1573889913.684,48.828,38.086,706.543,44.922,192.383
1573889913.688,36.621,34.668,130.859,18.066,83.984
1573889913.692,27.344,22.949,-690.430,-4.883,-115.723
1573889913.696,33.691,17.578,-79.590,9.277,-50.781
1573889913.700,53.223,31.250,944.336,38.086,184.570
1573889913.704,59.570,42.969,506.348,30.762,170.898
1573889913.708,47.363,40.527,-352.539,7.324,-85.449
1573889913.712,46.875,36.621,88.867,15.137,-81.055
1573889913.716,63.477,36.621,814.941,40.527,119.629
1573889913.719,73.242,38.574,529.785,39.062,150.879
1573889913.723,62.500,35.645,-161.621,16.113,-17.578
1573889913.727,63.965,33.691,-218.262,21.973,-96.191
1573889913.731,76.660,41.016,533.691,53.711,64.941
1573889913.735,78.125,40.039,552.734,53.711,171.387
1573889913.739,68.359,31.738,-380.371,27.344,10.742
1573889913.743,53.223,29.297,-323.730,21.484,-95.215
1573889913.747,53.223,31.250,477.539,42.969,3.418
1573889913.751,63.477,35.645,767.578,56.641,158.203
1573889913.755,53.711,40.527,268.555,32.715,123.047
1573889913.758,31.250,43.945,-191.895,9.277,-58.594
1573889913.762,32.227,42.969,194.824,24.902,-50.293
1573889913.766,42.969,30.273,680.176,45.410,115.234
1573889913.770,34.180,22.949,272.461,28.320,113.281
1573889913.774,16.602,30.273,-456.055,-2.441,-30.273
1573889913.778,15.137,35.156,-390.625,1.465,-91.309
1573889913.782,27.832,29.297,302.734,27.832,30.273
1573889913.786,32.227,29.785,459.473,27.344,155.273
1573889913.790,21.484,33.203,-154.785,0.977,3.906
1573889913.794,14.160,34.668,-418.945,0.977,-143.066
1573889913.798,28.320,38.574,-45.410,26.855,-17.578
1573889913.801,28.320,30.762,395.996,29.785,164.551
1573889913.805,9.766,20.996,32.715,3.418,90.820
1573889913.809,2.441,20.996,-425.781,-6.836,-59.082
1573889913.813,9.277,22.461,83.984,14.648,-29.785
1573889913.817,20.020,21.484,702.148,32.715,154.785
1573889913.821,18.555,25.879,125.000,22.949,113.281
1573889913.825,10.742,44.434,-816.895,5.371,-88.379
1573889913.829,17.090,41.992,-562.500,19.531,-93.750
1573889913.833,34.180,26.367,448.730,41.992,100.586
1573889913.837,37.598,25.879,370.117,33.691,139.648
1573889913.841,26.855,24.414,-452.148,11.230,-34.668
1573889913.844,30.762,27.832,-266.113,15.625,-58.105
1573889913.848,46.387,32.227,608.398,41.992,104.980
1573889913.852,48.828,37.109,545.898,42.480,171.387
1573889913.856,35.645,37.109,-301.270,16.113,34.180
1573889913.860,34.180,38.086,-438.965,15.625,-87.891
1573889913.864,51.758,54.688,312.012,43.945,10.254
1573889913.868,54.688,55.176,434.082,50.293,154.297
1573889913.872,38.574,36.621,-560.059,17.090,37.598
1573889913.876,28.320,33.691,-874.512,2.441,-111.328
1573889913.880,35.645,29.297,40.527,25.391,-41.016
1573889913.883,52.734,28.320,527.832,42.480,136.230
1573889913.887,50.293,38.086,-49.805,35.645,89.355
1573889913.891,25.879,31.250,-535.156,14.648,-97.168
1573889913.895,22.949,23.926,-58.594,19.043,-82.520
1573889913.899,41.504,27.832,567.383,48.828,104.980
1573889913.903,41.992,24.902,338.379,42.480,162.598
1573889913.907,21.973,21.484,-308.105,14.160,-16.113
1573889913.911,20.020,29.297,-220.703,19.043,-100.098
1573889913.915,38.574,36.621,337.891,46.875,57.129
1573889913.919,40.527,28.809,248.047,47.363,170.898
1573889913.923,20.508,19.531,-281.250,18.066,47.363
1573889913.926,10.254,21.973,-283.203,11.230,-62.988
1573889913.930,28.320,32.227,176.270,41.992,3.906
1573889913.934,35.645,33.203,400.879,53.223,136.719
1573889913.938,23.438,19.043,89.844,31.250,93.262
1573889913.942,15.137,15.137,-490.234,17.578,-92.285
1573889913.946,22.461,26.855,-115.234,35.156,-83.496
1573889913.950,37.109,28.809,623.047,54.199,115.234
1573889913.954,31.738,22.949,350.098,36.133,127.930
1573889913.958,16.602,25.879,-309.570,9.766,-25.391
1573889913.962,26.367,29.297,-181.152,22.949,-43.945
1573889913.966,47.363,25.879,407.715,47.852,89.355
1573889913.969,47.852,22.461,390.137,40.039,140.625
1573889913.973,33.203,18.555,-270.996,15.625,10.742
1573889913.977,28.320,13.184,-600.098,9.766,-78.613
1573889913.981,40.527,12.207,171.387,31.250,28.320
1573889913.985,56.152,21.973,651.855,47.363,166.016
1573889913.989,50.781,26.367,-115.234,27.344,53.223
1573889913.993,38.086,20.020,-459.961,13.184,-92.285
1573889913.997,54.199,19.531,212.402,41.016,-25.879
1573889914.001,66.895,27.344,568.848,55.664,134.766
1573889914.005,56.641,28.809,-9.277,35.645,78.125
1573889914.008,35.156,17.578,-628.906,11.230,-87.402
1573889914.012,33.691,22.461,-195.312,21.484,-59.570
1573889914.016,48.828,29.297,573.242,42.969,132.812
1573889914.020,45.410,21.973,59.570,26.367,118.652
1573889914.024,30.762,22.949,-810.547,4.883,-60.547
1573889914.028,26.855,25.391,-291.504,17.578,-108.398
1573889914.032,42.969,26.367,566.895,46.875,58.105
1573889914.036,44.922,26.855,383.301,43.457,134.766
1573889914.040,24.414,25.391,-323.242,14.160,-10.254
1573889914.044,20.020,31.250,-315.430,11.719,-127.441
1573889914.048,37.109,41.992,339.844,41.504,-14.160
1573889914.051,39.062,33.203,492.676,50.293,147.461
1573889914.055,29.785,22.461,-270.996,24.414,35.645
1573889914.059,21.484,32.227,-681.152,11.719,-118.652
1573889914.063,29.785,32.227,-107.422,33.203,-55.176
1573889914.067,42.969,31.738,167.480,51.758,118.652
1573889914.071,34.180,32.227,-186.523,35.645,92.773
1573889914.075,23.926,26.855,-472.168,16.113,-103.516
1573889914.079,22.949,25.391,-144.043,25.879,-107.910
1573889914.083,32.715,27.344,527.344,49.316,116.699
1573889914.087,40.527,30.273,401.855,50.293,159.668
1573889914.091,26.855,26.855,-265.137,25.879,-17.578
1573889914.094,23.438,18.066,-257.812,28.320,-97.168
1573889914.098,43.945,15.625,383.789,57.617,39.551
1573889914.102,53.223,21.484,312.012,60.059,143.066
1573889914.106,39.551,23.438,-348.633,33.691,40.039
1573889914.110,33.203,17.090,-657.715,22.949,-106.445
1573889914.114,40.039,17.090,-280.273,40.527,-35.645
1573889914.118,50.781,29.297,432.129,52.734,173.340
1573889914.122,47.852,38.086,48.340,37.109,83.008
1573889914.126,30.273,35.645,-491.699,19.531,-88.867
1573889914.130,34.668,21.484,107.910,31.250,-13.672
1573889914.133,51.270,20.996,709.473,49.316,143.066
1573889914.137,48.828,26.367,192.383,33.691,107.422
1573889914.141,33.203,25.391,-551.758,5.859,-68.848
1573889914.145,32.715,26.855,-147.461,9.766,-71.777
1573889914.149,49.316,28.320,546.387,36.133,107.422
1573889914.153,51.758,31.738,251.953,37.109,181.152
1573889914.157,35.156,36.621,-714.844,7.324,-9.277
1573889914.161,31.738,38.574,-624.512,6.348,-125.977
1573889914.165,52.246,24.902,488.770,41.016,56.641
1573889914.169,57.617,16.602,507.812,41.504,185.547
1573889914.173,40.527,22.949,-348.633,11.719,13.672
1573889914.176,27.832,20.020,-423.828,1.465,-124.512
1573889914.180,32.715,18.555,311.035,23.926,-16.113
1573889914.184,42.969,25.879,583.496,38.574,170.898
1573889914.188,32.227,27.344,-47.852,17.578,95.215
1573889914.192,17.090,26.367,-466.309,2.930,-100.586
1573889914.196,20.508,29.785,-14.648,22.949,-44.434
1573889914.200,31.738,23.438,291.504,38.086,134.766
1573889914.204,28.809,16.113,-236.328,18.555,110.840
1573889914.208,19.531,20.020,-570.801,0.977,-56.641
1573889914.212,22.949,18.555,-57.129,13.184,-50.781
1573889914.216,38.086,23.926,564.941,41.016,116.211
1573889914.219,43.457,31.738,410.156,42.480,161.133
1573889914.223,30.762,33.203,-283.691,23.926,25.391
1573889914.227,26.367,31.738,-294.922,30.762,-37.109
1573889914.231,41.504,26.855,365.234,60.547,46.875
1573889914.235,46.387,19.531,568.359,62.988,186.035
1573889914.239,36.133,10.742,-11.719,36.133,84.473
1573889914.243,27.832,14.648,-536.133,26.855,-116.211
1573889914.247,35.156,19.043,-361.816,46.387,-83.496
1573889914.251,44.922,17.578,144.043,57.129,102.051
1573889914.255,36.621,22.461,54.688,35.645,92.285
1573889914.258,21.484,25.879,-473.145,16.602,-68.848
1573889914.262,29.297,19.043,-85.449,33.203,-48.828
1573889914.266,47.363,18.555,654.297,50.293,123.535
1573889914.270,43.945,20.996,392.578,34.668,150.391
1573889914.274,26.367,13.184,-386.719,8.301,-33.203
1573889914.278,22.949,13.672,-282.715,7.812,-101.562
1573889914.282,41.992,23.926,486.328,31.738,90.820
1573889914.286,53.711,24.414,458.008,37.109,178.711
1573889914.290,42.969,23.926,-385.742,11.230,5.371
1573889914.294,30.273,24.414,-562.500,3.906,-78.613
1573889914.298,41.504,21.484,329.590,30.762,65.918
1573889914.301,52.734,20.508,705.566,40.527,179.199
1573889914.305,38.574,27.344,-291.504,13.184,43.457
1573889914.309,25.879,26.367,-892.578,-6.836,-118.164
1573889914.313,37.598,14.648,21.973,22.949,-47.852
1573889914.317,52.246,13.184,675.293,44.434,150.879
1573889914.321,41.992,19.531,113.281,20.508,116.699
1573889914.325,27.344,28.809,-437.500,-1.953,-66.406
1573889914.329,28.320,23.438,31.250,8.301,-67.871
1573889914.333,38.086,10.742,660.645,28.320,112.793
1573889914.337,36.621,9.766,231.934,19.531,140.625
1573889914.341,20.996,18.555,-598.633,-1.953,-50.293
1573889914.344,17.090,23.926,-379.883,3.418,-86.914
1573889914.348,39.551,26.367,457.520,35.156,77.637
1573889914.352,47.852,27.344,248.047,42.969,145.020
1573889914.356,26.367,36.133,-460.449,16.602,-41.992
1573889914.360,14.648,30.273,-271.484,9.277,-143.555
1573889914.364,29.297,15.625,402.832,36.621,-7.324
1573889914.368,45.410,20.996,637.695,54.688,134.766
1573889914.372,29.297,25.391,241.211,31.738,106.934
1573889914.376,18.066,27.832,-106.445,14.160,-49.805
1573889914.380,28.320,27.344,353.027,31.250,-30.762
1573889914.383,38.086,23.926,749.023,49.805,144.531
1573889914.387,30.273,28.809,264.648,32.715,135.742
1573889914.391,13.672,29.297,-351.562,7.812,-70.312
1573889914.395,18.066,30.762,-280.762,19.043,-133.789
1573889914.399,34.668,37.598,284.180,41.992,39.551
1573889914.403,36.621,45.410,513.184,34.180,134.766
1573889914.407,20.996,50.293,21.973,5.859,0.488
1573889914.411,20.020,47.852,-50.781,9.766,-104.492
1573889914.415,42.969,50.781,700.684,43.457,54.688
1573889914.419,55.176,52.734,947.754,51.270,195.312
1573889914.423,44.922,36.621,178.223,27.344,44.434
1573889914.426,40.527,30.273,-246.094,19.043,-98.633
1573889914.430,59.082,36.133,297.363,43.945,-15.137
1573889914.434,80.566,42.480,705.078,63.965,175.293
1573889914.438,70.801,36.621,68.848,45.410,89.844
1573889914.442,45.898,33.203,-693.359,16.113,-94.238
1573889914.446,48.340,43.945,-7.812,27.832,-26.367
1573889914.450,62.012,52.734,821.289,53.223,142.578
1573889914.454,52.734,53.223,209.961,41.016,111.816
1573889914.458,33.203,39.062,-477.539,11.230,-86.426
1573889914.462,28.809,28.320,6.348,16.113,-96.680
1573889914.466,43.457,30.762,825.195,45.898,113.281
1573889914.469,51.270,31.738,596.680,39.551,177.246
1573889914.473,32.227,29.785,-185.547,8.301,15.625
1573889914.477,20.020,24.902,-293.457,8.301,-75.195
1573889914.481,35.156,21.973,410.645,35.156,59.570
1573889914.485,40.527,28.320,407.715,32.227,166.992
1573889914.489,23.926,35.645,-566.895,3.418,3.906
1573889914.493,17.578,35.645,-558.594,0.977,-130.859
1573889914.497,24.414,27.344,285.645,19.531,-13.672
1573889914.501,32.715,30.273,669.922,28.320,177.734
1573889914.505,24.414,22.949,74.707,7.324,128.418
1573889914.508,11.230,21.973,-499.023,-9.277,-67.383
1573889914.512,17.090,29.785,-40.039,8.301,-67.871
1573889914.516,32.227,16.602,562.988,33.203,129.395
1573889914.520,34.180,9.766,311.523,27.832,159.180
1573889914.524,17.090,14.160,-456.055,2.441,-28.320
1573889914.528,13.184,19.043,-433.594,4.395,-101.074
1573889914.532,36.621,27.344,42.480,31.250,54.199
1573889914.536,51.758,26.855,63.965,38.574,159.180
1573889914.540,36.133,21.484,-261.719,15.137,23.926
1573889914.544,30.762,21.973,-411.133,10.742,-101.562
1573889914.548,46.875,22.949,260.254,39.062,35.156
1573889914.551,57.617,21.484,624.023,51.270,179.688
1573889914.555,49.316,20.996,-62.988,30.762,46.387
1573889914.559,33.203,24.902,-570.312,11.719,-131.836
1573889914.563,40.527,39.062,-98.145,30.273,-66.895
1573889914.567,57.129,42.480,530.273,56.641,150.391
1573889914.571,54.688,31.250,60.547,45.410,119.141
1573889914.575,41.992,24.902,-857.422,21.484,-90.820
1573889914.579,45.898,28.809,-526.855,32.227,-81.055
1573889914.583,56.641,41.992,497.070,59.082,117.188
1573889914.587,53.711,42.480,418.457,49.805,155.273
1573889914.591,35.156,23.438,-407.227,20.020,1.465
1573889914.594,31.250,25.391,-335.938,22.461,-80.566
1573889914.598,45.410,32.715,564.941,47.852,65.430
1573889914.602,46.875,28.809,554.199,45.898,160.156
1573889914.606,28.809,23.438,-307.129,18.066,-3.906
1573889914.610,16.602,20.508,-437.988,4.883,-134.277
1573889914.614,24.902,26.367,295.410,28.809,-29.785
1573889914.618,34.668,20.508,539.551,42.480,161.133
1573889914.622,29.297,12.695,-410.156,25.391,75.195
1573889914.626,17.090,15.625,-805.664,11.719,-105.469
1573889914.630,25.879,17.578,195.801,33.691,-18.555
1573889914.633,36.133,23.926,696.777,51.758,144.531
1573889914.637,28.320,31.250,55.176,34.668,98.145
1573889914.641,11.230,27.832,-400.391,13.672,-43.945
1573889914.645,8.789,23.926,75.195,19.531,-55.176
1573889914.649,23.926,28.809,701.660,45.898,125.977
1573889914.653,27.344,33.203,437.988,40.039,167.480
1573889914.657,11.230,28.809,-334.961,6.836,-56.152
1573889914.661,3.418,28.809,-184.570,4.395,-110.352
1573889914.665,25.391,29.297,320.312,29.297,46.875
1573889914.669,33.203,20.508,73.730,26.855,109.375
1573889914.673,18.066,23.438,-291.992,-0.977,21.973
1573889914.676,18.066,23.438,-388.672,-7.812,-82.520
1573889914.680,35.156,19.043,48.340,15.625,-17.090
1573889914.684,46.387,19.531,494.141,28.809,152.832
1573889914.688,42.480,24.414,84.961,12.695,73.242
1573889914.692,41.016,29.297,-400.879,4.883,-98.633
1573889914.696,47.363,35.156,18.066,25.879,-59.570
1573889914.700,53.711,34.180,680.664,41.504,143.066
1573889914.704,53.223,26.367,423.340,37.598,166.504
1573889914.708,38.574,21.973,-326.172,21.484,-38.086
1573889914.712,37.109,18.066,-342.773,31.738,-107.910
1573889914.716,48.828,20.508,316.895,62.012,77.637
1573889914.719,50.781,22.461,412.109,59.570,160.156
1573889914.723,37.109,23.438,-322.266,35.156,3.418
1573889914.727,29.785,26.367,-646.484,25.391,-77.637
1573889914.731,41.504,28.320,64.941,44.922,31.250
1573889914.735,45.410,27.344,486.816,51.758,166.992
1573889914.739,27.832,17.578,-164.062,21.973,76.172
1573889914.743,16.602,16.602,-549.316,7.812,-105.469
1573889914.747,31.738,24.902,131.836,37.109,-61.035
1573889914.751,41.016,16.602,608.887,49.805,125.488
1573889914.755,27.832,12.207,22.461,22.461,91.797
1573889914.758,10.254,18.066,-661.621,1.465,-88.379
1573889914.762,18.555,22.461,-320.801,17.090,-89.844
1573889914.766,32.715,19.531,465.332,39.062,116.699
1573889914.770,25.391,19.531,59.082,26.855,141.602
1573889914.774,15.137,19.531,-854.980,1.465,-58.105
1573889914.778,17.090,22.461,-330.566,15.137,-90.820
1573889914.782,24.902,20.996,596.191,40.527,93.750
1573889914.786,28.809,7.812,431.152,34.180,166.992
1573889914.790,20.020,4.395,-382.812,9.766,29.785
1573889914.794,13.184,8.789,-411.133,7.324,-87.402
1573889914.798,29.297,10.254,304.199,31.738,0.488
1573889914.801,41.504,10.254,514.648,40.527,164.062
1573889914.805,35.156,15.137,-216.797,20.508,75.195
1573889914.809,27.344,15.137,-633.789,5.859,-105.469
1573889914.813,37.109,20.508,37.109,25.879,-46.875
1573889914.817,53.223,24.414,294.922,46.875,137.207
1573889914.821,45.898,12.695,-152.832,29.297,107.422
1573889914.825,31.250,4.883,-455.078,6.348,-82.520
1573889914.829,34.180,9.277,-163.086,20.508,-107.422
1573889914.833,47.852,16.602,446.777,44.434,85.938
1573889914.837,49.805,21.484,330.566,38.086,137.695
1573889914.841,38.086,27.832,-311.035,13.184,-33.691
1573889914.844,36.621,34.668,-262.695,19.043,-81.055
1573889914.848,51.270,24.902,407.715,45.410,100.098
1573889914.852,53.223,7.812,345.703,40.527,177.734
1573889914.856,38.574,10.742,-325.684,15.625,47.363
1573889914.860,31.250,18.066,-598.145,11.230,-73.730
1573889914.864,42.480,20.020,-155.762,32.715,-12.695
1573889914.868,51.270,17.578,533.203,41.992,178.711
1573889914.872,40.039,11.719,107.910,22.949,108.398
1573889914.876,25.391,12.695,-468.750,6.348,-73.242
1573889914.880,32.227,16.113,55.664,28.809,-37.598
1573889914.883,42.969,10.742,703.125,58.594,144.043
1573889914.887,34.180,10.742,277.344,44.922,142.090
1573889914.891,14.648,17.578,-521.973,20.020,-73.242
1573889914.895,10.254,17.578,-184.082,28.809,-94.727
1573889914.899,20.508,20.508,528.320,51.270,111.328
1573889914.903,21.484,26.855,193.359,40.039,157.715
1573889914.907,9.277,16.113,-770.020,12.207,-52.246
1573889914.911,4.395,10.742,-672.363,6.836,-152.832
1573889914.915,17.578,15.137,522.949,26.855,83.008
1573889914.919,26.855,8.301,621.094,32.227,209.473
1573889914.923,21.484,9.766,-214.355,9.277,70.312
1573889914.926,17.578,18.555,-333.984,2.930,-63.965
1573889914.930,26.367,20.996,313.477,28.320,-13.672
1573889914.934,39.062,23.438,601.562,39.551,162.109
1573889914.938,37.598,26.367,-10.254,17.090,103.516
1573889914.942,31.250,29.297,-473.145,3.906,-94.238
1573889914.946,41.504,29.785,-58.594,29.785,-63.965
1573889914.950,52.734,25.879,240.234,48.340,104.004
1573889914.954,45.410,30.273,-191.895,26.367,116.211
1573889914.958,33.691,28.320,-584.473,10.254,-32.227
1573889914.962,35.156,29.785,-271.484,20.508,-83.984
1573889914.966,49.316,37.109,442.871,39.551,68.848
1573889914.969,54.688,29.785,426.270,39.062,161.133
1573889914.973,36.133,25.391,-194.824,15.625,-0.977
1573889914.977,25.879,30.762,-297.363,10.742,-131.348
1573889914.981,42.969,35.645,325.684,38.574,5.371
1573889914.985,52.246,23.926,534.180,49.316,156.738
1573889914.989,39.551,14.160,-91.797,27.344,47.852
1573889914.993,32.227,24.902,-502.441,20.996,-80.078
1573889914.997,38.574,26.855,-295.898,39.551,-49.316
1573889915.001,43.457,27.344,133.301,47.363,82.031
1573889915.005,38.086,26.367,-4.883,30.273,60.547
1573889915.008,30.273,25.391,-540.527,20.020,-101.562
1573889915.012,34.180,32.227,-122.559,30.762,-62.500
1573889915.016,45.410,31.250,570.312,50.293,119.141
1573889915.020,44.434,28.320,278.320,44.922,123.535
1573889915.024,27.344,27.832,-417.480,17.090,-44.922
1573889915.028,25.879,29.297,-340.820,22.461,-133.301
1573889915.032,40.527,34.180,565.430,46.387,82.520
1573889915.036,42.969,33.691,644.043,41.992,199.219
1573889915.040,30.762,28.809,-272.949,16.602,30.273
1573889915.044,19.531,22.461,-430.176,8.301,-30.762
1573889915.048,26.855,23.438,396.973,28.809,66.406
1573889915.051,35.156,25.391,815.918,34.668,183.105
1573889915.055,26.367,24.414,-102.539,11.230,76.660
1573889915.059,16.602,27.344,-756.348,1.953,-61.523
1573889915.063,26.367,28.809,152.344,25.391,-19.043
1573889915.067,41.504,25.879,861.816,45.410,149.414
1573889915.071,36.621,17.578,204.590,30.762,97.656
1573889915.075,19.531,15.137,-541.992,9.766,-132.324
1573889915.079,21.484,21.973,92.773,24.414,-83.984
1573889915.083,37.598,29.297,870.117,46.875,117.676
1573889915.087,42.969,39.551,515.137,38.574,156.738
1573889915.091,24.414,33.691,-254.883,10.254,11.719
1573889915.094,17.090,22.461,9.766,13.184,-41.992
1573889915.098,39.551,24.414,789.551,46.387,82.031
1573889915.102,52.246,22.949,408.691,44.922,136.230
1573889915.106,39.551,20.020,-284.668,17.578,4.883
1573889915.110,32.715,27.832,-111.328,14.160,-97.168
1573889915.114,48.340,34.180,518.066,41.992,-3.418
1573889915.118,62.012,36.621,767.090,56.152,150.391
1573889915.122,51.270,40.527,304.199,30.273,101.562
1573889915.126,33.691,30.273,-21.973,11.230,-17.090
1573889915.130,37.109,19.531,304.199,27.832,-31.250
1573889915.133,50.293,21.484,624.512,43.457,104.980
1573889915.137,40.527,21.484,179.688,20.996,121.094
1573889915.141,22.461,23.438,-334.961,-4.395,-48.340
1573889915.145,23.438,26.367,-200.684,4.883,-106.934
1573889915.149,39.551,35.156,244.629,29.785,58.105
1573889915.153,41.992,40.039,368.164,27.832,127.930
1573889915.157,19.043,34.668,-145.996,1.953,-17.578
1573889915.161,8.301,28.320,-179.688,4.395,-93.750
1573889915.165,27.832,23.926,500.488,31.738,25.879
1573889915.169,31.738,20.508,710.938,31.738,156.738
1573889915.173,10.254,21.484,-39.551,5.371,27.832
1573889915.176,1.953,30.273,-407.715,-0.488,-125.488
1573889915.180,10.254,25.879,190.918,17.090,-21.484
1573889915.184,22.461,23.438,503.418,35.156,151.367
1573889915.188,22.461,26.367,-145.996,18.555,65.430
1573889915.192,10.742,28.320,-844.727,-5.371,-98.145
1573889915.196,14.160,38.086,-273.926,9.277,-79.102
1573889915.200,26.855,31.738,667.969,32.715,110.840
1573889915.204,25.391,22.461,306.641,20.508,146.484
1573889915.208,11.230,25.391,-442.383,-5.371,-42.480
1573889915.212,14.160,21.973,-97.168,5.371,-83.496
1573889915.216,29.785,23.926,628.906,33.203,76.172
1573889915.219,36.133,30.762,408.691,33.203,147.461
1573889915.223,30.762,37.109,-372.070,11.230,-27.344
1573889915.227,22.461,32.715,-548.828,8.301,-162.598
1573889915.231,31.250,30.273,188.965,37.109,0.488
1573889915.235,43.457,29.785,370.117,47.363,166.504
1573889915.239,24.414,16.602,-578.613,9.277,38.574
1573889915.243,4.883,19.043,-754.883,-6.836,-114.258
1573889915.247,17.578,27.344,105.469,24.414,-32.715
1573889915.251,37.598,21.973,542.969,45.410,145.020
1573889915.255,28.809,18.555,14.648,22.461,99.121
1573889915.258,8.301,18.066,-439.941,-2.441,-82.031
1573889915.262,19.043,22.461,-103.516,20.996,-97.656
1573889915.266,36.133,23.926,527.832,44.434,120.117
1573889915.270,30.273,24.902,310.547,31.250,190.430
1573889915.274,11.719,20.508,-541.016,12.695,-33.691
1573889915.278,12.695,8.789,-541.016,19.043,-125.000
1573889915.282,27.832,12.695,267.090,42.480,76.660
1573889915.286,30.273,14.160,412.598,38.086,166.992
1573889915.290,15.137,10.742,-174.316,10.742,27.344
1573889915.294,10.742,9.766,-360.352,9.766,-93.262
1573889915.298,32.227,10.254,-104.004,40.527,-30.762
1573889915.301,42.969,13.184,208.496,53.711,122.559
1573889915.305,29.785,18.555,-104.492,28.809,36.133
1573889915.309,19.043,18.555,-558.594,13.184,-143.066
1573889915.313,27.344,15.137,18.555,31.250,-61.523
1573889915.317,35.645,16.602,696.289,41.504,146.973
1573889915.321,29.297,19.043,168.457,25.879,122.559
1573889915.325,18.066,28.809,-700.195,3.906,-55.664
1573889915.329,17.090,27.344,-465.820,9.277,-78.125
1573889915.333,32.227,19.043,541.504,36.621,120.117
1573889915.337,41.504,20.508,523.926,39.551,174.805
1573889915.341,25.391,17.578,-277.832,7.812,-6.836
1573889915.344,17.090,25.879,-218.262,1.953,-97.656
1573889915.348,39.062,35.156,624.512,36.621,63.965
1573889915.352,47.363,28.320,710.449,40.039,195.801
1573889915.356,35.156,20.508,-251.465,9.766,15.137
1573889915.360,30.273,22.461,-478.516,6.348,-128.418
1573889915.364,45.410,38.086,443.359,36.621,24.902
1573889915.368,59.570,34.668,671.387,49.805,186.523
1573889915.372,44.922,19.043,-378.418,16.113,68.848
1573889915.376,27.832,27.344,-828.125,-6.348,-122.559
1573889915.380,41.992,45.410,146.973,25.391,-34.180
1573889915.383,61.035,40.527,714.844,49.316,165.039
1573889915.387,54.688,27.344,208.984,32.715,152.832
1573889915.391,42.480,29.297,-313.477,13.672,-28.320
1573889915.395,42.480,32.715,22.949,25.879,-66.895
1573889915.399,51.270,32.715,614.746,46.387,111.816
1573889915.403,47.852,35.645,344.727,36.621,160.156
1573889915.407,30.762,35.156,-258.301,11.230,6.836
1573889915.411,23.926,23.438,-290.527,14.160,-99.609
1573889915.415,37.598,16.602,223.145,42.969,41.992
1573889915.419,47.363,19.531,311.523,50.781,195.801
1573889915.423,37.109,19.531,-355.957,28.320,16.113
