timestamps,TP9,AF7,AF8,TP10,Right AUX
1573889338.739,38.574,39.551,260.742,44.922,144.043
1573889338.743,27.832,30.273,3.418,23.438,103.516
1573889338.747,13.184,31.250,-347.168,3.906,-56.152
1573889338.751,18.066,37.109,-131.836,22.461,-59.082
1573889338.755,31.738,42.480,243.164,44.922,104.492
1573889338.758,32.227,38.086,-42.969,30.762,125.488
1573889338.762,15.625,35.156,-459.473,3.418,-22.461
1573889338.766,18.066,39.551,-552.734,9.277,-101.562
1573889338.770,29.785,35.645,-295.898,29.785,5.859
1573889338.774,26.855,32.715,65.918,23.926,126.465
1573889338.778,20.508,32.227,-314.453,4.395,2.930
1573889338.782,9.766,30.273,-503.418,-4.883,-129.883
1573889338.786,10.742,30.273,6.836,8.789,-14.160
1573889338.790,25.391,34.668,196.289,21.973,119.629
1573889338.794,20.020,25.391,-252.930,5.371,33.203
1573889338.798,-9.766,10.742,-457.520,-23.926,-106.445
1573889338.801,-5.859,15.137,-106.445,-7.324,-37.109
1573889338.805,25.879,20.508,44.434,34.668,106.934
1573889338.809,10.254,18.555,-412.598,10.742,70.312
1573889338.813,-18.066,16.113,-901.367,-25.391,-112.305
1573889338.817,-12.207,15.625,-417.480,-4.883,-103.027
1573889338.821,-0.977,15.137,229.004,24.902,96.191
1573889338.825,-7.324,16.602,29.785,16.113,138.184
1573889338.829,-12.695,18.555,-300.293,-7.812,5.859
1573889338.833,-8.301,19.531,-94.727,-4.395,-67.383
1573889338.837,7.812,21.973,339.355,19.043,85.449
1573889338.840,20.996,17.578,234.375,27.344,177.246
1573889338.844,12.695,13.672,-280.273,6.836,12.207
1573889338.848,5.859,18.066,-345.703,0.488,-130.859
1573889338.852,20.020,19.531,-5.371,26.855,7.324
1573889338.856,37.109,22.461,-68.359,37.598,150.391
1573889338.860,28.809,33.203,-386.719,18.066,63.965
1573889338.864,8.301,34.180,-312.988,1.953,-75.195
1573889338.868,17.578,28.809,16.602,23.438,-56.641
1573889338.872,34.668,23.926,-67.383,40.527,86.914
1573889338.876,26.855,22.461,-312.988,20.996,88.379
1573889338.880,10.254,22.949,-291.992,1.953,-69.336
1573889338.883,12.207,23.438,-160.156,17.090,-107.422
1573889338.887,26.367,19.043,173.828,41.016,75.684
1573889338.891,11.230,10.254,222.656,15.625,162.109
1573889338.895,-8.789,7.812,-120.117,-18.066,-5.371
1573889338.899,-5.371,7.812,-376.953,-8.789,-117.188
1573889338.903,4.395,9.277,-155.273,12.695,33.203
1573889338.907,11.230,13.672,174.805,15.137,163.086
1573889338.911,1.953,13.672,-93.750,-8.789,37.109
1573889338.915,-12.207,9.766,-450.195,-25.879,-121.094
1573889338.919,-5.859,6.836,-171.875,-9.277,-42.480
1573889338.923,9.766,10.742,291.504,10.254,141.113
1573889338.926,-0.488,10.742,30.762,-3.906,80.566
1573889338.930,-16.602,17.578,-316.895,-21.973,-89.844
1573889338.934,-12.695,20.996,-38.086,-4.883,-62.500
1573889338.938,4.883,16.602,326.172,24.902,95.703
1573889338.942,8.789,16.113,90.332,16.602,94.727
1573889338.946,-5.371,14.648,-422.852,-5.371,-81.543
1573889338.950,-0.977,11.719,-358.398,7.812,-102.539
1573889338.954,14.160,13.672,214.355,32.715,80.566
1573889338.958,24.414,16.602,253.906,34.180,134.766
1573889338.962,15.137,9.766,-452.637,7.812,-23.438
1573889338.965,6.836,9.277,-394.531,-0.977,-102.539
1573889338.969,25.391,18.066,312.500,30.273,22.461
1573889338.973,35.645,14.160,276.855,38.086,135.254
1573889338.977,18.555,7.812,-82.031,8.301,29.297
1573889338.981,7.324,7.812,-6.348,-1.953,-104.004
1573889338.985,21.484,11.719,485.352,21.973,-11.230
1573889338.989,33.691,11.230,641.602,32.715,140.625
1573889338.993,22.461,4.395,210.449,13.672,91.309
1573889338.997,7.812,7.324,-115.234,-3.418,-83.008
1573889339.001,10.742,15.625,237.793,7.812,-79.102
1573889339.005,23.438,12.695,580.566,25.391,112.305
1573889339.008,16.113,1.953,185.059,6.836,123.047
1573889339.012,-5.859,8.301,63.965,-27.832,-36.133
1573889339.016,-5.859,19.531,401.367,-22.461,-83.008
1573889339.020,12.695,16.602,679.688,7.812,67.871
1573889339.024,16.602,13.672,631.836,8.789,167.480
1573889339.028,5.371,13.184,242.676,-15.625,31.738
1573889339.032,-0.488,19.043,200.684,-16.113,-82.520
1573889339.036,21.973,19.531,579.102,28.320,30.273
1573889339.040,51.270,27.832,568.359,56.641,158.691
1573889339.044,40.039,44.922,103.516,22.949,55.176
1573889339.048,15.625,45.410,55.176,-3.906,-83.008
1573889339.051,24.902,43.457,213.379,25.391,-27.344
1573889339.055,43.945,34.668,403.809,47.363,136.719
1573889339.059,39.551,29.297,516.602,34.180,143.066
1573889339.063,24.414,35.156,154.297,12.695,-46.875
1573889339.067,26.367,34.180,190.430,20.508,-87.891
1573889339.071,46.387,28.809,628.418,46.875,98.633
1573889339.075,48.828,36.133,528.320,44.434,138.672
1573889339.079,22.949,38.086,-14.648,10.254,-41.992
1573889339.083,17.578,30.762,-47.363,7.812,-92.773
1573889339.087,36.621,36.133,298.828,41.504,52.246
1573889339.090,39.062,39.062,314.941,39.062,160.156
1573889339.094,27.832,31.738,-224.121,8.789,21.973
1573889339.098,19.531,32.227,-548.828,-0.977,-133.789
1573889339.102,22.949,29.785,150.879,17.578,18.066
1573889339.106,28.320,22.461,552.734,26.367,179.688
1573889339.110,16.113,19.043,47.852,0.488,79.102
1573889339.114,1.465,20.996,-220.215,-14.648,-77.148
1573889339.118,6.836,25.879,147.949,1.465,-41.504
1573889339.122,16.602,23.438,416.504,19.531,127.930
1573889339.126,14.648,19.531,34.180,7.812,104.492
1573889339.130,2.441,18.555,-345.215,-15.137,-80.566
1573889339.133,5.859,20.020,-229.492,0.488,-104.492
1573889339.137,27.832,20.020,144.043,26.855,94.727
1573889339.141,36.133,17.578,-171.875,22.949,138.184
1573889339.145,22.461,20.020,-655.273,0.000,-39.551
1573889339.149,19.043,29.785,-183.594,6.836,-82.520
1573889339.153,40.527,36.621,251.953,42.969,57.617
1573889339.157,55.176,31.738,156.250,48.828,156.738
1573889339.161,38.086,29.785,-206.055,21.973,32.715
1573889339.165,29.297,29.297,-250.000,21.484,-95.215
1573889339.169,46.875,24.414,17.578,49.805,-6.348
1573889339.173,52.734,20.508,140.137,57.617,150.879
1573889339.176,42.480,22.949,-142.090,38.086,72.754
1573889339.180,29.785,21.973,-521.484,23.438,-115.723
1573889339.184,30.762,21.973,-436.035,33.691,-79.590
1573889339.188,44.922,26.855,-248.047,54.688,97.656
1573889339.192,38.086,24.414,-180.176,41.992,113.770
1573889339.196,18.555,23.438,-392.578,17.090,-65.918
1573889339.200,12.207,23.926,-407.715,21.973,-114.746
1573889339.204,20.508,20.996,130.859,38.574,80.078
1573889339.208,24.902,18.066,293.945,34.180,182.129
1573889339.212,10.254,17.090,-84.473,12.695,26.367
1573889339.215,0.488,19.043,-189.941,7.324,-87.402
1573889339.219,12.207,21.973,196.777,29.785,40.039
1573889339.223,21.973,23.926,318.359,36.621,154.297
1573889339.227,14.648,22.461,-243.652,13.184,6.836
1573889339.231,8.301,17.578,-777.832,-6.836,-159.180
1573889339.235,13.184,18.066,-363.281,11.230,-52.246
1573889339.239,21.484,25.391,357.910,29.297,156.250
1573889339.243,25.391,30.762,146.973,15.625,116.699
1573889339.247,20.020,24.902,-282.715,2.930,-93.262
1573889339.251,23.438,22.461,91.797,15.137,-57.129
1573889339.255,43.945,24.902,483.887,42.480,139.160
1573889339.258,49.316,26.367,166.504,41.016,127.930
1573889339.262,36.621,27.832,-204.590,15.625,-45.410
1573889339.266,30.762,24.414,45.410,19.531,-74.707
1573889339.270,44.434,29.785,569.336,48.828,108.398
1573889339.274,52.734,30.273,311.523,52.246,180.664
1573889339.278,34.668,20.508,-504.395,21.484,-11.719
1573889339.282,24.902,22.461,-351.562,17.578,-122.559
1573889339.286,40.039,29.785,322.754,44.434,15.625
1573889339.290,48.828,32.715,328.125,49.805,141.602
1573889339.294,31.738,28.320,-73.242,22.949,51.270
1573889339.298,14.648,23.926,-145.996,7.812,-101.074
1573889339.301,17.090,18.555,227.051,22.461,-18.555
1573889339.305,24.414,20.020,460.938,39.551,170.410
1573889339.309,22.461,20.996,10.742,23.438,98.145
1573889339.313,9.277,14.160,-291.016,-3.418,-73.730
1573889339.317,10.742,11.719,6.836,7.812,-78.125
1573889339.321,28.809,15.625,205.078,33.203,78.613
1573889339.325,29.297,16.113,-47.852,21.973,131.836
1573889339.329,11.719,12.695,-383.301,-3.418,-57.617
1573889339.333,12.207,20.020,-179.199,8.789,-119.141
1573889339.337,30.762,22.949,-100.098,34.180,17.578
1573889339.340,31.738,19.043,-179.688,28.320,108.398
1573889339.344,20.020,23.926,-111.328,4.883,43.945
1573889339.348,12.695,20.996,-209.961,3.418,-87.402
1573889339.352,18.555,18.555,26.367,29.297,-10.742
1573889339.356,31.738,22.949,358.887,42.969,172.363
1573889339.360,29.297,29.297,88.379,25.879,92.773
1573889339.364,20.020,30.273,-259.766,14.160,-86.914
1573889339.368,31.250,21.484,-90.820,37.109,-27.344
1573889339.372,50.293,21.484,98.145,59.082,125.977
1573889339.376,43.945,21.484,-172.852,41.992,88.867
1573889339.380,26.367,15.625,-567.871,15.137,-78.613
1573889339.383,26.367,18.066,-542.969,21.484,-110.840
1573889339.387,32.715,20.996,71.777,42.480,67.383
1573889339.391,31.250,16.113,221.680,36.133,142.090
1573889339.395,17.578,15.625,-233.398,8.301,-9.766
1573889339.399,14.160,20.508,-130.371,6.836,-56.641
1573889339.403,25.391,28.320,419.434,30.273,96.191
1573889339.407,32.227,29.785,403.320,36.133,173.828
1573889339.411,21.484,23.926,-186.523,15.625,16.602
1573889339.415,8.301,19.531,-468.750,8.789,-131.348
1573889339.419,21.973,18.555,-111.328,35.645,-23.438
1573889339.423,34.668,23.438,76.660,54.199,124.023
1573889339.426,26.855,26.367,-489.746,32.715,46.387
1573889339.430,20.996,33.203,-752.441,14.160,-136.719
1573889339.434,21.484,40.527,-73.730,27.344,-89.355
1573889339.438,35.645,41.992,298.340,44.922,107.422
1573889339.442,40.039,31.738,11.230,31.738,121.582
1573889339.446,22.949,24.414,-243.164,4.883,-50.781
1573889339.450,22.461,30.273,5.371,12.695,-79.102
1573889339.454,39.062,39.551,317.383,43.457,96.680
1573889339.458,39.551,41.016,198.730,42.969,167.480
1573889339.462,20.996,29.297,-275.879,14.160,-1.953
1573889339.465,11.230,24.902,-407.715,10.742,-121.582
1573889339.469,24.902,33.203,-41.016,36.621,25.879
1573889339.473,33.203,36.621,-157.715,41.016,128.418
1573889339.477,17.090,33.691,-323.730,9.766,28.320
1573889339.481,7.324,29.785,-324.707,-1.953,-108.398
1573889339.485,20.020,33.691,-46.875,21.973,-21.484
1573889339.489,40.039,40.039,305.176,36.133,169.434
1573889339.493,33.691,37.109,62.988,17.578,99.609
1573889339.497,15.137,35.156,-242.188,0.977,-75.195
1573889339.501,21.484,38.086,-45.898,17.578,-47.852
1573889339.505,43.945,45.410,250.000,43.457,109.375
1573889339.508,46.387,41.504,-13.184,35.645,131.836
1573889339.512,29.785,30.273,-414.551,16.602,-27.832
1573889339.516,30.762,27.832,-512.695,24.902,-105.469
1573889339.520,45.410,32.227,-167.480,49.805,49.316
1573889339.524,53.711,38.574,228.027,55.176,166.992
1573889339.528,45.410,35.156,-104.980,33.203,32.715
1573889339.532,34.668,28.320,-221.191,28.809,-86.914
1573889339.536,44.922,29.297,91.797,56.152,2.930
1573889339.540,53.223,30.273,196.289,63.965,128.906
1573889339.544,47.363,34.668,-127.441,41.504,48.828
1573889339.548,36.133,35.645,-348.633,25.879,-109.863
1573889339.551,37.109,30.762,113.770,38.086,-26.855
1573889339.555,48.828,29.785,280.762,53.223,132.324
1573889339.559,40.039,24.902,-276.855,31.250,82.031
1573889339.563,18.555,22.461,-754.883,0.488,-94.238
1573889339.567,17.578,29.785,-239.746,9.766,-64.453
1573889339.571,32.715,30.273,381.348,31.250,121.582
1573889339.575,32.227,23.438,62.500,14.648,125.000
1573889339.579,21.484,26.855,-333.008,-8.789,-33.691
1573889339.583,20.020,34.180,-85.449,-0.488,-87.891
1573889339.587,31.250,29.785,334.961,23.926,63.477
1573889339.590,34.668,20.996,200.195,24.414,149.414
1573889339.594,22.461,18.066,-337.891,-0.488,-0.977
1573889339.598,17.090,22.461,-304.688,-4.883,-121.582
1573889339.602,34.180,28.809,86.426,28.320,7.324
1573889339.606,47.852,28.809,58.594,44.434,133.789
1573889339.610,37.598,29.297,-159.668,21.484,56.641
1573889339.614,25.391,31.738,-180.176,10.742,-89.844
1573889339.618,32.227,32.227,159.180,33.691,-46.875
1573889339.622,46.875,28.320,89.844,53.711,102.051
1573889339.626,45.410,26.855,-164.551,37.598,95.703
1573889339.630,31.738,28.809,-63.965,20.020,-50.293
1573889339.633,35.645,28.809,121.582,34.668,-83.008
1573889339.637,48.340,30.273,422.363,54.688,81.055
1573889339.641,46.875,38.574,530.273,47.363,172.852
1573889339.645,36.133,41.992,300.293,28.809,27.344
1573889339.649,35.645,40.039,95.703,33.203,-84.473
1573889339.653,46.387,35.156,207.520,52.246,41.016
1573889339.657,51.758,35.156,359.863,52.246,137.695
1573889339.661,40.039,37.598,226.562,24.902,25.879
1573889339.665,29.297,34.180,103.027,13.672,-83.496
1573889339.669,37.598,37.598,398.438,37.109,3.906
1573889339.673,45.410,42.969,791.504,48.340,167.969
1573889339.676,34.668,37.598,539.551,24.902,111.816
1573889339.680,25.391,32.715,224.609,6.348,-52.734
1573889339.684,33.691,38.574,440.430,22.461,-39.062
1573889339.688,49.805,41.016,745.117,43.945,115.234
1573889339.692,53.223,42.480,564.453,34.668,133.301
1573889339.696,39.551,44.922,57.129,14.648,-51.758
1573889339.700,35.156,42.480,70.801,26.855,-92.285
1573889339.704,55.176,40.527,639.648,59.570,110.352
1573889339.708,65.918,43.457,517.090,63.965,146.973
1573889339.712,58.594,46.875,-237.305,44.434,-19.043
1573889339.715,51.270,49.805,-171.875,42.969,-92.285
1573889339.719,63.477,56.641,611.328,66.895,58.594
1573889339.723,79.102,54.199,611.328,79.590,153.809
1573889339.727,66.895,41.992,7.812,54.688,0.000
1573889339.731,47.363,35.645,-44.434,38.086,-124.512
1573889339.735,52.246,41.016,455.566,62.012,-3.418
1573889339.739,70.801,45.410,551.758,83.008,138.672
1573889339.743,61.035,43.457,-25.391,62.012,55.664
1573889339.747,39.551,35.645,-328.125,34.668,-81.543
1573889339.751,41.992,30.273,51.758,42.480,-62.012
1573889339.755,58.105,34.668,290.527,62.012,95.215
1573889339.758,52.246,37.109,-205.078,49.316,80.566
1573889339.762,28.320,35.645,-468.750,17.090,-81.543
1573889339.766,20.020,36.621,-80.078,19.043,-81.543
1573889339.770,36.133,38.574,342.285,48.828,87.891
1573889339.774,39.551,33.203,300.781,45.410,169.434
1573889339.778,18.066,33.691,-2.930,10.742,26.855
1573889339.782,10.742,40.527,-46.387,4.883,-91.309
1573889339.786,23.926,36.133,254.395,28.320,28.320
1573889339.790,30.762,26.367,191.406,37.109,144.043
1573889339.794,22.949,25.391,-307.129,17.090,36.133
1573889339.798,12.695,28.809,-380.859,7.324,-83.008
1573889339.801,24.414,36.133,-302.734,35.645,-48.828
1573889339.805,41.504,41.992,-166.992,60.059,93.262
1573889339.809,35.645,40.039,-57.129,43.945,93.262
1573889339.813,22.949,35.156,-347.168,27.344,-77.637
1573889339.817,21.973,31.738,-231.445,41.504,-80.078
1573889339.821,41.504,29.785,160.645,61.035,101.562
1573889339.825,43.945,31.738,88.867,51.270,141.113
1573889339.829,31.250,38.574,-351.562,29.297,-36.621
1573889339.833,29.297,43.945,-408.691,28.809,-119.629
1573889339.837,41.992,41.504,-78.125,51.270,40.527
1573889339.840,49.316,31.738,-14.648,53.223,140.625
1573889339.844,36.621,30.273,-493.652,24.902,-24.902
1573889339.848,29.297,35.645,-791.992,13.184,-155.273
1573889339.852,34.668,38.086,-149.902,34.180,-17.578
1573889339.856,45.410,41.992,254.883,49.316,140.137
1573889339.860,35.645,39.551,-158.203,23.926,60.547
1573889339.864,16.602,31.738,-369.629,3.418,-95.215
1573889339.868,22.461,27.344,106.934,21.484,-24.414
1573889339.872,35.645,24.902,417.480,42.969,152.832
1573889339.876,28.809,23.438,100.098,26.367,149.902
1573889339.880,16.602,27.832,-249.023,6.348,-46.875
1573889339.883,16.602,34.180,-175.781,20.996,-96.680
1573889339.887,24.902,34.180,170.898,43.457,83.984
1573889339.891,28.809,27.832,-167.480,31.250,110.840
1573889339.895,12.207,25.391,-709.473,-4.395,-66.406
1573889339.899,5.859,25.879,-231.445,-0.488,-118.164
1573889339.903,21.484,20.508,321.777,32.227,54.199
1573889339.907,31.738,24.902,248.535,42.480,149.414
1573889339.911,20.508,26.855,-19.043,17.090,43.945
1573889339.915,18.066,26.855,4.395,12.695,-76.660
1573889339.919,32.715,27.832,232.910,42.480,-13.672
1573889339.923,43.457,22.949,320.801,52.246,132.812
1573889339.926,39.551,20.996,27.344,35.156,54.688
1573889339.930,25.391,21.973,-276.367,19.043,-102.539
1573889339.934,32.227,25.391,-178.711,31.250,-60.059
1573889339.938,43.945,29.297,-81.055,44.922,86.914
1573889339.942,28.320,25.391,-28.320,24.902,108.887
1573889339.946,10.742,22.461,-74.707,0.977,-43.945
1573889339.950,14.648,29.785,-78.613,8.301,-113.770
1573889339.954,33.203,35.645,291.016,31.738,70.801
1573889339.958,34.668,26.855,349.609,25.879,154.785
1573889339.962,21.973,27.344,-67.871,3.906,-20.020
1573889339.965,22.949,30.762,-133.301,8.789,-106.445
1573889339.969,36.133,29.785,291.992,31.250,54.688
1573889339.973,49.316,34.180,365.723,41.504,143.066
1573889339.977,39.551,32.227,-93.750,19.531,43.945
1573889339.981,25.879,30.762,-560.059,1.953,-97.168
1573889339.985,33.691,32.227,-263.184,20.508,-35.645
1573889339.989,44.922,33.203,248.535,34.180,134.277
1573889339.993,35.645,31.250,-160.645,12.207,54.688
1573889339.997,20.020,34.668,-500.000,-12.207,-128.906
1573889340.001,21.973,35.645,-63.477,1.953,-82.520
1573889340.005,38.086,32.227,441.895,31.738,126.465
1573889340.008,42.480,34.668,177.246,30.762,142.090
1573889340.012,29.297,34.668,-332.520,15.137,-51.270
1573889340.016,24.902,29.785,-126.953,28.809,-98.633
1573889340.020,40.527,30.273,366.211,53.711,81.543
1573889340.024,53.711,35.645,34.180,55.664,125.488
1573889340.028,38.574,32.227,-809.082,33.691,-77.148
1573889340.032,26.855,30.762,-538.086,31.738,-132.324
1573889340.036,38.086,32.227,201.660,59.082,30.762
1573889340.040,49.805,35.156,289.062,65.918,176.270
1573889340.044,41.504,36.621,-173.828,48.340,73.242
1573889340.048,25.391,30.762,-390.625,33.691,-106.445
1573889340.051,29.297,30.762,47.852,47.852,-33.691
1573889340.055,41.016,35.645,324.219,64.941,156.250
1573889340.059,34.180,31.250,-1.465,38.574,108.887
1573889340.063,16.602,25.879,-299.805,12.695,-83.984
1573889340.067,19.043,29.297,-48.828,23.926,-70.312
1573889340.071,36.621,33.691,150.879,45.410,100.098
1573889340.075,37.598,32.715,-120.117,37.598,139.160
1573889340.079,19.043,34.668,-375.977,10.254,-28.320
1573889340.083,17.090,35.156,-193.359,17.090,-109.863
1573889340.087,38.086,35.645,-173.828,41.992,12.207
1573889340.090,34.668,30.762,-210.938,32.715,134.766
1573889340.094,14.160,25.879,-190.430,2.441,28.320
1573889340.098,9.277,27.344,-227.539,0.977,-92.285
1573889340.102,24.414,25.879,-2.930,26.367,9.766
1573889340.106,29.297,30.762,142.090,34.180,151.367
1573889340.110,14.648,31.738,-19.531,10.742,87.402
1573889340.114,10.254,19.043,-309.570,4.883,-104.004
1573889340.118,14.648,12.695,-163.574,29.297,-55.176
1573889340.122,24.414,12.695,97.168,43.945,131.348
1573889340.126,26.367,16.113,8.789,34.180,117.188
1573889340.130,14.160,17.090,-330.078,14.648,-46.387
1573889340.133,15.625,20.508,-411.621,20.996,-75.684
1573889340.137,30.273,25.391,135.254,43.945,89.355
1573889340.141,34.180,24.414,263.672,41.992,157.715
1573889340.145,20.996,19.531,-216.309,15.137,-4.395
1573889340.149,14.160,20.020,-204.590,9.766,-82.520
1573889340.153,30.762,30.273,287.598,36.621,57.129
1573889340.157,35.645,29.297,259.766,32.715,161.133
1573889340.161,18.555,20.508,-301.270,-0.977,23.438
1573889340.165,9.277,21.973,-462.891,-8.301,-107.422
1573889340.169,17.578,22.949,-104.492,14.648,-11.230
1573889340.173,28.809,20.996,112.793,27.344,125.488
1573889340.176,18.066,15.137,-408.203,0.488,50.781
1573889340.180,0.000,17.578,-626.953,-18.555,-98.145
1573889340.184,6.348,27.832,121.094,2.930,-17.578
1573889340.188,16.113,24.902,454.590,19.531,159.180
1573889340.192,8.789,17.090,102.539,2.930,139.160
1573889340.196,-0.488,15.137,-257.324,-17.090,-72.266
1573889340.200,0.977,20.020,-7.812,-4.883,-85.449
1573889340.204,13.184,24.414,388.184,16.602,122.070
1573889340.208,18.555,26.367,151.367,14.160,141.602
1573889340.212,5.371,23.438,-346.191,-5.859,-24.902
1573889340.215,-1.953,15.137,-390.625,-4.883,-108.398
1573889340.219,17.090,14.648,-102.539,22.949,5.859
1573889340.223,30.762,17.090,-14.648,28.809,138.184
1573889340.227,17.578,22.461,-171.387,4.883,34.668
1573889340.231,11.719,32.715,-158.691,1.953,-99.121
1573889340.235,30.273,36.621,52.734,30.273,6.836
1573889340.239,40.527,34.180,62.988,44.922,156.250
1573889340.243,31.250,26.855,14.160,24.902,109.863
1573889340.247,21.973,19.043,-185.547,6.836,-78.613
1573889340.251,25.879,20.996,-69.824,24.414,-84.473
1573889340.255,38.086,24.414,251.953,48.828,112.305
1573889340.258,36.133,21.973,14.648,34.180,122.559
1573889340.262,18.555,19.531,-453.125,2.930,-73.730
1573889340.266,19.531,24.902,-509.766,12.695,-117.188
1573889340.270,33.691,29.297,-151.367,41.016,47.852
1573889340.274,36.133,31.250,151.367,35.156,147.461
1573889340.278,21.484,33.691,-42.969,12.207,15.625
1573889340.282,5.859,26.367,-130.859,7.324,-120.117
1573889340.286,17.090,17.090,320.801,25.879,2.441
1573889340.290,29.785,18.555,598.633,35.645,169.922
1573889340.294,21.484,22.949,215.332,16.602,77.637
1573889340.298,9.277,20.996,-25.391,1.465,-89.844
1573889340.301,16.113,24.414,405.762,21.973,-16.113
1573889340.305,32.715,22.949,593.262,37.598,140.137
1573889340.309,23.438,14.648,36.133,15.625,69.336
1573889340.313,-2.930,11.719,-424.805,-10.742,-97.656
1573889340.317,-4.395,17.090,57.129,-1.953,-82.520
1573889340.321,15.625,32.227,704.102,27.832,113.770
1573889340.325,19.531,32.715,494.629,19.043,147.461
1573889340.329,9.766,18.555,-35.645,-6.836,-40.527
1573889340.333,6.348,16.602,204.102,0.977,-81.055
1573889340.337,19.531,21.484,716.309,30.273,76.660
1573889340.340,38.574,28.809,634.277,40.039,166.504
1573889340.344,30.762,28.809,250.000,15.625,39.551
1573889340.348,20.020,23.438,201.172,7.812,-105.957
1573889340.352,32.715,20.020,501.953,35.645,13.672
1573889340.356,42.480,14.648,308.594,43.457,154.297
1573889340.360,26.367,13.184,-170.410,13.672,27.344
1573889340.364,8.301,14.160,-16.602,-3.418,-116.211
1573889340.368,15.625,22.949,396.484,19.043,-37.109
1573889340.372,27.344,30.762,559.570,36.621,125.488
1573889340.376,20.020,24.414,302.734,18.555,85.938
1573889340.380,3.418,19.043,93.750,2.930,-70.801
1573889340.383,10.254,21.973,216.309,20.996,-77.637
1573889340.387,25.391,25.391,447.754,41.504,89.844
1573889340.391,22.949,25.391,417.969,31.250,143.066
1573889340.395,2.441,19.531,88.379,1.465,-26.855
1573889340.399,1.465,20.020,-103.516,6.836,-111.816
1573889340.403,22.461,34.180,-58.594,34.668,21.973
1573889340.407,17.090,35.645,195.312,28.809,144.531
1573889340.411,0.000,28.320,62.988,2.441,24.414
1573889340.415,-3.418,27.344,-104.004,-0.977,-90.820
1573889340.419,9.277,28.809,227.539,18.066,19.043
1573889340.423,21.973,28.809,424.316,22.949,144.043
1573889340.426,8.789,18.066,88.867,-3.418,71.777
1573889340.430,-6.836,17.090,-222.656,-22.949,-86.914
1573889340.434,3.906,35.156,65.918,0.000,-40.039
1573889340.438,16.602,39.062,476.074,21.484,145.996
1573889340.442,9.766,26.367,62.500,4.883,107.422
1573889340.446,-7.324,19.531,-558.105,-21.484,-92.773
1573889340.450,-7.324,20.508,-371.094,-13.184,-126.953
1573889340.454,16.113,26.855,226.074,20.020,75.195
1573889340.458,23.438,32.715,204.590,21.484,146.484
1573889340.462,6.348,30.273,-612.305,-3.418,-58.105
1573889340.465,0.000,33.691,-728.027,-3.906,-132.324
1573889340.469,16.113,41.992,74.219,20.996,55.664
1573889340.473,32.227,43.457,188.477,31.250,172.363
1573889340.477,26.855,42.969,-351.074,13.672,25.391
1573889340.481,12.207,37.598,-383.301,5.371,-101.562
1573889340.485,13.184,33.691,92.285,22.949,7.324
1573889340.489,29.297,36.133,172.852,38.574,144.043
1573889340.493,30.762,38.574,-303.711,28.809,90.820
1573889340.497,12.695,40.527,-602.051,12.207,-74.219
1573889340.501,12.695,40.039,-330.078,23.438,-67.383
1573889340.505,30.273,34.668,-100.098,43.457,107.910
1573889340.508,18.555,31.250,-413.574,25.879,122.559
1573889340.512,6.836,39.062,-475.586,2.441,-33.203
1573889340.516,8.789,43.945,-68.848,11.719,-67.871
1573889340.520,17.090,38.086,166.504,31.250,56.641
1573889340.524,21.973,33.203,59.082,25.879,124.023
1573889340.528,9.766,32.227,-205.078,-2.930,-10.254
1573889340.532,0.977,38.574,-229.980,-10.742,-123.535
1573889340.536,8.789,48.828,118.164,10.254,23.926
1573889340.540,24.414,52.734,134.277,25.879,157.715
1573889340.544,10.254,41.992,-351.562,2.930,21.973
1573889340.548,-10.742,29.785,-455.078,-15.137,-123.535
1573889340.551,0.977,29.785,-260.254,8.301,-45.410
1573889340.555,15.625,32.715,-149.902,25.879,108.887
1573889340.559,18.066,31.250,-58.105,16.113,83.984
1573889340.563,14.648,36.621,-250.488,3.418,-93.262
1573889340.567,9.766,41.016,-62.988,8.301,-81.055
1573889340.571,16.113,38.574,437.500,21.973,122.559
1573889340.575,17.578,33.691,370.605,17.578,151.367
1573889340.579,5.859,34.180,-127.441,-1.953,-38.574
1573889340.583,7.812,38.086,-80.078,4.395,-98.145
1573889340.587,22.461,34.180,198.730,31.250,41.992
1573889340.590,25.391,27.832,159.668,30.273,141.602
1573889340.594,11.719,21.973,-244.141,0.488,-2.441
1573889340.598,-4.395,17.578,-580.078,-8.789,-147.461
1573889340.602,1.953,22.949,45.410,12.695,0.000
1573889340.606,10.254,24.902,518.066,19.043,178.223
1573889340.610,2.441,22.949,58.594,-3.418,86.426
1573889340.614,-4.883,30.762,-185.059,-16.113,-69.336
1573889340.618,1.465,36.133,265.137,3.906,-15.137
1573889340.622,12.207,33.691,506.836,23.926,143.555
1573889340.626,7.812,30.762,145.020,6.348,122.559
1573889340.630,-4.395,27.344,-200.684,-16.113,-56.641
1573889340.633,0.977,29.297,-80.566,2.441,-67.383
1573889340.637,11.230,27.344,166.992,26.367,78.613
1573889340.641,11.719,21.484,-210.449,17.578,95.215
1573889340.645,-4.883,22.461,-649.414,-11.719,-54.688
1573889340.649,-16.602,31.250,-172.852,-17.090,-99.121
1573889340.653,1.953,38.574,266.602,9.766,41.016
1573889340.657,16.113,35.645,166.504,22.949,131.836
1573889340.661,8.301,28.809,-147.949,3.418,3.906
1573889340.665,0.000,29.297,-173.340,-4.883,-118.164
1573889340.669,20.020,36.621,42.969,24.902,-13.672
1573889340.673,45.898,38.086,149.414,45.898,130.859
1573889340.676,39.062,34.180,-114.746,24.414,54.688
1573889340.680,18.066,31.250,-377.930,5.371,-85.938
1573889340.684,19.531,26.367,-270.508,22.461,-62.988
1573889340.688,38.574,28.320,-144.531,47.852,100.586
1573889340.692,33.203,37.598,-93.750,34.668,119.141
1573889340.696,9.277,38.086,-154.297,7.812,-41.504
1573889340.700,8.789,36.133,-52.734,16.602,-67.383
1573889340.704,25.879,44.922,216.797,41.992,71.289
1573889340.708,27.832,49.805,255.859,36.133,145.508
1573889340.712,1.953,41.016,-53.711,4.395,11.230
1573889340.715,-9.277,35.156,-115.723,2.441,-78.125
1573889340.719,6.348,35.645,255.859,23.926,59.570
1573889340.723,18.066,35.156,293.457,21.484,165.527
1573889340.727,7.812,31.250,-357.422,-3.906,0.488
1573889340.731,-8.789,29.785,-577.148,-16.602,-121.582
1573889340.735,4.395,28.320,77.148,9.277,40.527
1573889340.739,18.555,26.855,449.707,25.879,190.430
1573889340.743,9.277,26.367,98.145,-0.488,108.887
1573889340.747,-0.977,28.809,-552.734,-20.508,-106.445
1573889340.751,-0.488,31.250,-394.531,-1.953,-100.098
1573889340.755,16.602,37.109,269.043,27.344,108.887
1573889340.758,21.973,35.156,86.914,16.602,131.348
1573889340.762,2.930,28.809,-408.691,-9.766,-64.453
1573889340.766,4.395,32.227,-193.359,2.930,-108.887
1573889340.770,20.508,29.297,263.184,31.250,49.316
1573889340.774,20.996,20.020,-58.594,25.879,101.074
1573889340.778,1.465,16.113,-629.883,-5.371,-28.320
1573889340.782,-9.766,20.508,-469.238,-7.812,-117.676
1573889340.786,12.207,28.320,153.809,23.926,21.484
1573889340.790,25.879,25.879,180.664,28.809,153.809
1573889340.794,8.789,17.578,-375.488,-2.441,30.762
1573889340.798,-1.465,19.531,-261.719,-16.113,-85.938
1573889340.801,16.113,23.438,166.016,7.812,-21.484
1573889340.805,36.621,30.273,261.230,28.320,121.582
1573889340.809,30.273,34.180,-35.156,12.695,89.844
1573889340.813,11.719,21.973,-265.625,-7.812,-88.379
1573889340.817,5.371,10.742,38.574,-1.953,-47.363
1573889340.821,17.090,10.742,272.461,17.090,134.277
1573889340.825,20.508,12.695,-129.395,10.742,110.352
1573889340.829,3.906,22.461,-421.875,-16.113,-60.547
1573889340.833,5.371,31.738,-157.715,-5.371,-110.352
1573889340.837,21.973,29.297,-127.930,21.973,17.578
1573889340.840,25.879,28.320,-207.520,19.531,122.070
1573889340.844,9.277,29.297,-129.395,0.488,30.762
1573889340.848,-0.977,27.344,-107.910,0.000,-65.430
1573889340.852,15.137,33.203,114.746,25.391,12.207
1573889340.856,30.762,34.668,304.688,33.203,149.902
1573889340.860,21.973,30.762,62.988,12.695,72.266
1573889340.864,10.254,35.156,-308.105,2.930,-127.441
1573889340.868,18.555,25.879,-152.344,20.996,-51.270
1573889340.872,33.203,18.555,74.707,32.227,121.582
1573889340.876,27.344,23.926,-69.336,17.578,85.938
1573889340.880,17.090,22.461,-413.574,1.465,-91.309
1573889340.883,22.461,19.531,-513.672,10.742,-130.371
1573889340.887,31.250,21.484,67.383,32.227,87.891
1573889340.891,38.574,24.902,153.809,32.715,148.438
1573889340.895,24.414,30.762,-375.977,5.859,-48.828
1573889340.899,20.996,33.203,-305.176,3.418,-130.371
1573889340.903,31.738,28.809,236.328,31.738,24.902
1573889340.907,26.367,24.902,339.844,31.738,157.715
1573889340.911,12.207,20.996,-161.133,1.465,4.395
1573889340.915,1.953,27.344,-365.234,-6.836,-123.535
1573889340.919,15.625,24.414,41.992,18.066,6.836
1573889340.923,29.297,13.672,188.477,30.273,123.047
1573889340.926,12.695,15.625,-205.566,8.789,46.387
1573889340.930,-7.812,25.391,-301.758,-13.672,-91.309
1573889340.934,-9.766,28.320,277.832,-9.766,-23.438
1573889340.938,4.395,25.391,591.309,8.301,135.254
1573889340.942,10.742,26.367,-50.781,5.371,81.055
1573889340.946,-1.953,22.461,-389.160,-14.648,-93.262
1573889340.950,4.395,22.949,99.121,-0.977,-91.797
1573889340.954,28.809,30.762,380.859,38.086,86.914
1573889340.958,35.645,30.762,314.941,37.109,145.020
1573889340.962,25.391,22.461,-44.922,13.672,-26.367
1573889340.965,20.996,27.832,-41.992,16.602,-107.910
1573889340.969,37.109,31.250,322.754,41.016,38.574
1573889340.973,49.316,28.809,177.246,51.758,133.789
1573889340.977,40.527,30.762,38.574,28.809,36.133
1573889340.981,39.062,26.855,139.648,19.531,-105.469
1573889340.985,46.875,27.832,434.082,41.504,-0.488
1573889340.989,59.082,31.250,636.719,54.199,167.969
1573889340.993,50.781,29.785,380.859,34.668,83.008
1573889340.997,30.762,26.855,149.414,10.254,-80.566
1573889341.001,36.621,26.367,341.797,25.879,-62.012
1573889341.005,50.781,30.273,595.703,46.875,107.422
1573889341.008,44.434,27.832,334.961,34.180,130.859
1573889341.012,25.391,21.973,-99.609,8.789,-55.176
1573889341.016,23.438,27.344,-244.629,12.207,-133.789
1573889341.020,32.715,31.250,129.395,34.668,38.086
1573889341.024,29.297,24.902,489.746,31.738,143.066
1573889341.028,17.090,25.391,188.965,14.160,9.766
1573889341.032,11.230,26.367,108.398,13.184,-83.496
1573889341.036,23.438,28.320,556.641,32.227,46.875
1573889341.040,34.180,25.879,698.242,41.992,170.898
1573889341.044,24.414,20.020,173.340,19.043,46.387
1573889341.048,14.648,25.879,-106.445,6.348,-114.258
1573889341.051,23.438,27.832,312.988,29.297,-25.879
1573889341.055,29.297,21.973,490.723,41.504,153.809
1573889341.059,20.996,22.461,-75.195,19.531,82.520
1573889341.063,6.836,25.391,-625.488,-0.977,-109.863
1573889341.067,9.277,25.879,-159.180,16.602,-71.289
1573889341.071,25.391,30.762,475.586,41.992,120.117
1573889341.075,25.879,33.691,219.238,32.227,140.137
1573889341.079,8.789,25.391,-220.703,6.836,-43.457
1573889341.083,5.859,19.043,-5.859,12.695,-94.727
1573889341.087,21.973,18.066,436.035,38.574,72.754
1573889341.090,22.949,17.090,239.258,32.715,131.348
1573889341.094,3.906,19.043,-280.762,1.953,-42.480
1573889341.098,0.488,25.879,-271.484,-0.977,-126.465
1573889341.102,9.277,28.809,138.184,24.414,43.945
1573889341.106,19.531,25.879,-41.992,33.203,154.785
1573889341.110,11.719,21.973,-502.930,8.789,40.527
1573889341.114,-1.953,22.461,-279.785,-0.488,-81.055
1573889341.118,14.648,32.715,103.516,30.762,-17.090
1573889341.122,34.668,32.715,206.055,55.664,138.672
1573889341.126,26.367,24.902,-27.344,37.109,104.004
1573889341.130,16.113,29.297,-193.848,21.973,-40.039
1573889341.133,29.297,38.086,1.465,41.992,-26.367
1573889341.137,47.363,39.062,217.285,61.523,113.770
1573889341.141,44.922,28.809,125.000,48.828,150.391
1573889341.145,28.809,23.438,-162.598,24.902,-0.488
1573889341.149,34.668,26.855,-373.047,33.691,-108.887
1573889341.153,56.152,30.273,-346.680,61.035,22.461
1573889341.157,59.082,29.297,-122.559,61.523,137.695
1573889341.161,45.410,33.203,-222.656,39.062,4.395
1573889341.165,38.574,34.668,-367.676,31.738,-123.047
1573889341.169,51.758,33.203,31.738,54.688,8.789
1573889341.173,67.383,33.691,353.516,67.871,161.133
1573889341.176,57.617,25.879,-20.508,42.969,87.402
1573889341.180,39.062,22.949,-375.000,23.438,-72.754
1573889341.184,36.621,27.832,-3.418,37.598,-26.855
1573889341.188,41.992,28.809,368.164,52.246,135.742
1573889341.192,30.762,22.949,112.793,29.297,115.723
1573889341.196,17.090,20.020,-392.090,5.371,-73.242
1573889341.200,15.625,21.973,-441.406,18.555,-129.395
1573889341.204,23.926,29.785,67.871,39.062,56.152
1573889341.208,27.832,35.156,240.723,36.133,154.785
1573889341.212,14.648,22.949,-443.848,7.812,-16.113
1573889341.215,3.906,19.531,-502.930,1.953,-102.051
1573889341.219,15.625,28.320,291.016,35.156,53.711
1573889341.223,26.367,24.902,298.340,39.551,140.137
1573889341.227,12.695,23.926,-179.199,13.184,22.949
1573889341.231,5.859,29.297,-170.410,9.277,-100.098
1573889341.235,19.043,21.973,104.492,29.297,-32.227
1573889341.239,29.785,20.508,208.984,43.457,129.395
1573889341.243,28.809,23.926,-145.020,28.320,71.289
1573889341.247,17.578,17.090,-428.223,6.348,-95.703
1573889341.251,22.949,21.484,56.641,24.414,-45.898
1573889341.255,40.039,29.785,341.797,50.781,117.676
1573889341.258,36.621,22.461,-179.688,34.180,98.633
1573889341.262,18.555,20.996,-364.258,8.301,-69.336
1573889341.266,16.113,28.809,74.219,13.672,-72.754
1573889341.270,39.062,36.133,380.859,44.434,91.797
1573889341.274,40.527,32.227,278.320,41.992,162.109
1573889341.278,15.625,26.367,36.621,6.348,39.062
1573889341.282,8.789,27.832,41.992,4.395,-64.453
1573889341.286,22.461,27.344,248.047,33.203,24.414
1573889341.290,28.320,20.996,188.477,38.086,154.297
1573889341.294,17.578,20.996,-234.375,15.137,46.875
1573889341.298,8.301,23.438,-376.465,5.859,-100.586
1573889341.301,17.578,23.926,-253.906,27.832,-34.180
1573889341.305,25.879,26.367,-76.660,41.992,108.887
1573889341.309,18.066,22.461,4.395,27.832,106.934
1573889341.313,10.254,20.020,-241.699,13.184,-63.965
1573889341.317,14.648,19.531,-59.082,27.344,-64.453
1573889341.321,35.156,24.414,401.855,53.223,124.023
1573889341.325,42.480,33.203,316.406,47.852,149.902
1573889341.329,25.879,31.738,-192.871,22.461,-43.945
1573889341.333,18.555,24.902,-194.336,21.973,-115.723
1573889341.337,37.598,17.578,130.371,46.387,54.199
1573889341.340,47.363,16.602,99.121,52.246,146.973
1573889341.344,37.109,18.066,-361.328,29.297,-14.648
1573889341.348,34.180,22.949,-640.625,27.344,-128.418
1573889341.352,44.434,25.391,-15.137,48.828,17.578
1573889341.356,54.688,24.414,309.082,55.664,138.184
1573889341.360,42.480,28.320,-130.859,28.809,46.387
1573889341.364,25.879,19.531,-357.422,7.812,-110.352
1573889341.368,37.109,18.066,116.699,30.273,-24.414
1573889341.372,48.340,28.320,439.453,47.852,161.621
1573889341.376,36.133,26.855,13.184,28.809,96.680
1573889341.380,20.020,23.438,-356.445,3.418,-85.938
1573889341.383,26.367,24.414,-179.199,13.672,-81.543
1573889341.387,42.969,20.996,58.105,40.039,73.242
1573889341.391,37.109,19.531,-302.734,24.414,104.004
1573889341.395,14.160,23.438,-712.402,-11.719,-68.848
1573889341.399,9.277,27.344,-249.023,-6.348,-114.258
1573889341.403,30.273,28.320,152.344,26.367,45.410
1573889341.407,34.668,23.926,-27.832,27.344,107.910
1573889341.411,12.207,23.438,-197.754,-0.977,18.066
1573889341.415,4.395,22.949,-48.340,-2.930,-67.383
1573889341.419,23.926,23.438,187.500,27.832,9.766
1573889341.423,33.691,29.785,227.539,43.945,152.344
1573889341.426,14.648,25.391,34.668,25.391,89.844
1573889341.430,1.953,19.531,-230.957,12.695,-71.289
1573889341.434,15.625,22.949,-123.535,31.738,-26.367
1573889341.438,30.273,23.926,-45.410,46.387,124.023
1573889341.442,28.809,22.461,-78.613,27.832,123.535
1573889341.446,18.555,23.438,-164.062,10.742,-52.246
1573889341.450,14.648,23.438,-70.801,25.879,-76.660
1573889341.454,28.809,23.438,286.621,52.246,100.098
1573889341.458,33.691,21.484,236.328,48.340,160.156
1573889341.462,17.090,19.043,-208.984,21.484,-1.465
1573889341.465,9.277,21.484,-132.324,19.531,-66.895
1573889341.469,26.855,31.738,285.156,44.922,66.406
1573889341.473,32.715,32.227,333.984,44.922,149.414
1573889341.477,20.996,21.973,-145.508,17.090,30.762
1573889341.481,11.230,20.508,-570.801,4.395,-120.117
1573889341.485,17.578,28.320,-125.488,24.414,-3.906
1573889341.489,27.344,33.203,404.785,40.527,170.410
1573889341.493,19.531,28.809,110.840,22.949,89.355
1573889341.497,8.301,23.438,-491.211,2.930,-108.887
1573889341.501,15.137,22.949,-232.422,16.113,-75.195
1573889341.505,27.344,27.344,404.297,38.574,124.512
1573889341.508,27.344,26.367,159.180,31.250,127.441
1573889341.512,18.555,26.367,-284.180,11.230,-59.570
1573889341.516,15.625,29.297,-162.109,20.020,-100.098
1573889341.520,28.320,25.391,195.801,48.340,64.453
1573889341.524,39.551,21.484,-16.113,49.805,135.742
1573889341.528,32.227,19.043,-657.715,22.949,-18.066
1573889341.532,24.414,20.996,-489.258,21.973,-125.977
1573889341.536,37.109,31.250,219.727,47.363,23.438
1573889341.540,46.387,40.527,252.441,52.246,141.113
1573889341.544,34.180,34.180,-155.762,28.809,22.461
1573889341.548,20.508,30.273,-158.691,17.090,-111.328
1573889341.551,29.785,32.715,270.020,34.668,-12.207
1573889341.555,41.992,30.762,435.547,49.805,150.391
1573889341.559,28.809,32.227,47.852,30.762,77.148
1573889341.563,10.254,31.738,-122.559,6.348,-69.824
1573889341.567,11.719,26.855,221.680,20.508,-24.414
1573889341.571,23.926,27.832,330.566,40.527,109.375
1573889341.575,23.926,28.320,-52.734,26.855,102.539
1573889341.579,6.836,20.020,-324.707,-1.465,-39.551
1573889341.583,3.418,21.484,-51.758,0.488,-85.449
1573889341.587,24.414,29.785,165.527,26.855,52.734
1573889341.590,28.809,23.438,101.562,25.879,132.324
1573889341.594,10.254,14.160,96.191,1.953,35.645
1573889341.598,8.789,14.648,76.172,6.348,-71.289
1573889341.602,22.949,12.207,319.824,29.297,20.020
1573889341.606,28.320,13.672,478.516,35.156,141.113
1573889341.610,20.508,18.555,230.957,19.531,68.359
1573889341.614,16.113,20.996,-3.906,8.789,-82.031
1573889341.618,30.762,24.902,155.273,32.227,-33.203
1573889341.622,42.969,26.855,355.469,50.293,124.023
1573889341.626,37.109,26.367,179.688,32.227,74.707
1573889341.630,30.273,22.461,-234.375,19.043,-105.469
1573889341.633,37.598,19.043,-105.957,34.180,-104.980
1573889341.637,44.922,20.020,519.531,51.270,94.727
1573889341.641,41.504,22.949,567.383,42.480,151.855
1573889341.645,28.320,20.508,54.199,13.184,15.625
1573889341.649,17.578,24.414,-136.230,13.184,-64.941
1573889341.653,30.273,31.250,463.379,44.434,64.941
1573889341.657,42.969,23.926,643.066,49.316,169.434
1573889341.661,23.926,14.648,122.070,17.578,18.066
1573889341.665,10.742,15.137,-136.719,8.789,-126.465
1573889341.669,27.344,19.043,179.688,34.180,-18.066
1573889341.673,43.457,20.996,467.773,43.945,153.320
1573889341.676,33.691,17.578,-100.098,21.484,47.852
1573889341.680,13.184,15.625,-398.438,-1.465,-118.652
1573889341.684,23.438,28.320,231.934,20.996,-45.898
1573889341.688,39.062,29.785,497.070,43.945,127.441
1573889341.692,32.227,18.555,226.074,24.414,105.469
1573889341.696,16.113,9.277,-54.688,-0.977,-85.938
1573889341.700,17.578,14.160,268.555,9.766,-63.965
1573889341.704,35.156,21.484,567.383,39.551,111.816
1573889341.708,37.109,20.508,294.922,37.598,124.512
1573889341.712,21.973,16.113,-188.965,11.719,-41.504
1573889341.715,18.555,14.648,-228.516,15.625,-118.164
1573889341.719,35.645,18.555,151.367,42.969,41.992
1573889341.723,45.898,18.066,-41.504,43.457,127.441
1573889341.727,32.715,22.949,-228.027,18.555,24.902
1573889341.731,23.926,28.320,-138.184,14.648,-100.586
1573889341.735,29.785,26.855,71.777,32.715,-30.762
1573889341.739,40.039,26.367,335.938,41.992,145.020
1573889341.743,33.203,27.344,61.035,27.832,78.613
1573889341.747,15.137,27.344,-229.004,12.695,-105.469
1573889341.751,20.996,24.902,47.852,32.715,-58.105
1573889341.755,33.203,27.832,354.004,52.734,125.488
1573889341.758,26.367,27.344,50.293,34.180,135.254
1573889341.762,8.789,22.461,-393.555,4.883,-52.246
1573889341.766,8.301,18.066,-469.238,7.812,-108.887
1573889341.770,24.902,18.555,-153.809,29.297,72.266
1573889341.774,29.785,26.855,195.312,29.785,178.223
1573889341.778,17.090,31.250,-211.426,7.324,-10.254
1573889341.782,10.254,26.855,-394.531,4.883,-127.930
1573889341.786,20.020,24.902,123.535,31.250,44.434
1573889341.790,29.785,30.273,291.016,40.527,164.062
1573889341.794,16.113,23.926,-180.664,17.090,38.086
1573889341.798,4.395,16.113,-496.582,7.812,-115.234
1573889341.801,16.113,26.367,-109.863,30.273,-11.230
1573889341.805,31.250,29.297,214.355,48.340,172.852
1573889341.809,25.879,20.996,-235.840,28.320,102.051
1573889341.813,8.789,16.602,-705.566,4.883,-91.309
1573889341.817,15.625,19.531,-212.402,28.320,-60.547
1573889341.821,38.086,20.996,376.465,57.617,123.535
1573889341.825,42.969,27.344,120.117,49.805,142.578
1573889341.829,28.320,31.250,-243.164,24.902,-13.672
1573889341.833,20.020,27.344,-47.363,22.949,-81.543
1573889341.837,26.367,24.902,320.801,44.922,59.082
1573889341.840,22.461,22.949,229.980,42.969,155.762
1573889341.844,7.324,26.367,-185.547,12.695,8.301
1573889341.848,0.000,26.367,-151.367,6.836,-109.375
1573889341.852,12.207,26.367,143.555,36.133,11.719
1573889341.856,29.297,27.832,-98.145,41.992,130.859
1573889341.860,21.484,21.484,-539.062,14.160,12.695
1573889341.864,10.742,27.832,-292.969,5.371,-110.840
1573889341.868,23.438,35.645,181.641,30.762,-27.344
1573889341.872,36.133,32.227,397.461,45.898,163.086
1573889341.876,29.785,31.738,164.062,26.855,118.652
1573889341.880,15.625,31.738,-95.215,6.348,-72.754
1573889341.883,19.043,30.762,101.074,22.949,-56.152
1573889341.887,37.109,30.273,338.867,48.340,99.121
1573889341.891,36.133,28.809,250.977,34.668,135.742
1573889341.895,17.578,29.297,-85.938,6.348,-44.434
1573889341.899,19.531,32.715,-228.027,14.160,-125.488
1573889341.903,38.086,31.250,-188.477,39.551,16.113
1573889341.907,41.504,28.809,-14.160,37.109,108.398
1573889341.911,30.273,29.297,-186.035,18.555,-17.090
1573889341.915,20.996,24.902,-371.094,12.207,-128.906
1573889341.919,29.785,21.484,94.727,32.227,-4.395
1573889341.923,41.016,30.273,461.914,48.340,167.969
1573889341.926,28.320,33.203,141.602,23.438,80.566
1573889341.930,12.207,29.297,-229.492,5.371,-111.328
1573889341.934,12.207,24.902,43.945,19.043,-56.641
1573889341.938,26.855,23.926,444.824,36.133,133.301
1573889341.942,25.391,24.902,109.375,27.832,99.121
1573889341.946,12.207,26.367,-587.891,3.906,-123.047
1573889341.950,14.648,31.738,-398.926,9.766,-115.723
1573889341.954,24.414,32.227,308.105,30.762,104.492
1573889341.958,24.902,24.902,239.746,23.926,128.418
1573889341.962,6.836,24.414,-409.180,2.441,-57.617
1573889341.965,0.977,27.832,-303.223,0.977,-96.191
1573889341.969,17.578,27.832,282.227,27.344,67.871
1573889341.973,18.555,24.902,200.195,29.785,136.719
1573889341.977,10.742,26.367,-246.582,5.859,-0.977
1573889341.981,5.859,29.297,-278.320,0.977,-125.000
1573889341.985,13.184,28.320,169.434,23.926,-11.719
1573889341.989,30.762,29.297,322.754,46.387,158.691
1573889341.993,28.320,31.738,-165.039,32.715,83.008
1573889341.997,20.020,30.762,-505.371,15.137,-97.168
1573889342.001,21.484,25.879,-7.324,28.320,-27.832
1573889342.005,34.668,23.926,250.488,46.387,130.859
1573889342.008,35.645,27.344,-335.938,30.762,88.379
1573889342.012,14.160,24.902,-478.516,3.906,-62.988
1573889342.016,11.230,23.438,-66.406,14.160,-84.961
1573889342.020,30.762,27.344,246.094,38.574,83.984
1573889342.024,39.551,28.320,41.504,37.109,138.184
1573889342.028,21.484,17.578,-318.359,12.695,-5.371
1573889342.032,17.578,20.996,-194.824,14.160,-92.285
1573889342.036,33.203,30.762,149.902,41.504,20.020
1573889342.040,37.109,25.391,111.328,42.480,139.160
1573889342.044,20.996,23.926,-280.762,16.602,49.316
1573889342.048,6.836,23.926,-336.914,7.812,-89.844
1573889342.051,14.160,22.949,-127.930,30.762,-1.465
1573889342.055,25.879,23.926,11.230,43.457,150.391
1573889342.059,21.973,29.785,18.555,25.391,96.191
1573889342.063,8.301,27.344,-229.004,6.348,-74.707
1573889342.067,15.137,26.855,-54.688,26.367,-53.711
1573889342.071,35.156,32.715,343.750,52.734,118.652
1573889342.075,33.691,22.461,202.637,34.668,126.953
1573889342.079,17.578,20.508,-272.461,9.766,-45.410
1573889342.083,18.066,24.902,-280.273,21.484,-92.285
1573889342.087,37.598,25.391,90.820,46.875,71.289
1573889342.090,45.898,27.832,93.750,48.828,160.645
1573889342.094,37.598,32.715,-393.066,29.297,-23.438
1573889342.098,31.738,32.227,-679.199,24.414,-161.621
1573889342.102,40.527,34.668,24.414,50.781,27.832
1573889342.106,50.781,38.574,429.688,61.035,160.645
1573889342.110,36.621,32.227,-123.535,29.297,17.578
1573889342.114,23.438,31.738,-314.941,9.277,-111.816
1573889342.118,31.250,31.250,181.641,28.809,-26.855
1573889342.122,40.527,31.738,457.031,45.410,134.277
1573889342.126,31.250,31.738,50.293,25.391,84.473
1573889342.130,14.160,36.133,-269.531,3.418,-87.402
1573889342.133,15.625,34.180,-76.172,14.160,-74.219
1573889342.137,29.297,23.926,196.289,38.086,105.957
1573889342.141,29.785,21.973,-169.922,30.762,126.465
1573889342.145,11.719,20.996,-638.184,4.883,-58.105
1573889342.149,5.859,21.973,-179.199,13.672,-103.027
1573889342.153,21.973,23.926,295.410,43.457,76.660
1573889342.157,24.902,25.391,207.520,41.016,171.387
1573889342.161,6.836,23.438,-131.348,10.254,6.836
1573889342.165,2.930,21.484,-94.238,9.766,-106.445
1573889342.169,23.438,25.879,226.074,41.992,0.000
1573889342.173,28.320,20.508,305.176,49.316,138.184
1573889342.176,17.090,14.160,15.137,21.973,46.875
1573889342.180,12.207,16.113,-295.898,12.695,-113.770
1573889342.184,16.113,17.090,-121.094,34.668,-38.086
1573889342.188,31.250,20.020,187.988,52.734,115.723
1573889342.192,34.180,22.461,95.703,41.992,89.355
1573889342.196,24.902,22.461,-188.477,24.414,-71.289
1573889342.200,25.879,21.484,-173.828,33.691,-100.586
1573889342.204,40.039,17.578,-58.105,56.641,40.527
1573889342.208,41.992,18.555,128.906,49.805,131.348
1573889342.212,29.785,23.438,23.438,20.996,-8.789
1573889342.215,30.273,25.391,-53.711,23.438,-113.770
1573889342.219,42.969,23.438,352.051,46.875,44.434
1573889342.223,44.434,21.484,500.488,45.898,153.809
1573889342.227,32.715,21.973,65.430,20.020,38.574
1573889342.231,29.297,22.949,-397.949,10.742,-118.652
1573889342.235,41.504,27.344,-0.977,32.227,5.859
1573889342.239,49.805,30.273,643.066,45.410,194.336
1573889342.243,41.504,28.809,274.414,28.320,68.359
1573889342.247,25.391,28.809,-36.133,12.695,-79.102
1573889342.251,29.785,30.762,264.160,31.738,-34.180
1573889342.255,46.875,27.832,529.297,53.223,113.281
1573889342.258,46.875,25.391,301.270,41.992,104.004
1573889342.262,34.668,30.273,-67.871,24.414,-65.430
1573889342.266,32.227,34.180,202.637,31.250,-77.148
1573889342.270,47.852,36.621,687.012,55.664,95.703
1573889342.274,49.805,32.227,452.637,55.176,166.504
1573889342.278,32.715,29.297,-333.496,27.344,-19.531
1573889342.282,20.020,30.762,-208.984,18.066,-128.418
1573889342.286,29.297,35.645,497.559,36.621,27.832
1573889342.290,32.715,37.109,554.199,38.574,175.781
1573889342.294,9.277,31.738,121.094,7.324,46.387
1573889342.298,-8.789,28.320,33.203,-9.766,-118.652
1573889342.301,3.906,28.320,480.957,11.719,3.418
1573889342.305,20.020,26.855,660.156,21.973,176.758
1573889342.309,9.766,27.344,163.574,-1.953,89.355
1573889342.313,-8.301,28.809,-84.961,-25.391,-88.867
1573889342.317,-9.277,23.438,288.086,-14.648,-51.758
1573889342.321,8.789,15.625,494.629,9.766,133.301
1573889342.325,11.719,12.695,87.891,2.930,119.141
1573889342.329,-6.836,13.672,-178.711,-19.043,-50.781
1573889342.333,-7.324,18.066,102.051,-8.789,-80.566
1573889342.337,11.230,24.414,185.547,24.902,56.152
1573889342.340,13.184,24.414,41.504,24.414,126.953
1573889342.344,0.000,23.438,-93.262,3.906,-12.207
1573889342.348,-2.441,22.461,-105.469,11.719,-107.422
1573889342.352,17.578,14.648,188.965,40.527,7.324
1573889342.356,31.738,15.625,354.492,49.805,143.555
1573889342.360,21.484,18.555,126.465,27.344,80.078
1573889342.364,12.695,12.695,-164.551,20.508,-71.777
1573889342.368,21.484,14.160,5.371,41.992,-6.836
1573889342.372,36.133,22.461,231.445,56.641,155.762
1573889342.376,30.273,25.879,-9.766,36.133,101.562
1573889342.380,17.090,21.484,-376.465,8.789,-75.684
1573889342.383,19.043,24.902,-280.273,17.090,-81.055
1573889342.387,30.762,36.621,197.266,35.645,86.914
1573889342.391,33.203,39.551,147.949,27.832,116.211
1573889342.395,22.461,32.227,-505.371,3.418,-80.566
1573889342.399,13.184,26.855,-712.891,-6.348,-163.574
1573889342.403,18.555,32.715,31.738,9.277,54.688
1573889342.407,25.391,34.180,179.199,10.742,149.414
1573889342.411,10.742,29.297,-381.836,-15.625,-25.391
1573889342.415,6.348,25.391,-505.371,-17.090,-111.816
1573889342.419,22.949,25.391,-192.871,10.742,-2.441
1573889342.423,36.133,27.344,-27.344,25.391,141.602
1573889342.426,29.785,23.926,-554.688,4.883,35.645
1573889342.430,10.254,29.785,-829.102,-13.672,-145.508
1573889342.434,16.113,40.527,-75.195,11.719,-37.109
1573889342.438,32.715,33.691,295.898,33.203,133.789
1573889342.442,27.832,24.414,-36.621,19.043,111.816
1573889342.446,15.137,23.438,-248.047,1.953,-40.039
1573889342.450,20.508,20.020,30.762,16.602,-64.941
1573889342.454,40.527,22.461,239.746,45.898,79.102
1573889342.458,42.969,29.785,-23.438,45.410,105.469
1573889342.462,23.438,23.438,-453.613,23.438,-54.688
1573889342.465,18.555,21.484,-333.008,22.949,-102.539
1573889342.469,34.668,28.809,199.219,51.270,82.520
1573889342.473,42.969,21.973,3.906,56.641,159.180
1573889342.477,26.367,16.113,-410.156,28.320,3.418
1573889342.481,13.672,20.996,-267.090,18.555,-106.445
1573889342.485,22.949,21.973,169.922,35.156,5.859
1573889342.489,30.762,21.973,290.039,45.410,134.277
1573889342.493,20.508,18.555,70.801,21.484,69.824
1573889342.497,7.324,13.672,-117.676,0.977,-83.008
1573889342.501,14.648,16.602,59.082,19.043,-66.406
1573889342.505,38.574,20.020,343.750,46.875,100.586
1573889342.508,32.227,14.648,56.641,34.668,103.027
1573889342.512,16.602,14.160,-264.160,8.301,-46.387
1573889342.516,23.438,17.090,-326.172,20.996,-116.211
1573889342.520,28.320,15.137,-109.863,40.527,24.902
1573889342.524,23.926,19.531,327.637,36.133,167.969
1573889342.528,15.625,28.809,72.754,14.160,22.949
1573889342.532,12.207,35.156,-64.941,9.277,-92.285
1573889342.536,26.367,26.855,266.602,39.062,41.992
1573889342.540,39.062,19.531,427.246,48.340,169.922
1573889342.544,27.832,15.137,74.219,19.531,57.617
1573889342.548,18.555,17.578,-193.359,13.672,-109.863
1573889342.551,36.133,28.809,190.918,44.434,-34.180
1573889342.555,47.852,29.297,398.438,60.547,153.809
1573889342.559,35.156,21.973,-125.488,38.086,73.730
1573889342.563,20.996,19.043,-704.590,14.648,-150.391
1573889342.567,25.391,25.879,-142.578,30.762,-59.570
1573889342.571,40.527,32.227,541.992,58.594,143.066
1573889342.575,41.992,33.691,257.324,49.316,137.207
1573889342.579,23.438,31.250,-209.961,22.949,-57.617
1573889342.583,6.836,22.949,8.789,21.484,-94.727
1573889342.587,22.461,25.391,478.516,41.992,91.797
1573889342.590,30.762,23.926,210.938,38.574,125.000
1573889342.594,11.230,20.508,-287.109,7.812,-31.738
1573889342.598,5.859,22.461,-98.145,0.488,-87.891
1573889342.602,16.602,17.578,203.613,23.926,51.270
1573889342.606,20.996,15.625,125.488,25.391,160.156
1573889342.610,12.207,16.602,-65.918,-1.465,86.426
1573889342.614,-2.930,14.648,-146.973,-17.578,-70.312
1573889342.618,-4.883,17.578,207.520,0.000,-0.977
1573889342.622,10.742,18.555,91.309,20.508,140.625
1573889342.626,4.395,16.113,-353.516,2.930,91.797
1573889342.630,-9.277,17.578,-294.922,-16.113,-64.453
1573889342.633,4.883,19.043,-97.656,5.859,-90.332
1573889342.637,23.438,21.973,174.805,29.785,94.238
1573889342.641,21.973,26.367,160.156,21.484,146.973
1573889342.645,12.695,23.438,-104.980,4.395,-8.301
1573889342.649,19.043,15.625,-231.934,16.602,-84.961
1573889342.653,32.227,14.648,-115.723,40.039,47.852
1573889342.657,38.086,22.461,87.402,44.434,160.645
1573889342.661,27.832,17.090,-66.406,23.926,26.855
1573889342.665,16.602,9.766,-361.328,14.648,-125.977
1573889342.669,26.367,9.277,-146.973,43.457,-6.836
1573889342.673,33.691,12.207,231.934,55.664,148.926
1573889342.676,27.344,18.555,-90.332,36.621,27.832
1573889342.680,17.090,15.625,-361.816,23.438,-115.234
1573889342.684,27.344,15.137,-16.113,37.598,-34.668
1573889342.688,48.828,20.508,342.773,56.641,136.230
1573889342.692,44.922,17.578,122.559,40.039,120.605
1573889342.696,21.484,9.766,-422.852,13.184,-81.055
1573889342.700,21.484,16.602,-399.414,21.484,-99.121
1573889342.704,39.062,23.926,78.125,47.363,99.121
1573889342.708,40.527,28.809,149.902,45.898,163.086
1573889342.712,31.250,25.879,-462.402,20.508,-30.762
1573889342.715,25.391,20.996,-519.043,16.602,-125.977
1573889342.719,33.203,28.320,247.070,40.039,63.477
1573889342.723,39.062,28.809,332.031,44.434,178.711
1573889342.727,25.391,27.344,-151.367,25.391,37.598
1573889342.731,16.113,33.691,-176.758,22.461,-83.496
1573889342.735,24.414,34.180,248.535,46.387,12.207
1573889342.739,34.668,30.273,316.895,57.617,147.461
1573889342.743,22.461,26.367,-241.211,34.668,49.316
1573889342.747,2.441,28.809,-546.387,16.602,-107.422
1573889342.751,4.883,32.227,49.316,26.855,-3.906
1573889342.755,26.855,28.320,356.445,46.387,150.391
1573889342.758,26.367,21.484,-319.336,27.344,99.121
1573889342.762,5.859,17.090,-622.070,-2.930,-72.754
1573889342.766,9.277,20.508,-105.469,11.719,-79.590
1573889342.770,29.785,25.391,204.102,37.598,70.801
1573889342.774,36.133,32.227,103.516,31.250,140.625
1573889342.778,19.531,30.762,-116.699,3.906,5.371
1573889342.782,15.137,23.926,-98.633,2.441,-101.074
1573889342.786,33.203,20.020,177.734,29.785,19.531
1573889342.790,42.969,22.461,69.824,35.156,118.652
1573889342.794,28.809,27.832,-344.727,13.184,16.602
1573889342.798,15.137,24.902,-374.023,1.953,-118.652
1573889342.801,20.020,21.973,-163.574,19.531,-34.180
1573889342.805,27.344,20.996,-25.391,33.691,124.512
1573889342.809,20.508,27.832,20.020,18.555,81.055
1573889342.813,13.184,36.133,-130.371,5.371,-73.730
1573889342.817,17.578,28.320,-82.031,20.996,-81.055
1573889342.821,36.621,27.344,291.992,46.387,115.723
1573889342.825,41.504,28.809,350.098,38.574,143.555
1573889342.829,28.809,25.879,-92.285,15.625,-69.336
1573889342.833,32.715,34.180,-13.184,23.438,-115.234
1573889342.837,44.434,39.062,386.230,47.363,64.453
1573889342.840,47.852,38.574,320.801,47.363,150.391
1573889342.844,36.133,40.527,-115.234,22.949,-14.648
1573889342.848,29.785,36.133,-330.566,15.625,-121.094
1573889342.852,43.945,29.785,309.082,41.992,50.293
1573889342.856,54.688,37.109,749.023,56.152,205.566
1573889342.860,43.457,35.156,262.207,31.738,69.336
1573889342.864,29.297,26.367,-44.434,15.625,-116.211
1573889342.868,35.645,31.738,450.195,36.621,-18.555
1573889342.872,51.758,27.832,641.602,55.176,143.555
1573889342.876,45.410,21.484,182.617,31.738,89.355
1573889342.880,28.320,25.879,-62.988,10.254,-91.797
1573889342.883,30.273,28.320,123.047,23.926,-84.961
1573889342.887,41.992,30.273,453.125,40.527,88.867
1573889342.891,37.109,27.344,105.957,27.832,102.051
1573889342.895,15.137,22.949,-337.891,-0.488,-47.852
1573889342.899,11.719,22.949,141.113,7.324,-93.750
1573889342.903,28.809,27.344,624.023,42.480,61.523
1573889342.907,31.738,26.855,526.367,42.480,155.273
1573889342.911,16.113,20.508,175.781,16.113,17.090
1573889342.915,8.789,18.555,252.441,16.113,-80.078
1573889342.919,27.832,21.484,571.289,45.898,29.297
1573889342.923,35.156,21.484,589.355,54.688,160.156
1573889342.926,20.996,20.020,319.336,22.949,85.449
1573889342.930,6.348,18.066,78.125,3.906,-64.941
1573889342.934,17.578,25.391,136.719,29.297,-23.438
1573889342.938,34.180,29.297,241.699,45.410,125.488
1573889342.942,23.926,24.902,191.895,22.949,110.352
1573889342.946,15.137,27.832,28.809,3.906,-74.219
1573889342.950,20.508,27.344,92.773,15.625,-67.383
1573889342.954,32.227,28.320,318.848,35.156,115.723
1573889342.958,33.203,29.297,345.703,23.926,150.391
1573889342.962,19.043,22.949,67.871,-1.465,7.324
1573889342.965,17.090,27.344,62.988,0.000,-56.152
1573889342.969,33.203,36.621,403.320,25.879,72.266
1573889342.973,46.875,43.945,370.117,32.227,133.789
1573889342.977,32.715,35.645,-172.852,8.301,2.930
1573889342.981,14.648,25.879,-571.777,-7.324,-118.652
1573889342.985,33.203,35.156,-362.305,19.043,-40.039
1573889342.989,46.387,36.621,98.145,38.574,122.070
1573889342.993,34.180,30.273,7.812,17.578,73.242
1573889342.997,24.902,27.832,-323.242,8.301,-104.492
1573889343.001,34.668,25.879,-8.301,32.227,-58.105
1573889343.005,48.340,22.949,514.648,54.688,163.086
1573889343.008,46.875,24.902,211.914,44.434,147.949
1573889343.012,29.297,24.414,-296.387,16.602,-49.316
1573889343.016,19.531,17.578,-106.445,20.996,-73.730
1573889343.020,32.227,13.672,322.754,49.316,103.027
1573889343.024,31.250,13.184,27.832,44.922,160.156
1573889343.028,18.555,9.277,-730.469,14.648,-9.766
1573889343.032,9.277,13.672,-595.215,7.812,-113.281
1573889343.036,16.113,20.020,106.934,33.203,35.645
1573889343.040,28.809,20.020,93.750,37.598,146.484
1573889343.044,18.555,15.625,-417.480,10.742,25.391
1573889343.048,0.488,8.301,-383.301,-1.465,-91.797
1573889343.051,10.254,11.230,81.543,19.531,-8.301
1573889343.055,26.367,17.578,215.820,29.785,145.020
1573889343.059,18.555,23.926,-90.820,4.883,103.516
1573889343.063,4.883,25.391,-357.910,-12.207,-104.004
1573889343.067,8.301,20.996,-39.551,0.000,-70.312
1573889343.071,18.555,20.508,235.352,15.137,137.695
1573889343.075,17.578,21.484,-199.707,4.395,102.539
1573889343.079,0.977,22.949,-419.922,-16.113,-56.641
1573889343.083,-5.859,22.461,-125.000,-9.766,-97.168
1573889343.087,11.230,19.043,9.277,14.648,59.082
1573889343.090,18.555,18.066,-68.848,14.648,146.484
1573889343.094,7.324,18.066,-157.227,-1.465,7.324
1573889343.098,6.348,24.414,-188.965,5.371,-93.262
1573889343.102,23.926,29.297,150.391,37.598,42.480
1573889343.106,34.668,24.902,414.551,47.363,194.336
1573889343.110,25.391,19.531,78.125,23.926,65.430
1573889343.114,16.602,16.113,-195.801,13.672,-97.168
1573889343.118,30.273,21.973,-24.414,40.527,-24.414
1573889343.122,51.270,27.344,131.836,62.012,125.488
1573889343.126,51.270,21.973,8.789,45.410,87.891
1573889343.130,40.039,21.484,-309.082,26.367,-94.727
1573889343.133,42.969,26.855,-349.609,39.062,-92.773
1573889343.137,54.688,31.250,211.914,53.223,106.934
1573889343.141,55.664,36.621,272.461,48.340,122.559
1573889343.145,42.969,40.527,-221.191,31.738,-58.594
1573889343.149,36.133,37.598,-106.445,27.344,-93.262
1573889343.153,43.945,34.668,476.562,45.410,93.750
1573889343.157,51.270,30.762,415.039,47.363,179.688
1573889343.161,35.156,26.855,-159.668,22.461,8.301
1573889343.165,20.508,35.156,-273.926,16.602,-100.098
1573889343.169,36.133,39.062,74.219,43.457,8.789
1573889343.173,38.086,33.203,303.711,47.852,149.414
1573889343.176,20.996,31.250,-260.254,18.066,46.387
1573889343.180,12.207,28.809,-609.375,6.836,-122.559
1573889343.184,10.742,25.879,180.176,27.344,-6.348
1573889343.188,18.555,20.996,584.961,43.457,187.500
1573889343.192,13.184,20.020,137.207,28.809,125.488
1573889343.196,-6.348,21.484,-182.617,2.441,-63.477
1573889343.200,-2.930,19.531,123.047,15.625,-59.570
1573889343.204,15.137,17.090,426.270,41.992,107.910
1573889343.208,20.508,18.066,143.555,33.203,138.184
1573889343.212,5.371,19.043,-332.520,8.301,-20.020
1573889343.215,-3.418,19.531,-270.508,10.254,-87.891
1573889343.219,14.648,21.484,54.199,35.645,48.828
1573889343.223,25.391,19.043,-113.770,34.668,139.648
1573889343.227,10.254,19.043,-329.590,10.254,10.254
1573889343.231,-2.930,22.461,-144.043,2.441,-101.562
1573889343.235,14.160,23.438,160.156,28.320,-4.883
1573889343.239,25.879,18.066,268.555,42.480,132.324
1573889343.243,8.301,12.207,33.691,11.230,68.848
1573889343.247,-4.395,10.742,-126.953,-10.254,-65.430
1573889343.251,5.371,12.207,108.887,9.277,-20.020
1573889343.255,21.973,18.066,342.773,29.297,132.324
1573889343.258,24.902,26.367,57.129,17.090,142.578
1573889343.262,14.648,27.344,-312.988,-2.930,-33.203
1573889343.266,19.043,24.902,-395.996,7.812,-106.934
1573889343.270,30.273,28.320,-250.977,30.762,46.387
1573889343.274,31.250,34.180,64.453,28.809,143.555
1573889343.278,24.414,37.598,-168.457,10.742,-18.555
1573889343.282,20.996,37.598,-277.344,18.555,-120.605
1573889343.286,28.809,45.410,216.797,43.945,39.062
1573889343.290,31.250,47.852,412.109,40.527,168.945
1573889343.294,23.438,37.598,-80.566,18.066,33.203
1573889343.298,13.672,27.344,-340.820,8.301,-117.188
1573889343.301,21.484,29.297,162.598,30.273,7.324
1573889343.305,35.645,32.227,304.688,47.852,159.180
1573889343.309,32.227,32.227,-365.234,29.785,35.645
1573889343.313,20.996,36.133,-850.586,9.766,-141.113
1573889343.317,26.367,41.992,-292.480,31.250,-60.547
1573889343.321,39.551,39.551,392.578,59.570,133.301
1573889343.325,35.645,31.738,41.992,45.898,103.516
1573889343.329,25.879,31.738,-493.652,22.949,-93.750
1573889343.333,24.414,37.109,-133.301,30.273,-95.215
1573889343.337,38.086,41.016,413.086,51.758,88.867
1573889343.340,37.109,33.203,253.906,43.457,149.414
1573889343.344,14.160,23.926,-215.820,9.766,-12.695
1573889343.348,9.277,21.484,-180.664,3.418,-118.164
1573889343.352,23.438,18.066,192.383,27.832,33.691
1573889343.356,30.762,20.020,19.043,32.227,160.645
1573889343.360,13.672,25.391,-463.867,3.418,34.180
1573889343.364,3.418,32.227,-341.309,-5.859,-123.535
1573889343.368,18.066,31.250,84.473,21.973,-50.781
1573889343.372,28.809,28.809,328.125,41.504,159.180
1573889343.376,21.973,30.762,165.039,24.414,145.508
1573889343.380,7.812,29.785,-118.652,2.930,-64.453
1573889343.383,13.184,30.762,-80.566,15.625,-79.102
1573889343.387,33.203,34.668,181.641,40.527,89.355
1573889343.391,31.250,40.039,157.715,28.809,123.047
1573889343.395,20.020,44.434,-113.770,8.301,-32.715
1573889343.399,25.879,38.574,-226.562,18.066,-120.117
1573889343.403,46.387,29.785,-269.043,44.922,9.766
1573889343.407,55.176,34.180,-128.906,50.293,123.047
1573889343.411,33.203,39.062,-132.812,21.973,5.859
1573889343.415,23.438,38.086,-266.602,17.090,-127.930
1573889343.419,36.621,35.156,38.086,41.504,-4.395
1573889343.423,36.621,33.203,328.125,43.945,157.227
1573889343.426,32.715,34.668,88.379,31.250,69.336
1573889343.430,29.297,38.574,-182.129,22.949,-91.309
1573889343.434,24.902,40.039,178.711,26.367,-13.184
1573889343.438,37.109,38.086,516.602,42.969,170.898
1573889343.442,45.410,35.645,177.734,38.574,121.582
1573889343.446,34.180,33.691,-248.047,12.207,-64.941
1573889343.450,27.344,31.738,-89.355,14.648,-80.078
1573889343.454,38.086,37.598,480.469,39.062,99.609
1573889343.458,43.945,45.898,512.207,37.109,156.250
1573889343.462,26.855,41.992,-173.828,6.348,-37.598
1573889343.465,16.113,40.039,-193.848,-0.488,-117.676
1573889343.469,30.273,38.574,529.785,31.738,42.969
1573889343.473,36.621,36.621,551.758,39.062,141.113
1573889343.477,24.902,37.598,32.715,14.160,3.906
1573889343.481,19.043,36.621,7.324,6.348,-120.605
1573889343.485,28.809,41.016,536.133,30.762,3.906
1573889343.489,40.039,48.828,652.344,48.340,151.855
1573889343.493,24.902,45.410,159.668,21.484,70.801
1573889343.497,8.301,40.039,-188.965,-0.977,-113.770
1573889343.501,14.160,38.574,169.922,16.113,-75.684
1573889343.505,24.902,36.133,525.391,33.203,114.746
1573889343.508,18.555,33.691,46.387,14.648,96.680
1573889343.512,-3.418,35.645,-149.902,-14.648,-71.777
1573889343.516,-7.812,37.109,367.676,-4.883,-57.129
1573889343.520,16.602,41.992,639.160,28.320,93.262
1573889343.524,20.996,49.805,460.938,22.461,138.184
1573889343.528,-2.930,48.340,222.168,-10.254,10.254
1573889343.532,-11.230,45.898,268.555,-8.789,-73.242
1573889343.536,-4.395,47.852,564.453,11.719,62.500
1573889343.540,9.277,46.387,416.992,18.555,147.461
1573889343.544,0.977,40.527,-109.375,-6.836,11.719
1573889343.548,-17.090,43.457,-132.324,-18.066,-103.516
1573889343.551,-5.859,42.480,26.855,6.836,-24.902
1573889343.555,8.301,37.598,103.027,20.020,129.883
1573889343.559,-0.977,38.574,116.699,2.930,72.266
1573889343.563,-8.301,34.668,-97.656,-14.160,-94.727
1573889343.567,-3.418,34.668,38.574,2.930,-75.195
1573889343.571,6.348,43.945,410.156,20.996,104.004
1573889343.575,9.277,49.805,321.289,11.719,133.789
1573889343.579,-5.371,44.434,-100.586,-18.066,-26.855
1573889343.583,-7.324,41.016,-143.066,-18.066,-105.469
1573889343.587,7.812,44.922,110.352,11.719,33.203
1573889343.590,13.184,46.875,78.125,12.695,140.137
1573889343.594,6.836,45.410,-316.406,-5.371,3.906
1573889343.598,7.324,49.316,-512.207,1.465,-99.121
1573889343.602,11.230,50.293,53.711,20.996,33.203
1573889343.606,18.066,46.387,451.172,24.414,175.781
1573889343.610,19.043,41.992,-109.375,9.766,43.457
1573889343.614,5.859,43.945,-357.910,-1.953,-123.047
1573889343.618,6.836,44.434,132.812,18.066,-40.039
1573889343.622,22.461,47.363,389.160,37.598,129.883
1573889343.626,20.996,46.875,-2.930,19.531,79.102
1573889343.630,8.301,48.340,-437.988,1.953,-109.375
1573889343.633,8.789,50.293,-260.254,19.531,-78.613
1573889343.637,22.461,47.363,137.207,44.434,109.863
1573889343.641,24.902,43.945,-209.473,36.621,120.117
1573889343.645,5.371,38.574,-697.266,3.418,-47.363
1573889343.649,3.418,49.316,-255.859,13.184,-97.656
1573889343.653,21.973,55.664,252.930,49.805,58.594
1573889343.657,23.926,45.410,156.738,43.945,153.809
1573889343.661,3.906,38.086,-197.266,12.207,12.207
1573889343.665,-8.789,42.480,-207.520,3.906,-96.680
1573889343.669,8.789,52.246,-20.508,29.785,-2.930
1573889343.673,22.949,53.711,113.770,40.039,131.348
1573889343.676,17.090,51.270,21.973,16.602,87.891
1573889343.680,6.348,44.922,-227.051,-0.977,-70.312
1573889343.684,12.695,44.434,-157.715,14.648,-56.152
1573889343.688,27.832,49.316,-167.480,33.203,73.730
1573889343.692,19.043,44.434,-195.801,14.160,88.379
1573889343.696,2.930,38.574,-146.484,-7.324,-57.617
1573889343.700,7.324,37.598,-23.926,4.883,-75.684
1573889343.704,23.438,38.086,329.102,24.902,108.398
1573889343.708,22.461,37.598,351.562,16.602,159.668
1573889343.712,8.301,41.992,2.930,-2.930,-5.859
1573889343.715,4.883,42.969,-63.477,2.441,-100.098
1573889343.719,11.230,41.992,231.934,21.484,36.621
1573889343.723,21.484,44.434,292.480,26.855,155.273
1573889343.727,15.625,47.363,-22.949,9.277,60.547
1573889343.731,7.324,47.363,-390.137,-0.488,-92.773
1573889343.735,15.137,43.457,-236.328,18.555,-29.785
1573889343.739,24.902,43.457,333.496,35.645,156.250
1573889343.743,23.926,48.340,175.293,25.879,81.543
1573889343.747,11.230,55.176,-184.082,14.160,-98.633
1573889343.751,16.113,56.152,171.875,35.156,-44.434
1573889343.755,35.645,53.223,599.609,61.035,141.113
1573889343.758,41.504,53.223,302.734,50.293,127.441
1573889343.762,26.367,52.246,-153.809,29.785,-58.594
1573889343.766,23.438,52.246,60.059,41.992,-86.426
1573889343.770,50.293,54.199,520.996,69.824,92.773
1573889343.774,63.965,58.105,263.184,68.359,152.344
1573889343.778,54.199,61.523,-556.152,42.480,-39.551
1573889343.782,60.059,68.359,-397.461,51.758,-118.652
1573889343.786,80.566,69.336,365.723,85.449,46.387
1573889343.790,81.543,57.617,374.512,83.008,166.504
1573889343.794,61.523,51.270,-139.160,51.270,26.367
1573889343.798,48.340,54.199,-211.914,39.551,-118.164
1573889343.801,58.105,53.223,194.336,64.453,-21.484
1573889343.805,73.242,54.199,264.648,84.473,112.305
1573889343.809,66.895,58.594,-114.746,62.500,47.363
1573889343.813,41.016,55.176,-238.281,36.133,-79.102
1573889343.817,35.645,51.270,115.723,45.898,-29.297
1573889343.821,51.758,55.664,290.039,62.012,132.324
1573889343.825,42.969,52.734,-49.805,43.945,143.066
1573889343.829,19.043,46.875,-302.246,15.625,-35.156
1573889343.833,19.043,49.316,-129.883,20.508,-106.934
1573889343.837,31.738,51.270,-24.902,40.527,58.594
1573889343.840,28.809,52.246,-190.430,31.250,130.859
1573889343.844,11.719,51.270,-285.645,7.324,-3.418
1573889343.848,8.301,51.758,-203.613,10.254,-99.609
1573889343.852,20.020,54.688,66.406,31.250,0.000
1573889343.856,23.926,46.387,281.738,35.156,156.738
1573889343.860,16.113,37.598,-24.414,17.578,47.852
1573889343.864,13.672,39.551,-329.102,15.137,-127.930
1573889343.868,23.438,43.457,-149.902,40.527,-47.852
1573889343.872,33.691,48.828,82.031,59.082,146.484
1573889343.876,33.203,48.828,16.113,47.852,127.441
1573889343.880,29.297,43.457,-286.621,39.551,-62.012
1573889343.883,33.691,36.621,-485.352,54.688,-104.980
1573889343.887,38.086,34.180,-28.320,66.895,66.895
1573889343.891,38.574,33.203,30.762,57.129,107.910
1573889343.895,29.785,33.691,-480.469,41.016,-60.059
1573889343.899,35.645,39.551,-351.074,50.781,-131.348
1573889343.903,54.199,41.992,235.840,71.777,47.363
1573889343.907,55.176,40.039,250.977,60.547,132.812
1573889343.911,48.340,35.645,-303.223,31.738,-38.574
1573889343.915,43.945,30.762,-502.441,31.250,-153.809
1573889343.919,41.992,24.414,-182.129,41.992,-37.109
1573889343.923,44.922,28.809,64.453,41.504,115.723
1573889343.926,37.109,29.297,-426.758,14.160,33.203
1573889343.930,22.949,27.344,-784.180,-3.906,-147.461
1573889343.934,24.414,34.668,-39.062,14.648,-53.711
1573889343.938,35.645,30.762,346.680,31.250,120.117
1573889343.942,28.809,27.344,-19.531,14.648,83.984
1573889343.946,10.742,28.320,-266.602,-10.742,-57.129
1573889343.950,5.859,24.414,-92.285,-2.441,-83.496
1573889343.954,20.508,19.043,257.324,18.066,85.938
1573889343.958,16.113,13.184,169.922,5.371,148.438
1573889343.962,-13.184,4.883,-256.836,-22.461,-15.137
1573889343.965,-23.926,-2.930,-246.582,-24.414,-83.984
1573889343.969,-16.113,-9.766,133.301,-6.348,50.781
1573889343.973,-16.602,-22.949,-91.797,-13.184,146.484
1573889343.977,-36.133,-31.250,-389.648,-47.363,28.809
1573889343.981,-48.340,-29.297,-137.695,-54.688,-69.824
1573889343.985,-40.039,-28.809,217.285,-31.250,47.852
1573889343.989,-33.691,-33.691,260.742,-18.066,147.949
1573889343.993,-43.945,-33.691,21.484,-39.062,74.707
1573889343.997,-58.105,-36.621,-165.527,-56.152,-76.172
1573889344.001,-51.758,-37.598,20.020,-45.410,-50.293
1573889344.005,-37.598,-33.203,254.883,-32.227,131.348
1573889344.008,-42.480,-35.156,-21.973,-40.527,126.465
1573889344.012,-54.199,-38.086,-417.480,-59.082,-64.941
1573889344.016,-52.734,-40.039,-466.797,-53.223,-99.609
1573889344.020,-44.922,-39.062,-79.590,-39.062,98.633
1573889344.024,-42.480,-35.156,231.445,-44.922,176.758
1573889344.028,-51.270,-40.527,-78.125,-67.871,5.859
1573889344.032,-56.152,-48.340,-182.617,-69.824,-102.051
1573889344.036,-48.340,-49.805,313.477,-45.898,55.664
1573889344.040,-38.086,-47.363,489.746,-38.574,168.945
1573889344.044,-44.922,-42.969,20.020,-61.523,26.855
1573889344.048,-60.059,-42.480,-127.930,-75.684,-102.539
1573889344.051,-53.223,-41.016,347.656,-53.223,18.555
1573889344.055,-37.109,-40.527,508.301,-33.691,162.598
1573889344.059,-36.133,-40.527,49.805,-49.805,88.867
1573889344.063,-45.410,-38.086,-474.609,-66.895,-104.980
1573889344.067,-40.527,-24.902,-52.734,-44.434,-96.680
1573889344.071,-20.508,-17.578,674.805,-13.184,118.164
1573889344.075,-18.066,-27.832,495.605,-20.996,150.879
1573889344.079,-30.762,-31.738,98.633,-46.387,-30.273
1573889344.083,-29.785,-22.461,355.957,-36.133,-72.266
1573889344.087,-11.230,-12.695,792.969,-3.906,92.285
1573889344.090,-2.930,-14.160,559.570,-3.906,124.512
1573889344.094,-15.137,-15.625,104.492,-25.879,-27.344
1573889344.098,-9.277,-7.812,261.719,-19.531,-85.449
1573889344.102,9.277,-3.418,549.316,10.254,22.461
1573889344.106,13.672,-2.930,300.781,10.742,127.441
1573889344.110,-5.859,-6.348,-111.816,-30.762,37.109
1573889344.114,-24.902,2.441,79.102,-48.340,-96.191
1573889344.118,-16.602,8.301,458.984,-25.879,-15.625
1573889344.122,-12.695,-3.418,537.598,-19.043,139.160
1573889344.126,-26.367,-13.184,390.625,-42.969,119.629
1573889344.130,-39.551,-20.996,223.633,-63.965,-44.922
1573889344.133,-39.062,-23.438,377.441,-50.781,-49.316
1573889344.137,-21.973,-16.113,538.574,-24.902,91.797
1573889344.141,-20.020,-12.695,404.297,-29.785,120.605
1573889344.145,-35.156,-17.090,93.750,-52.246,-44.434
1573889344.149,-34.180,-20.508,-50.781,-44.434,-122.070
1573889344.153,-15.137,-19.043,-40.527,-13.184,20.996
1573889344.157,-13.672,-22.461,70.801,-13.672,109.375
1573889344.161,-32.227,-19.043,10.742,-45.410,-1.465
1573889344.165,-29.297,-12.695,-106.445,-48.828,-113.770
1573889344.169,-11.719,-8.789,216.309,-17.578,-4.395
1573889344.173,-6.836,-11.719,479.004,-7.812,146.973
1573889344.176,-13.672,-19.531,37.598,-27.344,56.641
1573889344.180,-20.020,-15.137,-270.996,-34.180,-102.051
1573889344.184,-13.672,-5.859,119.141,-15.625,-34.668
1573889344.188,-1.465,-1.953,465.332,2.441,135.742
1573889344.192,-0.977,-7.324,196.777,-13.184,107.910
1573889344.196,-19.043,-15.137,-345.215,-39.551,-86.914
1573889344.200,-21.973,-17.578,-295.410,-26.367,-95.215
1573889344.204,-1.953,-9.766,248.535,0.977,96.680
1573889344.208,-1.465,-6.348,301.758,-6.348,144.531
1573889344.212,-18.555,-13.184,-410.156,-35.156,-49.316
1573889344.215,-18.066,-8.789,-485.840,-29.297,-131.348
1573889344.219,-9.277,-7.812,227.051,-2.441,31.738
1573889344.223,-17.578,-16.602,250.000,-7.812,135.742
1573889344.227,-27.832,-16.113,-238.770,-30.762,10.742
1573889344.231,-37.109,-17.578,-383.789,-39.062,-115.723
1573889344.235,-31.738,-20.020,125.977,-18.066,22.461
1573889344.239,-23.438,-20.020,279.297,-4.395,149.414
1573889344.243,-38.086,-24.414,-309.570,-29.297,34.668
1573889344.247,-53.711,-25.391,-594.238,-51.758,-107.910
1573889344.251,-45.410,-19.531,-147.461,-35.156,-59.570
1573889344.255,-25.879,-17.578,153.320,-12.207,110.840
1573889344.258,-19.043,-21.973,-255.371,-19.531,97.656
1573889344.262,-29.785,-21.484,-473.633,-40.039,-59.082
1573889344.266,-33.203,-17.578,-62.012,-33.691,-55.664
1573889344.270,-9.766,-16.113,204.590,-4.883,100.586
1573889344.274,-5.371,-17.090,-106.445,-6.836,145.508
1573889344.278,-24.902,-20.020,-287.598,-31.250,-7.324
1573889344.282,-20.996,-20.020,-115.234,-27.344,-92.285
1573889344.286,-2.930,-16.113,215.332,0.488,50.781
1573889344.290,2.930,-12.207,140.625,5.371,156.738
1573889344.294,-13.672,-18.066,-340.332,-24.902,13.672
1573889344.298,-24.902,-19.043,-356.934,-35.156,-116.699
1573889344.301,-16.113,-17.090,-109.863,-14.160,-20.020
1573889344.305,-16.113,-18.555,-7.324,-13.184,138.672
1573889344.309,-24.414,-11.719,83.496,-39.062,103.027
1573889344.313,-31.738,-7.324,-82.520,-51.270,-73.730
1573889344.317,-39.551,-15.625,21.973,-40.039,-79.102
1573889344.321,-33.203,-21.484,393.555,-25.879,103.027
1573889344.325,-32.227,-19.043,309.570,-33.203,126.953
1573889344.329,-51.270,-21.484,-110.840,-53.223,-45.898
1573889344.333,-49.316,-15.625,-41.992,-40.039,-87.891
1573889344.337,-26.855,-1.953,315.918,-8.301,74.707
1573889344.340,-29.785,-7.324,220.703,-19.531,149.414
1573889344.344,-42.969,-13.672,-290.527,-48.828,-20.996
1573889344.348,-40.527,-14.160,-598.145,-44.434,-161.621
1573889344.352,-24.902,-14.648,11.719,-14.160,-5.371
1573889344.356,-8.301,-8.789,490.723,0.977,165.527
1573889344.360,-3.906,-1.465,59.570,-14.648,60.547
1573889344.364,-7.812,0.977,-176.270,-22.461,-99.609
1573889344.368,0.977,3.418,299.805,1.465,-18.555
1573889344.372,18.066,-0.488,534.180,25.391,126.953
1573889344.376,13.672,-13.672,110.840,10.254,75.684
1573889344.380,2.930,-11.719,-202.148,-14.160,-86.426
1573889344.383,3.418,-7.812,-70.801,-2.441,-88.867
1573889344.387,10.742,-7.812,267.578,18.066,92.285
1573889344.391,0.000,-8.301,-26.855,-3.418,115.723
1573889344.395,-22.949,-13.672,-578.613,-44.434,-79.102
1573889344.399,-20.508,-12.207,-270.020,-33.691,-148.926
1573889344.403,-5.859,-8.301,168.457,-3.418,28.320
1573889344.407,-13.184,-5.371,193.848,-17.090,139.160
1573889344.411,-31.738,-4.395,-95.703,-50.781,2.441
1573889344.415,-37.598,-6.348,-54.688,-56.641,-105.469
1573889344.419,-29.785,-16.602,261.719,-33.691,14.648
1573889344.423,-21.973,-22.949,317.871,-22.949,166.504
1573889344.426,-35.645,-20.508,-11.230,-44.434,57.129
1573889344.430,-48.828,-20.508,-293.945,-54.199,-99.121
1573889344.434,-37.109,-15.137,-79.590,-30.762,-14.160
1573889344.438,-19.531,-6.836,-44.922,-12.695,120.605
1573889344.442,-26.855,-10.742,-163.574,-27.344,98.633
1573889344.446,-46.387,-23.438,-172.852,-52.246,-62.012
1573889344.450,-43.457,-20.996,-49.805,-41.504,-74.219
1573889344.454,-27.344,-16.602,294.922,-16.113,114.258
1573889344.458,-23.438,-15.137,239.258,-19.531,170.898
1573889344.462,-29.297,-9.277,-164.062,-39.062,-11.719
1573889344.465,-31.250,-2.930,-137.207,-38.086,-88.379
1573889344.469,-18.066,-0.977,264.648,-11.719,65.918
1573889344.473,-3.418,-8.301,247.559,-8.301,150.391
1573889344.477,-11.230,-18.066,-278.809,-35.645,15.137
1573889344.481,-18.066,-16.602,-682.617,-41.016,-137.695
1573889344.485,-7.812,-9.277,-405.273,-18.066,-46.875
1573889344.489,0.488,-8.301,234.863,-8.301,154.297
1573889344.493,-7.812,-12.207,89.844,-24.902,99.121
1573889344.497,-23.438,-12.207,-374.512,-38.086,-118.652
1573889344.501,-15.137,-9.277,13.184,-18.066,-37.109
1573889344.505,-6.836,-13.672,452.637,3.418,144.531
1573889344.508,-23.926,-18.555,128.418,-15.625,107.422
1573889344.512,-37.598,-14.648,-367.188,-36.133,-62.500
1573889344.516,-31.250,-6.836,-277.832,-20.020,-104.980
1573889344.520,-21.484,-4.883,219.238,-3.418,58.105
1573889344.524,-14.648,-12.207,83.984,-10.742,140.137
1573889344.528,-24.902,-18.066,-626.465,-41.504,-20.996
1573889344.532,-43.457,-13.672,-488.770,-56.641,-108.398
1573889344.536,-24.902,-8.301,254.395,-22.461,48.340
1573889344.540,-5.371,-8.789,256.348,-6.348,151.855
1573889344.544,-23.438,-11.719,-185.547,-31.250,31.250
1573889344.548,-39.062,-5.371,-216.797,-45.898,-112.793
1573889344.551,-21.484,-2.930,166.504,-20.996,-33.691
1573889344.555,-7.324,-9.766,304.199,-3.418,127.441
1573889344.559,-15.625,-8.301,-32.227,-19.043,77.148
1573889344.563,-29.297,-8.301,-240.234,-33.203,-91.797
1573889344.567,-20.996,-6.836,120.117,-17.090,-35.645
1573889344.571,-2.441,-4.883,274.902,4.883,111.328
1573889344.575,-7.812,-9.277,-159.180,-10.254,89.355
1573889344.579,-22.949,-8.789,-433.594,-34.668,-62.500
1573889344.583,-28.809,-3.418,-84.961,-29.297,-90.332
1573889344.587,-11.230,-1.953,45.898,-4.395,58.105
1573889344.590,-10.742,-10.742,-189.453,-7.324,121.094
1573889344.594,-25.879,-13.184,-213.379,-28.809,-3.418
1573889344.598,-23.438,-8.301,-179.688,-25.391,-112.793
1573889344.602,-11.719,-5.859,182.617,-8.301,42.480
1573889344.606,-10.254,-1.953,357.910,-9.766,170.898
1573889344.610,-19.531,5.859,34.668,-33.203,47.852
1573889344.614,-23.926,2.930,-183.594,-38.574,-90.332
1573889344.618,-15.137,-2.930,-59.082,-14.648,-33.203
1573889344.622,-6.836,-4.883,133.301,-1.953,136.719
1573889344.626,-10.742,-9.766,-104.492,-16.113,83.496
1573889344.630,-22.461,-9.766,-501.953,-33.691,-92.285
1573889344.633,-24.414,-5.859,-434.570,-27.344,-79.590
1573889344.637,-7.324,0.977,57.617,-6.348,67.871
1573889344.641,-5.859,-0.488,147.461,-14.648,93.750
1573889344.645,-19.043,-10.254,-286.133,-36.621,-70.312
1573889344.649,-9.766,-5.371,-187.988,-24.902,-120.117
1573889344.653,4.883,-2.441,392.578,-1.465,52.734
1573889344.657,5.859,-5.859,437.012,0.000,140.625
1573889344.661,0.488,-4.883,38.574,-19.531,14.648
1573889344.665,-3.418,-7.812,-105.469,-21.973,-102.051
1573889344.669,6.348,-7.324,248.535,6.348,19.531
1573889344.673,13.184,-2.930,594.727,13.184,170.410
1573889344.676,-0.977,-3.906,-2.441,-18.555,32.715
1573889344.680,-14.160,-2.930,-358.398,-35.645,-115.723
1573889344.684,-6.348,-4.395,315.430,-9.277,-10.742
1573889344.688,8.301,-7.812,664.551,14.648,143.555
1573889344.692,6.348,-3.418,386.230,0.977,103.027
1573889344.696,-9.277,1.465,143.555,-20.508,-65.430
1573889344.700,-17.578,-3.906,469.727,-14.648,-61.035
1573889344.704,-12.207,-10.742,786.133,3.906,114.746
1573889344.708,-8.301,-10.742,617.188,0.000,165.527
1573889344.712,-19.531,-11.230,96.191,-23.926,-28.809
1573889344.715,-27.344,-8.789,122.070,-24.414,-88.379
1573889344.719,-13.184,-0.488,587.402,-0.488,75.684
1573889344.723,-6.836,0.000,257.324,-2.930,113.281
1573889344.727,-26.367,-8.301,-17.090,-33.691,2.930
1573889344.731,-31.250,-11.719,198.730,-38.086,-104.004
1573889344.735,-13.184,-5.371,515.625,-10.254,0.000
1573889344.739,5.371,-0.977,517.090,7.812,123.047
1573889344.743,3.418,-2.930,138.672,-7.812,37.109
1573889344.747,-4.883,4.883,42.480,-23.438,-97.168
1573889344.751,11.230,9.766,326.172,4.395,-52.246
1573889344.755,26.855,2.930,663.574,26.367,147.949
1573889344.758,21.484,0.977,370.605,12.207,134.766
1573889344.762,2.930,2.441,-130.371,-9.766,-60.547
1573889344.766,0.000,4.395,-220.215,-9.766,-106.934
1573889344.770,17.578,11.719,28.809,11.230,43.457
1573889344.774,17.578,15.137,306.641,6.836,132.812
1573889344.778,3.418,8.301,58.105,-14.160,-6.348
1573889344.782,-3.418,1.465,-6.348,-14.648,-88.379
1573889344.786,2.441,-1.953,439.453,5.859,60.547
1573889344.790,10.742,-3.418,523.438,13.184,150.391
1573889344.794,-2.930,-5.371,49.805,-13.184,34.668
1573889344.798,-17.578,-3.418,-278.809,-22.461,-106.445
1573889344.801,-9.277,3.418,63.965,0.000,-32.227
1573889344.805,-0.977,0.977,315.430,10.742,146.973
1573889344.809,-20.020,-6.836,-187.500,-14.648,68.359
1573889344.813,-35.645,-3.418,-695.312,-36.133,-135.254
1573889344.817,-31.250,0.977,-215.332,-19.531,-74.707
1573889344.821,-18.555,2.930,475.586,2.930,131.348
1573889344.825,-15.625,5.371,163.574,-10.742,129.883
1573889344.829,-35.156,7.812,-426.758,-43.945,-62.012
1573889344.833,-38.086,5.859,-71.777,-40.039,-76.172
1573889344.837,-14.160,4.883,457.520,-5.371,91.797
1573889344.840,-6.348,3.906,250.000,0.977,135.742
1573889344.844,-23.926,-2.441,-203.613,-23.926,-10.254
1573889344.848,-30.762,0.977,-201.660,-25.391,-117.676
1573889344.852,-16.113,5.859,39.062,3.418,-11.230
1573889344.856,0.000,2.930,-137.695,15.625,138.184
1573889344.860,-7.812,3.418,-613.770,-7.324,26.855
1573889344.864,-21.973,2.441,-474.121,-22.949,-128.906
1573889344.868,-18.066,2.930,65.430,3.906,-20.508
1573889344.872,0.488,6.836,276.367,25.391,160.645
1573889344.876,-2.930,5.859,49.805,2.441,132.324
1573889344.880,-22.949,1.465,-180.664,-26.367,-54.199
1573889344.883,-23.926,-0.977,-64.453,-17.090,-80.566
1573889344.887,-4.395,0.000,209.961,6.836,107.910
1573889344.891,0.000,3.418,129.883,-1.465,145.508
1573889344.895,-18.555,1.465,-265.137,-22.461,-38.086
1573889344.899,-19.043,-2.441,-400.879,-14.648,-117.188
1573889344.903,-4.395,3.418,-261.719,7.324,34.668
1573889344.907,-2.930,9.277,-53.223,2.930,150.879
1573889344.911,-17.090,3.906,-230.957,-21.484,-0.488
1573889344.915,-31.738,-3.418,-388.672,-29.297,-138.672
1573889344.919,-20.996,-0.488,93.262,-8.789,7.324
1573889344.923,-7.812,5.859,468.262,0.000,185.059
1573889344.926,-18.555,6.836,156.250,-24.414,84.473
1573889344.930,-32.227,0.000,-271.484,-38.086,-127.930
1573889344.934,-26.367,2.930,-52.246,-19.531,-83.496
1573889344.938,-8.789,5.859,461.914,1.465,153.320
1573889344.942,-9.277,-0.488,333.008,-6.348,152.344
1573889344.946,-22.461,0.000,-270.996,-27.344,-73.242
1573889344.950,-20.508,-2.930,-205.566,-15.625,-78.125
1573889344.954,-4.395,-2.930,329.102,11.719,97.656
1573889344.958,2.441,5.371,297.363,9.277,137.207
1573889344.962,-8.789,-1.953,-194.336,-16.113,-29.297
1573889344.965,-10.742,-10.254,-245.605,-13.184,-111.816
1573889344.969,8.301,-2.441,217.285,19.043,43.945
1573889344.973,13.184,-0.488,326.660,18.066,141.602
1573889344.977,0.000,-1.465,-331.055,-10.254,-1.465
1573889344.981,-3.418,0.977,-468.750,-15.137,-121.094
1573889344.985,0.977,2.441,199.707,5.371,-2.930
1573889344.989,8.789,0.488,386.230,15.137,149.414
1573889344.993,5.859,-2.441,-99.609,0.000,76.660
1573889344.997,-5.859,-0.977,-430.664,-12.695,-98.633
1573889345.001,-0.488,3.906,9.766,1.465,-43.945
1573889345.005,14.160,8.789,403.809,22.949,160.645
1573889345.008,10.742,9.766,-192.871,11.719,98.145
1573889345.012,-1.953,14.648,-491.699,-15.137,-90.820
1573889345.016,1.465,11.719,9.277,-1.465,-79.102
1573889345.020,16.602,3.418,307.129,24.414,88.379
1573889345.024,20.508,6.836,105.469,18.066,140.137
1573889345.028,1.953,5.371,-192.871,-12.207,-26.367
1573889345.032,-1.465,10.254,-110.840,-12.207,-112.793
1573889345.036,12.207,22.949,230.957,15.137,31.738
1573889345.040,13.672,14.648,145.996,15.625,138.184
1573889345.044,2.930,4.395,-311.523,-3.418,27.832
1573889345.048,-6.348,3.906,-356.445,-13.184,-107.422
1573889345.051,6.348,7.812,-255.859,10.742,-68.359
1573889345.055,23.438,13.672,-208.496,32.715,84.961
1573889345.059,13.672,14.648,-87.891,12.207,74.707
1573889345.063,-4.395,11.230,-245.605,-9.766,-89.355
1573889345.067,-4.395,2.441,-50.293,8.301,-51.270
1573889345.071,4.883,-1.953,303.711,29.297,116.699
1573889345.075,2.441,2.930,193.359,8.301,123.535
1573889345.079,-13.672,3.906,-252.441,-18.066,-41.992
1573889345.083,-18.066,1.953,-265.625,-10.254,-105.957
1573889345.087,2.930,7.324,95.215,18.066,51.270
1573889345.090,7.324,8.789,74.707,14.648,160.156
1573889345.094,-18.555,0.977,-361.816,-24.414,15.137
1573889345.098,-34.668,-1.953,-663.574,-33.203,-126.465
1573889345.102,-21.484,-0.977,-24.902,-6.836,41.016
1573889345.106,-9.766,-3.418,377.441,4.395,187.500
1573889345.110,-11.719,-0.488,-174.316,-14.648,45.898
1573889345.114,-20.508,-2.930,-303.711,-28.809,-72.754
1573889345.118,-21.973,-8.301,170.898,-12.695,0.977
1573889345.122,-9.277,-2.441,379.883,3.906,126.465
1573889345.126,-10.742,1.953,-44.922,-11.230,66.406
1573889345.130,-25.879,-0.488,-324.219,-30.762,-79.590
1573889345.133,-24.414,-3.906,-164.551,-17.090,-81.543
1573889345.137,-8.301,-3.418,55.176,8.301,76.172
1573889345.141,-2.930,-1.465,-245.605,0.000,109.863
1573889345.145,-21.973,-2.930,-661.133,-31.250,-49.805
1573889345.149,-18.555,7.812,-244.629,-17.578,-110.352
1573889345.153,5.859,13.672,285.645,16.602,46.875
1573889345.157,13.184,10.742,217.285,15.137,142.578
1573889345.161,6.348,7.812,-202.637,-6.836,-15.625
1573889345.165,-3.906,4.395,-109.375,-12.207,-96.191
1573889345.169,1.465,2.441,275.391,7.324,33.203
1573889345.173,16.602,4.395,295.410,21.973,153.809
1573889345.176,8.301,6.348,7.812,5.371,71.289
1573889345.180,-2.930,3.418,-276.367,-9.766,-89.844
1573889345.184,3.418,4.395,-169.434,9.766,-56.152
1573889345.188,9.766,9.277,-105.469,23.926,95.215
1573889345.192,0.977,6.836,-285.645,2.930,81.055
1573889345.196,-12.695,2.441,-292.480,-21.484,-68.848
1573889345.200,-12.207,3.906,-53.711,-9.766,-74.707
1573889345.204,-2.441,6.836,230.957,12.207,71.289
1573889345.208,-2.441,12.207,293.457,0.977,145.508
1573889345.212,-10.254,11.719,2.441,-23.926,-1.465
1573889345.215,-13.672,10.254,-99.121,-22.461,-106.445
1573889345.219,-3.418,6.836,254.395,-2.441,47.363
1573889345.223,3.906,1.953,383.789,0.977,162.598
1573889345.227,-3.906,1.465,-209.473,-20.508,15.625
1573889345.231,-9.766,4.883,-528.320,-29.297,-140.625
1573889345.235,0.488,10.254,9.766,-1.953,-20.996
1573889345.239,12.207,14.160,335.938,13.672,143.555
1573889345.243,-2.930,11.719,108.398,-11.230,85.449
1573889345.247,-21.484,0.977,-458.984,-32.227,-90.332
1573889345.251,-15.625,-5.859,-405.762,-14.648,-67.383
1573889345.255,0.000,0.000,305.176,16.113,131.348
1573889345.258,6.348,3.418,182.617,17.578,124.512
1573889345.262,-7.324,2.441,-296.875,-3.906,-60.547
1573889345.266,-11.719,3.418,-96.191,-2.930,-93.262
1573889345.270,2.930,5.371,451.172,18.555,102.539
1573889345.274,-2.930,9.277,238.770,9.277,162.109
1573889345.278,-16.602,8.789,-545.898,-25.879,-24.902
1573889345.282,-19.531,5.371,-404.785,-28.809,-111.328
1573889345.286,-12.695,7.324,354.004,-3.906,36.621
1573889345.290,-2.441,6.836,386.230,-2.441,144.531
1573889345.294,-7.324,2.930,20.020,-26.855,44.922
1573889345.298,-17.090,3.906,80.078,-31.250,-69.824
1573889345.301,-7.324,5.859,497.070,-6.348,10.254
1573889345.305,8.301,8.301,523.926,4.395,125.977
1573889345.309,-2.930,7.812,153.809,-20.508,67.383
1573889345.313,-21.484,4.395,62.500,-43.945,-72.754
1573889345.317,-14.648,0.488,389.648,-25.879,-32.715
1573889345.321,7.324,3.418,432.129,0.000,135.742
1573889345.325,9.766,6.836,70.312,-4.883,114.746
1573889345.329,-2.441,14.160,18.555,-16.602,-63.477
1573889345.333,-0.977,20.508,302.246,-0.488,-97.656
1573889345.337,10.254,13.184,581.543,26.367,56.152
1573889345.340,18.066,2.930,577.148,26.855,155.762
1573889345.344,7.324,-8.789,278.320,2.441,5.859
1573889345.348,1.465,-8.301,165.039,4.395,-124.023
1573889345.352,14.648,0.977,505.371,41.992,20.996
1573889345.356,28.809,8.789,690.430,54.688,168.457
1573889345.360,24.414,16.113,393.066,32.715,70.312
1573889345.364,12.207,10.742,75.195,16.602,-77.148
1573889345.368,17.578,4.395,239.258,29.785,-11.719
1573889345.372,28.809,4.883,411.621,46.387,124.512
1573889345.376,20.996,9.277,276.855,28.809,95.703
1573889345.380,11.230,13.184,-29.297,9.277,-86.914
1573889345.383,11.230,15.137,-152.832,18.555,-104.004
1573889345.387,14.648,22.461,394.043,32.227,116.211
1573889345.391,14.160,15.625,497.070,22.461,143.555
1573889345.395,-4.395,2.441,-4.883,-2.441,-27.344
1573889345.399,-7.324,2.930,-32.227,-3.418,-105.957
1573889345.403,7.324,5.371,381.348,13.672,17.090
1573889345.407,9.766,11.230,461.426,8.789,138.184
1573889345.411,1.465,23.926,21.973,-16.602,14.648
1573889345.415,-4.395,23.926,-217.285,-21.484,-110.352
1573889345.419,3.418,18.555,103.516,2.441,2.930
1573889345.423,15.137,18.555,249.512,16.602,137.695
1573889345.426,9.277,14.648,-372.070,-5.371,20.508
1573889345.430,2.441,20.996,-679.688,-10.742,-132.812
1573889345.434,17.578,36.621,104.492,24.414,-13.672
1573889345.438,36.621,36.621,490.723,46.387,140.625
1573889345.442,36.133,35.645,31.250,33.691,74.707
1573889345.446,20.508,36.133,-295.898,13.672,-103.027
1573889345.450,20.508,29.785,-16.113,20.508,-110.352
1573889345.454,34.668,31.738,342.285,45.410,82.520
1573889345.458,41.016,40.039,105.957,50.293,104.492
1573889345.462,25.391,36.621,-331.055,23.438,-53.223
1573889345.465,19.043,32.715,-298.340,23.438,-100.586
1573889345.469,34.668,34.668,29.785,47.852,38.086
1573889345.473,38.574,31.738,-212.402,41.992,102.051
1573889345.477,22.949,29.785,-600.098,11.719,-23.438
1573889345.481,6.348,29.297,-401.855,2.930,-127.930
1573889345.485,15.625,33.203,8.789,31.250,-17.090
1573889345.489,25.391,35.645,165.039,41.992,141.602
1573889345.493,14.160,27.832,-40.039,16.113,71.777
1573889345.497,3.418,20.020,-284.668,3.906,-106.445
1573889345.501,10.254,20.020,-91.309,21.484,-61.523
1573889345.505,27.832,25.391,207.031,40.039,112.305
1573889345.508,24.902,29.297,-77.148,24.414,95.215
1573889345.512,11.230,23.438,-436.035,4.883,-57.129
1573889345.516,19.531,25.879,-304.688,22.949,-87.891
1573889345.520,34.180,27.344,65.430,46.387,64.453
1573889345.524,40.527,26.367,230.957,46.875,146.484
1573889345.528,29.297,27.832,-122.070,24.414,1.953
1573889345.532,18.555,28.320,-497.070,20.508,-115.234
1573889345.536,36.133,38.574,-190.918,52.734,5.371
1573889345.540,51.758,49.805,287.598,67.871,139.648
1573889345.544,41.016,43.945,-42.480,46.387,14.648
1573889345.548,22.461,32.227,-267.578,28.809,-112.305
1573889345.551,28.320,34.180,276.367,44.922,22.461
1573889345.555,39.062,35.645,473.633,53.711,170.410
1573889345.559,27.832,30.762,-70.312,29.297,83.984
1573889345.563,14.160,23.438,-553.711,6.348,-82.520
1573889345.567,12.695,34.668,-164.062,13.184,-60.059
1573889345.571,24.414,41.992,503.418,35.645,119.141
1573889345.575,24.414,24.414,306.641,20.996,149.414
1573889345.579,-2.441,12.695,-128.906,-19.043,-20.508
1573889345.583,-14.648,7.812,55.176,-18.066,-89.355
1573889345.587,5.859,13.672,389.648,13.184,62.500
1573889345.590,12.695,15.137,215.820,11.719,151.367
1573889345.594,0.488,12.695,-136.719,-18.066,8.789
1573889345.598,0.488,15.137,-82.031,-18.555,-110.352
1573889345.602,8.301,17.090,155.273,5.859,-11.719
1573889345.606,12.207,12.695,-10.254,9.277,130.371
1573889345.610,-1.465,6.836,-444.824,-15.137,32.227
1573889345.614,-20.020,5.859,-316.895,-29.785,-119.629
1573889345.618,-13.184,5.371,192.383,-8.301,-30.762
1573889345.622,5.371,14.160,418.945,13.184,160.645
1573889345.626,-3.906,12.695,127.930,-4.395,110.352
1573889345.630,-22.461,5.371,-85.449,-23.926,-61.523
1573889345.633,-8.789,6.348,129.883,-3.906,-44.434
1573889345.637,8.789,5.859,360.352,22.949,120.117
1573889345.641,5.371,5.859,216.309,11.719,144.531
1573889345.645,-6.348,4.395,-156.738,-9.277,-9.277
1573889345.649,-8.301,10.254,-230.957,0.977,-76.172
1573889345.653,0.488,17.090,-166.992,20.020,38.574
1573889345.657,0.000,10.254,-82.520,14.648,122.559
1573889345.661,-6.836,6.348,-165.527,-8.301,-3.418
1573889345.665,-12.207,4.883,-298.828,-14.160,-119.629
1573889345.669,-1.953,9.766,31.250,12.207,-10.742
1573889345.673,15.137,20.996,316.895,29.297,140.137
1573889345.676,10.254,31.250,38.574,8.301,66.895
1573889345.680,-0.488,32.227,-296.387,-5.371,-103.027
1573889345.684,6.836,27.344,-37.598,18.066,-51.270
1573889345.688,20.020,25.391,302.246,33.691,110.840
1573889345.692,13.184,20.508,74.219,17.090,98.633
1573889345.696,2.441,20.020,-345.215,2.930,-42.480
1573889345.700,9.277,25.879,-241.211,17.090,-33.691
1573889345.704,21.973,32.715,104.004,37.598,104.980
1573889345.708,26.367,34.180,69.336,31.738,124.512
1573889345.712,10.254,23.438,-450.195,5.371,-35.645
1573889345.715,-7.324,18.066,-496.582,-2.930,-117.188
1573889345.719,0.488,28.320,197.266,17.090,48.828
1573889345.723,11.230,29.785,256.348,23.438,145.996
1573889345.727,6.348,22.461,-292.480,1.953,22.461
1573889345.731,-3.418,21.973,-369.629,-9.277,-99.121
1573889345.735,0.488,17.090,155.273,13.184,3.906
1573889345.739,17.090,16.602,224.609,34.668,133.301
1573889345.743,12.207,20.996,-330.566,11.719,41.504
1573889345.747,-3.418,18.555,-653.809,-11.230,-127.441
1573889345.751,-1.465,23.926,-74.707,2.930,-32.227
1573889345.755,16.113,26.855,280.762,25.391,133.301
1573889345.758,15.625,20.508,-375.000,14.648,70.312
1573889345.762,-10.254,20.508,-544.434,-17.090,-59.570
1573889345.766,-19.531,20.508,-48.828,-11.230,-69.336
1573889345.770,-2.930,20.508,208.984,16.602,69.824
1573889345.774,2.930,27.832,89.355,14.160,139.648
1573889345.778,-13.672,26.855,-180.664,-11.230,-11.230
1573889345.782,-18.555,20.996,-155.273,-5.859,-117.676
1573889345.786,-0.488,24.902,144.043,23.926,23.438
1573889345.790,5.371,28.320,102.539,18.555,155.762
1573889345.794,-4.883,22.949,-315.918,-11.719,41.992
1573889345.798,-13.184,17.578,-371.582,-15.137,-103.516
1573889345.801,-3.418,14.160,-155.762,9.766,-19.531
1573889345.805,6.836,11.719,-145.020,17.090,113.281
1573889345.809,-6.836,15.137,-115.723,-8.789,70.801
1573889345.813,-15.137,19.043,-334.473,-20.996,-98.145
1573889345.817,-4.883,18.555,-218.262,-1.953,-87.402
1573889345.821,8.301,14.648,232.422,17.090,94.727
1573889345.825,13.672,11.230,192.383,11.230,119.629
1573889345.829,1.465,11.719,-188.965,-11.230,-34.180
1573889345.833,-4.883,17.090,-110.352,-3.906,-69.336
1573889345.837,17.578,20.508,180.664,26.855,79.590
1573889345.840,27.832,17.090,123.047,28.320,153.809
1573889345.844,16.602,18.066,-290.039,4.883,-24.414
1573889345.848,8.301,17.578,-629.883,-1.953,-148.438
1573889345.852,16.113,18.555,-63.965,19.043,17.090
1573889345.856,23.926,19.043,374.512,30.762,155.762
1573889345.860,11.230,17.090,-93.262,5.859,48.340
1573889345.864,-1.953,15.625,-335.938,-13.184,-95.215
1573889345.868,8.301,25.391,147.461,7.324,-4.395
1573889345.872,16.602,27.832,349.609,24.902,153.809
1573889345.876,0.977,18.066,-45.898,-1.953,101.562
1573889345.880,-13.672,14.648,-294.922,-24.902,-62.012
1573889345.883,-7.324,18.555,-155.273,-5.859,-64.941
1573889345.887,12.695,28.809,186.523,17.090,105.469
1573889345.891,17.090,27.344,-137.695,11.230,105.469
1573889345.895,-0.977,32.715,-685.059,-12.207,-65.918
1573889345.899,-5.859,41.016,-100.098,-5.859,-50.781
1573889345.903,12.695,32.227,478.516,20.020,109.375
1573889345.907,18.555,26.855,296.387,17.090,167.480
1573889345.911,0.488,28.809,-106.934,-11.230,26.855
1573889345.915,-9.277,31.738,-53.223,-18.555,-83.008
1573889345.919,10.254,32.227,324.707,13.184,31.738
1573889345.923,22.461,32.227,396.484,35.156,155.273
1573889345.926,11.719,32.715,36.133,15.625,62.012
1573889345.930,2.930,36.621,-231.445,2.441,-98.145
1573889345.934,8.789,32.715,-14.648,20.508,-60.059
1573889345.938,21.973,23.438,64.453,32.715,104.004
1573889345.942,20.020,27.344,-12.695,16.602,90.332
1573889345.946,4.395,29.297,3.418,-3.418,-82.031
1573889345.950,0.977,20.020,221.680,3.906,-66.406
1573889345.954,13.184,18.066,562.500,21.973,105.469
1573889345.958,9.766,18.066,597.168,10.254,152.832
1573889345.962,-4.883,15.137,262.695,-13.184,-10.254
1573889345.965,-5.371,13.184,179.688,-7.812,-103.516
1573889345.969,7.324,11.230,565.430,16.602,49.316
1573889345.973,16.113,9.277,700.684,22.949,165.039
1573889345.977,7.812,4.395,131.836,0.488,1.953
1573889345.981,-0.977,7.324,-334.473,-12.695,-149.414
1573889345.985,6.836,13.184,-50.781,12.695,-26.367
1573889345.989,11.230,9.277,468.750,27.344,132.812
1573889345.993,4.883,6.348,348.145,7.324,72.754
1573889345.997,-3.418,6.348,38.574,-12.207,-77.148
1573889346.001,2.930,9.277,332.520,1.953,-41.992
1573889346.005,22.949,11.230,750.000,26.367,133.789
1573889346.008,20.020,7.812,511.230,17.090,132.324
1573889346.012,-2.441,0.488,45.898,-6.836,-44.434
1573889346.016,4.395,7.324,214.844,3.906,-73.242
1573889346.020,22.949,17.578,634.766,30.273,80.078
1573889346.024,20.020,15.137,303.711,20.996,107.422
1573889346.028,1.953,9.766,-507.812,-12.695,-68.359
1573889346.032,-11.230,6.348,-360.352,-13.672,-135.254
1573889346.036,3.418,9.277,434.082,19.531,34.668
1573889346.040,14.160,8.789,384.277,25.391,131.836
1573889346.044,1.953,10.742,-151.855,0.977,2.441
1573889346.048,-11.719,18.066,-116.699,-12.695,-115.234
1573889346.051,-2.441,17.090,318.359,5.859,-18.066
1573889346.055,13.184,18.555,435.059,24.902,138.672
1573889346.059,3.418,17.578,53.223,4.883,74.219
1573889346.063,-15.137,17.090,-221.191,-19.043,-113.281
1573889346.067,-8.301,19.531,109.375,-2.441,-60.059
1573889346.071,11.719,15.137,283.203,22.949,111.328
1573889346.075,13.672,18.555,-121.094,9.766,103.516
1573889346.079,3.418,23.926,-332.520,-14.160,-43.457
1573889346.083,2.441,29.785,31.250,-4.883,-67.871
1573889346.087,25.391,35.645,177.246,26.367,83.984
1573889346.090,31.738,26.367,-78.613,22.949,145.020
1573889346.094,8.301,16.602,-170.410,-8.301,13.672
1573889346.098,7.812,19.531,-291.016,-5.859,-111.816
1573889346.102,21.484,22.461,-41.992,23.926,3.418
1573889346.106,26.855,27.344,188.965,34.180,136.719
1573889346.110,26.367,31.250,-99.609,14.648,30.273
1573889346.114,18.066,37.109,-343.262,7.324,-124.023
1573889346.118,23.926,35.156,-164.551,30.273,-43.945
1573889346.122,35.156,25.879,16.602,43.945,132.812
1573889346.126,27.832,25.391,-104.492,24.414,106.934
1573889346.130,14.648,21.973,-379.883,2.930,-55.664
1573889346.133,17.578,25.391,-466.309,14.160,-62.500
1573889346.137,25.879,35.645,4.883,35.156,113.281
1573889346.141,18.066,30.273,171.387,23.438,160.156
1573889346.145,0.977,26.367,-352.051,-3.906,-39.551
1573889346.149,-6.348,27.344,-331.543,0.977,-112.793
1573889346.153,4.395,23.926,144.043,25.879,57.617
1573889346.157,15.625,24.902,100.586,28.320,145.508
1573889346.161,10.254,30.762,-267.578,5.859,14.648
1573889346.165,6.348,39.062,-409.668,0.488,-105.469
1573889346.169,20.508,43.457,-21.484,27.832,18.555
1573889346.173,33.203,39.551,213.379,40.527,146.484
1573889346.176,27.344,37.109,-255.859,18.066,25.391
1573889346.180,11.719,34.668,-428.711,-0.977,-108.398
1573889346.184,8.301,30.762,184.570,14.160,-10.742
1573889346.188,18.066,31.250,545.898,26.367,162.109
1573889346.192,15.137,31.250,-70.801,5.371,97.168
1573889346.196,1.953,36.621,-517.090,-12.207,-94.727
1573889346.200,-3.418,46.387,4.883,-1.953,-89.355
1573889346.204,14.160,46.875,385.254,23.926,78.613
1573889346.208,20.508,41.504,216.309,22.461,129.883
1573889346.212,0.488,37.598,-266.602,-6.348,-53.711
1573889346.215,-3.906,38.574,-253.418,-0.977,-110.352
1573889346.219,15.625,38.574,175.293,29.297,58.594
1573889346.223,28.809,36.621,-36.133,32.715,129.883
1573889346.227,11.719,44.434,-295.898,4.883,10.742
1573889346.231,0.000,48.340,-73.242,-2.930,-106.934
1573889346.235,15.137,37.109,260.742,19.043,0.000
1573889346.239,27.344,31.250,423.828,34.180,163.574
1573889346.243,21.973,33.691,182.129,21.484,87.402
1573889346.247,12.695,32.227,-85.938,6.348,-89.844
1573889346.251,16.602,35.156,110.352,26.367,-51.270
1573889346.255,31.250,40.039,382.324,45.898,119.629
1573889346.258,32.715,42.480,115.723,32.227,127.930
1573889346.262,20.508,44.434,-242.188,9.766,-26.367
1573889346.266,13.184,43.457,-156.738,10.742,-77.148
1573889346.270,25.879,46.387,223.145,36.133,83.496
1573889346.274,36.621,47.852,299.316,37.598,145.020
1573889346.278,24.414,43.945,-76.660,12.695,-28.320
1573889346.282,17.090,37.598,-399.902,12.207,-124.023
1573889346.286,30.273,41.016,-126.465,32.715,30.273
1573889346.290,44.434,50.293,313.477,39.551,161.621
1573889346.294,39.551,51.758,-10.254,20.508,46.387
1573889346.298,20.508,42.969,-300.293,5.371,-110.352
1573889346.301,23.438,32.227,100.586,22.949,-22.461
1573889346.305,44.922,34.668,312.500,46.387,145.020
1573889346.309,45.898,32.715,-184.082,36.621,74.707
1573889346.313,24.414,35.156,-675.781,7.324,-84.473
1573889346.317,17.090,44.922,-285.156,6.836,-58.105
1573889346.321,27.344,41.016,380.371,27.832,125.000
1573889346.325,27.344,34.668,104.492,20.508,149.902
1573889346.329,12.695,40.039,-346.680,2.441,-38.574
1573889346.333,0.000,39.062,-60.059,1.465,-82.031
1573889346.337,10.254,36.621,375.000,24.902,79.102
1573889346.340,26.855,39.551,156.250,38.574,121.582
1573889346.344,13.672,45.410,-239.258,13.672,0.488
1573889346.348,0.977,49.805,-156.250,9.277,-92.285
1573889346.352,12.207,42.480,124.512,35.645,8.301
1573889346.356,28.809,41.992,11.230,43.945,162.598
1573889346.360,26.367,40.039,-494.141,24.902,52.734
1573889346.364,13.184,37.598,-438.965,13.184,-124.023
1573889346.368,32.227,45.898,59.082,41.016,-47.363
1573889346.372,50.781,53.711,315.918,60.059,159.180
1573889346.376,34.180,48.340,114.746,32.715,134.766
1573889346.380,16.113,41.992,-273.438,9.766,-86.914
1573889346.383,22.949,42.480,-188.965,24.414,-83.984
1573889346.387,37.109,41.504,219.238,46.875,109.375
1573889346.391,31.738,41.504,124.512,32.227,122.559
1573889346.395,19.531,45.898,-133.301,8.301,-14.648
1573889346.399,29.785,45.898,-169.922,20.996,-77.637
1573889346.403,50.293,49.316,-186.523,49.316,31.250
1573889346.407,53.711,49.316,-71.777,49.805,139.160
1573889346.411,38.574,43.457,-58.594,27.832,45.410
1573889346.415,21.973,42.480,-180.664,20.996,-78.125
1573889346.419,33.203,39.062,122.070,39.062,27.344
1573889346.423,44.922,41.504,422.852,51.758,178.223
1573889346.426,27.832,40.527,86.426,27.832,74.219
1573889346.430,13.184,39.062,-272.949,7.812,-104.492
1573889346.434,23.438,43.457,-30.273,35.645,-43.457
1573889346.438,34.668,46.387,240.234,58.594,132.324
1573889346.442,31.250,49.805,73.730,45.898,119.629
1573889346.446,15.625,47.852,-354.004,24.414,-64.453
1573889346.450,4.395,43.945,-347.168,25.391,-91.309
1573889346.454,13.184,45.898,165.039,41.992,90.820
1573889346.458,18.555,48.340,265.137,39.062,148.438
1573889346.462,8.301,45.898,-445.312,17.090,-48.340
1573889346.465,6.836,50.293,-490.234,20.508,-98.145
1573889346.469,21.484,55.664,252.441,50.293,64.941
1573889346.473,31.738,52.734,296.387,53.223,150.879
1573889346.477,24.414,40.039,-186.523,26.855,18.555
1573889346.481,20.508,37.598,-285.156,20.508,-117.676
1573889346.485,32.227,42.969,222.656,43.457,10.742
1573889346.489,47.363,44.922,344.727,60.547,149.414
1573889346.493,40.527,42.969,-199.219,40.527,57.129
1573889346.497,26.855,43.457,-507.812,15.625,-95.215
1573889346.501,36.133,50.293,-192.383,35.156,-66.895
1573889346.505,50.293,45.410,127.930,60.059,92.285
1573889346.508,46.875,39.551,-306.152,41.016,80.566
1573889346.512,31.738,43.457,-536.621,10.742,-77.637
1573889346.516,38.574,51.758,-75.195,27.832,-98.145
1573889346.520,58.594,51.758,256.836,59.570,77.148
1573889346.524,61.035,51.270,147.949,54.688,148.438
1573889346.528,39.551,52.734,-145.508,21.484,-5.371
1573889346.532,27.832,49.316,-101.562,17.090,-97.168
1573889346.536,42.969,42.969,169.922,49.805,9.766
1573889346.540,48.340,38.086,70.312,57.129,115.234
1573889346.544,31.738,39.551,-311.035,30.762,30.273
1573889346.548,19.531,42.969,-365.234,18.555,-101.074
1573889346.551,28.809,46.387,-244.141,40.039,-58.594
1573889346.555,43.457,49.805,-141.602,55.664,92.773
1573889346.559,33.203,45.410,-22.949,35.156,83.008
1573889346.563,16.113,40.527,-146.973,15.137,-81.543
1573889346.567,22.949,43.945,5.859,30.762,-67.383
1573889346.571,45.410,52.246,401.367,61.035,119.629
1573889346.575,46.387,52.246,376.953,51.758,153.320
1573889346.579,28.320,42.480,-59.082,23.438,-40.039
1573889346.583,34.668,43.457,-79.102,37.109,-101.562
1573889346.587,60.547,55.664,277.344,71.777,64.453
1573889346.590,63.965,53.711,288.574,69.336,152.832
1573889346.594,46.387,45.898,-169.434,42.480,-20.508
1573889346.598,44.434,49.805,-475.586,37.598,-165.039
1573889346.602,56.641,57.129,144.531,62.012,-7.324
1573889346.606,76.172,66.406,644.043,80.078,175.781
1573889346.610,70.312,64.941,157.227,57.617,61.035
1573889346.614,58.105,67.383,-9.277,44.922,-103.027
1573889346.618,79.590,82.520,568.359,80.566,-7.812
1573889346.622,100.098,91.309,906.250,110.352,163.086
1573889346.626,96.680,94.238,517.578,97.656,107.422
1573889346.630,85.449,98.145,179.199,80.566,-64.453
1573889346.633,86.426,103.516,304.688,92.773,-67.871
1573889346.637,99.121,103.516,637.207,113.281,107.422
1573889346.641,100.586,97.168,357.422,98.633,137.695
1573889346.645,86.914,102.051,-261.230,72.266,-53.711
1573889346.649,87.402,104.980,141.113,84.473,-101.562
1573889346.653,98.145,98.633,756.348,106.445,85.449
1573889346.657,99.121,99.609,668.457,104.980,173.340
1573889346.661,78.613,101.074,209.473,75.684,16.113
1573889346.665,64.941,100.586,87.402,66.895,-98.145
1573889346.669,80.078,104.004,436.523,93.750,20.508
1573889346.673,90.820,104.980,519.043,102.539,128.906
1573889346.676,78.613,99.609,187.988,77.637,45.898
1573889346.680,70.801,97.168,-39.551,68.848,-80.078
1573889346.684,84.473,94.727,88.867,92.285,-49.316
1573889346.688,101.074,92.285,63.965,109.375,74.707
1573889346.692,90.820,93.262,-57.617,89.355,86.426
1573889346.696,76.660,92.773,-37.598,67.871,-59.570
1573889346.700,83.984,94.238,59.082,83.496,-87.891
1573889346.704,103.516,100.098,363.281,109.375,83.008
1573889346.708,109.863,108.398,343.262,103.516,128.418
1573889346.712,97.168,107.910,-20.508,82.520,-31.738
1573889346.715,92.773,99.121,-60.547,86.914,-106.445
1573889346.719,106.934,100.098,154.785,113.281,25.391
1573889346.723,113.770,103.027,190.430,120.605,129.395
1573889346.727,96.191,101.074,-98.633,92.285,42.969
1573889346.731,91.309,99.609,-518.555,80.566,-116.211
1573889346.735,98.633,99.121,-300.293,100.586,-28.320
1573889346.739,103.516,99.609,291.504,116.699,163.574
1573889346.743,100.098,104.980,106.934,103.516,78.125
1573889346.747,89.355,106.934,-256.836,84.961,-94.727
1573889346.751,86.914,103.027,61.035,93.262,-37.598
1573889346.755,93.750,100.098,446.289,104.004,130.859
1573889346.758,86.914,96.680,144.043,86.426,111.328
1573889346.762,61.523,92.285,-328.125,57.129,-63.965
1573889346.766,62.012,93.750,-121.582,66.406,-73.242
1573889346.770,78.613,96.191,334.473,93.262,98.633
1573889346.774,76.172,96.191,39.062,87.402,136.719
1573889346.778,69.336,96.191,-770.020,72.266,-35.156
1573889346.782,72.266,93.262,-662.109,79.590,-110.840
1573889346.786,86.426,93.262,133.789,108.887,49.805
1573889346.790,99.609,99.121,184.082,121.094,158.691
1573889346.794,94.238,101.562,-292.969,99.121,59.570
1573889346.798,83.496,99.609,-298.828,82.520,-62.012
1573889346.801,91.309,99.121,136.230,102.051,-4.883
1573889346.805,103.516,101.562,234.375,122.070,129.395
1573889346.809,97.168,102.539,-101.562,100.586,82.520
1573889346.813,79.102,99.609,-235.840,73.242,-55.176
1573889346.817,78.125,95.215,70.312,83.496,-38.086
1573889346.821,96.680,94.727,140.625,104.492,106.445
1573889346.825,101.074,97.168,-226.074,94.238,121.582
1573889346.829,86.426,97.168,-376.953,75.195,-45.898
1573889346.833,86.914,97.168,-238.281,84.473,-115.234
1573889346.837,99.121,97.656,-32.715,106.934,49.805
1573889346.840,93.262,95.215,16.602,99.121,141.602
1573889346.844,80.566,93.262,-131.836,76.172,0.977
1573889346.848,79.590,97.168,-109.863,74.219,-95.215
1573889346.852,88.379,101.562,222.656,96.680,27.832
1573889346.856,87.402,97.656,351.074,101.562,151.367
1573889346.860,69.824,93.750,66.406,70.801,57.617
1573889346.864,62.012,95.703,-174.805,58.594,-104.980
1573889346.868,83.008,103.516,-56.152,85.449,-49.316
1573889346.872,98.145,115.723,243.652,104.004,141.113
1573889346.876,87.402,109.863,181.641,83.496,107.910
1573889346.880,74.219,98.145,-234.375,62.500,-88.379
1573889346.883,82.520,99.121,-214.844,83.008,-78.125
1573889346.887,104.004,101.562,326.172,111.816,125.000
1573889346.891,97.656,99.609,318.359,102.539,174.805
1573889346.895,76.660,89.844,-235.352,77.148,-2.441
1573889346.899,75.195,85.938,-264.648,83.496,-81.543
1573889346.903,92.285,85.938,334.473,112.305,75.195
1573889346.907,99.121,87.402,463.867,115.234,176.758
1573889346.911,86.426,90.332,-31.250,89.355,32.227
1573889346.915,77.637,92.285,-306.641,77.637,-111.816
1573889346.919,94.238,98.633,36.133,102.051,16.602
1573889346.923,108.398,101.074,329.102,116.211,175.781
1573889346.926,96.680,97.168,-262.207,91.309,48.828
1573889346.930,73.242,92.285,-686.035,70.801,-117.188
1573889346.934,73.242,90.820,-36.133,87.402,-49.316
1573889346.938,94.238,92.773,416.016,113.281,133.789
1573889346.942,98.633,99.121,130.859,104.980,129.395
1573889346.946,83.008,103.516,-333.496,79.590,-76.660
1573889346.950,79.590,102.539,-106.445,91.309,-104.980
1573889346.954,93.262,105.469,314.941,113.770,70.312
1573889346.958,95.703,110.840,113.770,106.445,125.000
1573889346.962,80.566,112.793,-306.641,78.125,-19.531
1573889346.965,74.219,113.281,-272.461,78.613,-95.703
1573889346.969,88.867,113.281,95.703,107.422,47.852
1573889346.973,91.309,108.887,-88.379,103.516,137.695
1573889346.977,68.359,106.934,-373.047,69.336,8.301
1573889346.981,64.453,108.398,-162.598,61.523,-106.934
1573889346.985,86.914,111.328,133.789,94.727,-19.531
1573889346.989,99.609,110.840,272.949,113.770,131.836
1573889346.993,86.914,102.539,111.816,92.285,92.285
1573889346.997,76.660,97.656,-87.891,79.102,-63.477
1573889347.001,95.703,98.145,37.109,111.816,-50.781
1573889347.005,116.699,101.074,156.738,140.625,100.098
1573889347.008,106.934,101.074,-162.598,120.605,86.914
1573889347.012,88.379,105.469,-465.332,96.191,-78.125
1573889347.016,85.449,108.398,-421.875,106.445,-116.211
1573889347.020,97.656,106.934,-139.648,126.953,55.176
1573889347.024,98.145,104.492,157.227,117.676,145.020
1573889347.028,85.449,103.027,-75.684,96.680,0.488
1573889347.032,84.473,105.469,-120.605,101.562,-69.336
1573889347.036,97.656,105.469,316.406,118.652,69.336
1573889347.040,107.422,106.445,446.777,122.559,164.551
1573889347.044,92.773,104.004,-8.789,95.703,45.898
1573889347.048,80.078,103.027,-257.324,79.590,-82.031
1573889347.051,92.773,101.562,46.387,105.469,-36.621
1573889347.055,98.145,96.191,166.504,114.258,110.840
1573889347.059,87.891,92.285,-238.281,84.961,82.031
1573889347.063,76.172,90.332,-774.414,62.012,-115.723
1573889347.067,71.777,91.309,-416.504,74.707,-100.098
1573889347.071,80.078,97.168,298.340,95.215,95.215
1573889347.075,83.984,98.145,92.773,86.914,119.141
1573889347.079,63.477,94.727,-334.961,61.523,-48.828
1573889347.083,53.711,96.191,-23.438,64.941,-71.777
1573889347.087,69.336,95.215,435.547,89.355,84.961
1573889347.090,78.613,92.285,236.328,90.332,138.184
1573889347.094,73.730,95.215,-246.094,68.359,-9.766
1573889347.098,73.242,93.262,-209.473,69.336,-109.863
1573889347.102,100.098,87.402,101.074,105.957,9.766
1573889347.106,117.188,89.355,-100.586,120.117,122.559
1573889347.110,103.516,93.750,-558.105,93.750,16.602
1573889347.114,87.402,92.285,-501.953,78.613,-131.836
1573889347.118,91.309,86.914,-99.609,93.750,-65.430
1573889347.122,104.492,87.402,195.801,106.934,110.840
1573889347.126,104.004,88.867,27.832,91.797,92.773
1573889347.130,88.867,88.379,-163.574,73.242,-71.289
1573889347.133,87.402,88.379,18.066,86.426,-80.566
1573889347.137,105.469,92.773,311.035,109.375,102.051
1573889347.141,104.980,95.215,267.578,99.609,156.250
1573889347.145,90.820,95.703,-117.676,77.148,-40.039
1573889347.149,87.891,95.215,-218.262,79.590,-114.258
1573889347.153,98.633,92.773,-179.688,94.238,22.949
1573889347.157,104.004,101.562,-77.148,95.215,124.023
1573889347.161,88.867,101.074,-61.035,71.777,31.738
1573889347.165,71.777,86.426,-192.383,58.105,-92.285
1573889347.169,78.125,82.520,55.176,77.148,-3.418
1573889347.173,83.984,88.867,230.957,84.473,142.090
1573889347.176,71.289,90.332,-36.621,61.523,71.289
1573889347.180,58.594,88.379,-290.527,47.363,-99.121
1573889347.184,63.965,86.914,-44.434,66.895,-61.035
1573889347.188,77.148,84.961,370.605,89.355,136.719
1573889347.192,73.730,81.055,204.590,79.102,126.465
1573889347.196,63.965,75.195,-475.098,59.082,-79.590
1573889347.200,64.453,76.660,-500.000,68.848,-94.238
1573889347.204,78.125,81.055,243.652,100.098,99.609
1573889347.208,82.031,75.195,256.836,95.703,142.090
1573889347.212,70.312,73.730,-273.438,66.406,-40.039
1573889347.215,67.871,70.801,-239.258,71.777,-90.332
1573889347.219,75.684,71.289,318.848,93.262,81.055
1573889347.223,84.961,77.637,417.480,96.680,167.480
1573889347.227,71.777,65.430,-134.766,71.777,32.715
1573889347.231,62.988,66.406,-294.922,62.988,-91.797
1573889347.235,80.078,77.148,284.668,92.773,13.672
1573889347.239,84.961,72.266,525.391,104.004,161.621
1573889347.243,78.125,66.895,18.066,76.660,76.660
1573889347.247,70.312,65.430,-345.703,58.594,-96.680
1573889347.251,65.430,65.430,89.844,73.242,-60.059
1573889347.255,77.148,67.871,468.750,89.844,99.609
1573889347.258,80.566,71.289,-52.734,76.172,87.891
1573889347.262,60.059,72.266,-197.266,48.340,-26.367
1573889347.266,54.688,71.777,331.543,50.781,-41.016
1573889347.270,69.336,76.172,586.426,74.707,85.449
1573889347.274,69.824,76.660,428.711,74.707,137.207
1573889347.278,50.781,73.242,144.531,45.410,-11.719
1573889347.282,39.551,69.824,209.473,38.086,-92.285
1573889347.286,55.664,70.312,519.043,68.359,39.551
1573889347.290,60.547,67.383,487.305,79.590,155.762
1573889347.294,52.246,66.895,38.574,62.988,32.227
1573889347.298,43.945,73.242,-25.879,57.617,-110.352
1573889347.301,51.758,75.195,181.641,76.172,-41.992
1573889347.305,72.266,76.660,276.367,92.773,130.859
1573889347.309,68.359,78.613,359.863,77.637,115.234
1573889347.313,58.594,75.195,116.211,60.059,-88.867
1573889347.317,66.406,74.219,297.363,77.637,-46.387
1573889347.321,79.590,73.730,728.516,98.633,161.133
1573889347.325,78.125,69.336,599.121,84.473,161.133
1573889347.329,67.383,68.359,134.766,62.988,-23.926
1573889347.333,64.453,74.707,128.418,69.824,-84.961
1573889347.337,75.684,82.520,413.086,93.750,67.871
1573889347.340,78.125,83.008,270.996,84.473,136.230
1573889347.344,55.664,73.730,-253.418,51.758,-34.180
1573889347.348,41.016,67.871,-509.766,42.969,-139.648
1573889347.352,51.758,78.125,57.617,65.918,9.766
1573889347.356,66.406,82.520,516.113,80.566,159.668
1573889347.360,56.152,72.754,35.645,53.711,43.945
1573889347.364,33.691,67.871,-308.105,26.367,-130.371
1573889347.368,32.227,66.895,180.664,40.527,-30.273
1573889347.372,49.316,68.848,538.086,57.129,159.668
1573889347.376,41.016,69.336,145.020,33.691,116.211
1573889347.380,23.926,73.242,-216.797,17.578,-58.594
1573889347.383,31.738,70.312,-96.680,38.086,-65.918
1573889347.387,46.387,63.965,217.285,61.035,95.215
1573889347.391,52.246,64.453,-73.730,56.641,103.516
1573889347.395,44.922,65.918,-650.879,38.574,-73.242
1573889347.399,45.410,68.359,-363.770,51.758,-124.512
1573889347.403,58.105,66.406,231.445,83.496,50.781
1573889347.407,67.383,64.941,263.184,88.379,157.715
1573889347.411,57.617,61.035,-135.254,63.965,25.879
1573889347.415,50.781,62.988,-129.395,60.059,-87.891
1573889347.419,64.941,72.266,237.305,89.844,30.762
1573889347.423,78.125,64.941,266.602,104.004,153.320
1573889347.426,71.777,50.293,-105.957,80.078,82.520
1573889347.430,54.199,51.270,-426.270,59.570,-71.289
1573889347.434,55.176,58.594,-293.945,70.312,-49.805
1573889347.438,65.918,58.105,-112.305,81.055,113.281
1573889347.442,59.082,59.570,-190.430,61.523,108.887
1573889347.446,39.551,64.941,-221.680,36.621,-29.297
1573889347.450,38.574,71.777,-78.613,47.363,-43.945
1573889347.454,54.199,76.660,0.977,66.895,95.215
1573889347.458,53.711,75.684,-10.254,57.617,152.832
1573889347.462,33.691,67.383,-178.223,29.297,-5.371
1573889347.465,21.484,62.500,-199.219,23.926,-96.680
1573889347.469,32.227,66.406,211.426,51.270,58.594
1573889347.473,35.645,64.453,348.145,52.246,160.156
1573889347.477,16.113,61.035,-148.438,18.555,33.203
1573889347.481,2.441,62.500,-516.602,3.418,-87.891
1573889347.485,11.230,64.453,-281.738,29.785,-19.043
1573889347.489,21.973,66.406,253.906,50.293,150.879
1573889347.493,21.973,64.941,132.324,38.574,96.680
1573889347.497,14.648,60.547,-258.301,22.949,-94.727
1573889347.501,20.996,61.035,10.742,39.062,-63.965
1573889347.505,36.621,63.965,490.723,62.012,130.859
1573889347.508,42.969,66.406,298.340,54.688,136.230
1573889347.512,44.434,66.895,-241.211,41.504,-55.176
1573889347.516,51.270,69.824,-116.211,56.152,-101.074
1573889347.520,64.941,71.777,432.129,81.055,76.172
1573889347.524,68.848,67.383,296.875,76.660,157.715
1573889347.528,58.105,64.941,-475.586,50.293,-13.672
1573889347.532,45.898,64.941,-440.430,45.410,-117.676
1573889347.536,53.223,65.430,343.262,71.289,35.645
1573889347.540,69.824,63.965,398.438,80.566,149.902
1573889347.544,59.570,64.453,-71.289,55.176,39.551
1573889347.548,40.039,69.336,-109.375,41.992,-92.285
1573889347.551,50.293,66.895,313.477,65.430,-3.418
1573889347.555,68.359,58.105,471.680,86.914,160.156
1573889347.559,62.500,56.641,61.523,71.289,84.961
1573889347.563,43.945,54.199,-175.781,44.922,-82.520
1573889347.567,42.480,50.293,93.262,55.176,-44.922
1573889347.571,51.758,51.270,87.402,71.289,93.750
1573889347.575,38.574,60.059,-241.699,46.387,91.797
1573889347.579,12.207,64.453,-274.902,16.113,-48.340
1573889347.583,13.672,61.523,-73.242,24.902,-110.840
1573889347.587,33.203,55.664,160.645,53.711,28.320
1573889347.590,38.574,50.293,101.562,57.129,107.910
1573889347.594,26.855,49.316,-96.680,34.180,0.488
1573889347.598,23.926,59.082,-83.008,32.715,-92.773
1573889347.602,43.945,62.988,111.328,62.988,7.812
1573889347.606,55.176,56.641,235.352,72.754,150.391
1573889347.610,46.387,59.570,53.711,49.805,75.195
1573889347.614,48.340,56.641,-173.828,39.062,-83.008
1573889347.618,60.059,50.293,-67.871,59.570,-39.551
1573889347.622,71.777,52.246,64.453,76.660,120.605
1573889347.626,64.453,50.781,-108.398,57.617,110.352
1573889347.630,49.805,51.758,-406.738,37.109,-76.172
1573889347.633,59.570,56.641,-510.254,53.711,-120.117
1573889347.637,70.801,56.641,-82.031,75.195,72.754
1573889347.641,63.965,56.152,86.426,60.547,121.094
1573889347.645,49.316,59.082,-346.680,33.691,-54.688
1573889347.649,39.062,57.129,-310.059,29.785,-113.281
1573889347.653,46.875,53.711,235.840,53.711,51.758
1573889347.657,55.176,58.105,312.500,60.059,157.227
1573889347.661,33.203,57.129,-111.328,31.738,45.410
1573889347.665,17.578,43.457,-387.207,21.484,-102.051
1573889347.669,26.367,39.551,-177.734,42.969,-31.738
1573889347.673,33.203,43.945,108.398,49.316,130.371
1573889347.676,23.926,41.016,-324.219,29.785,45.410
1573889347.680,12.207,39.551,-854.004,17.578,-144.531
1573889347.684,17.090,46.875,-264.648,38.086,-60.059
1573889347.688,37.109,52.246,317.871,62.988,126.953
1573889347.692,44.434,56.152,-5.859,49.805,86.426
1573889347.696,34.668,63.965,-337.891,28.809,-80.078
1573889347.700,38.574,61.523,-80.078,44.434,-104.980
1573889347.704,59.570,49.805,282.715,77.148,68.359
1573889347.708,66.895,42.969,129.883,80.566,123.535
1573889347.712,53.711,43.457,-394.043,54.199,-40.039
1573889347.715,41.992,43.457,-367.188,45.410,-107.910
1573889347.719,56.641,46.387,118.164,71.289,28.320
1573889347.723,69.336,49.316,-97.656,76.660,123.047
1573889347.727,51.270,47.852,-435.547,45.898,6.836
1573889347.731,40.039,51.270,-190.430,33.691,-96.680
1573889347.735,54.199,51.270,117.676,54.199,0.000
