timestamps,TP9,AF7,AF8,TP10,Right AUX
1573889166.145,-0.488,92.285,-543.945,4.395,-109.863
1573889166.149,25.879,104.492,-298.340,41.504,18.066
1573889166.153,36.133,111.328,-635.254,42.969,86.914
1573889166.157,17.090,109.863,-931.152,5.371,-35.156
1573889166.161,2.930,109.863,-672.852,1.953,-133.789
1573889166.165,21.484,111.328,-412.109,41.992,-5.859
1573889166.169,41.016,107.910,-767.578,50.293,104.980
1573889166.173,15.625,105.957,-1000.000,14.160,0.488
1573889166.176,-0.488,110.840,-803.223,-0.488,-130.859
1573889166.180,18.066,119.141,-443.359,28.320,-69.824
1573889166.184,32.715,120.117,-347.656,47.852,102.539
1573889166.188,22.949,116.699,-697.266,31.250,79.590
1573889166.192,-2.930,121.582,-953.613,3.418,-103.516
1573889166.196,-4.883,133.301,-672.852,7.812,-117.676
1573889166.200,19.531,142.090,-365.234,43.457,65.430
1573889166.204,26.855,132.324,-523.438,33.203,128.418
1573889166.208,-0.488,119.629,-822.754,-7.812,-33.691
1573889166.212,-9.766,121.094,-752.441,2.930,-123.047
1573889166.215,17.090,117.676,-541.504,40.039,14.648
1573889166.219,24.414,104.492,-625.000,41.992,116.211
1573889166.223,0.977,105.957,-879.395,3.906,5.859
1573889166.227,-7.812,116.211,-991.211,-3.906,-172.852
1573889166.231,4.395,122.559,-749.512,27.344,-83.008
1573889166.235,16.602,117.676,-470.703,41.016,125.488
1573889166.239,7.812,98.633,-749.023,16.113,56.152
1573889166.243,-12.695,96.680,-885.742,-9.766,-118.652
1573889166.247,-9.277,103.516,-457.520,6.348,-77.637
1573889166.251,14.160,92.285,-154.297,30.762,96.680
1573889166.255,18.555,71.289,-533.691,18.066,80.078
1573889166.258,-2.930,64.941,-952.637,-11.719,-122.070
1573889166.262,-8.789,75.684,-637.695,-3.906,-147.949
1573889166.266,15.625,75.684,-88.867,26.367,53.223
1573889166.270,30.762,53.711,-407.715,22.461,94.238
1573889166.274,3.906,38.574,-969.238,-10.742,-87.891
1573889166.278,-28.320,41.016,-513.672,-18.066,-146.484
1573889166.282,-7.812,39.551,111.328,12.207,26.367
1573889166.286,26.855,39.062,-146.973,23.926,120.117
1573889166.290,11.719,36.621,-721.191,0.000,-41.504
1573889166.294,-26.367,32.715,-559.082,-21.973,-168.945
1573889166.298,-20.020,37.109,-34.668,2.441,-48.340
1573889166.301,14.160,35.645,-139.160,33.203,101.562
1573889166.305,2.930,37.598,-727.539,9.766,33.691
1573889166.309,-24.414,53.711,-804.688,-18.066,-109.375
1573889166.313,-18.555,56.152,-279.785,11.230,-78.125
1573889166.317,18.066,36.133,-382.324,42.969,47.363
1573889166.321,21.973,26.855,-888.184,24.902,38.086
1573889166.325,-9.766,35.645,-733.887,-8.789,-98.633
1573889166.329,-10.742,38.574,-339.844,4.883,-133.789
1573889166.333,7.324,36.133,-180.176,39.551,0.488
1573889166.337,15.625,36.133,-386.719,30.273,83.496
1573889166.340,6.836,27.344,-640.137,-5.859,-39.551
1573889166.344,-8.789,22.949,-505.859,-4.883,-133.301
1573889166.348,6.348,29.297,-184.570,38.086,-18.555
1573889166.352,25.879,26.855,-327.637,47.363,122.070
1573889166.356,12.207,20.996,-801.758,15.625,19.043
1573889166.360,1.953,27.344,-947.754,2.441,-169.922
1573889166.364,11.230,38.574,-679.199,28.809,-88.867
1573889166.368,28.809,35.645,-383.789,48.828,80.566
1573889166.372,27.344,29.297,-598.633,24.902,29.785
1573889166.376,4.395,29.297,-842.285,-1.953,-139.648
1573889166.380,8.301,41.992,-461.426,21.484,-121.582
1573889166.383,33.203,54.688,-106.445,61.523,55.664
1573889166.387,35.156,45.898,-393.066,45.898,99.121
1573889166.391,8.301,34.668,-779.297,7.812,-69.824
1573889166.395,1.953,33.691,-501.953,15.137,-121.094
1573889166.399,30.762,42.480,-191.406,53.223,30.762
1573889166.403,39.062,48.340,-503.418,49.805,121.094
1573889166.407,19.531,41.992,-944.336,8.301,-28.320
1573889166.411,0.000,41.992,-774.414,-4.883,-155.762
1573889166.415,5.859,53.223,-146.484,28.320,8.301
1573889166.419,29.785,50.781,-310.547,49.316,113.770
1573889166.423,17.578,40.527,-869.141,15.137,-13.184
1573889166.426,-8.789,46.387,-714.844,-10.254,-130.371
1573889166.430,0.488,55.176,-136.719,21.484,-43.457
1573889166.434,24.414,53.223,-185.547,47.363,92.285
1573889166.438,11.719,55.664,-708.984,21.484,51.758
1573889166.442,-15.625,63.477,-887.207,-1.465,-118.652
1573889166.446,-9.766,70.801,-625.977,21.973,-127.441
1573889166.450,13.672,71.289,-500.977,49.805,56.152
1573889166.454,21.973,64.453,-892.578,38.574,72.266
1573889166.458,-1.953,68.359,-950.195,7.324,-63.965
1573889166.462,-11.230,69.824,-550.781,7.324,-129.883
1573889166.465,9.277,70.801,-296.875,44.922,-0.977
1573889166.469,27.344,68.359,-546.387,53.711,109.863
1573889166.473,18.555,60.059,-869.629,21.973,-8.301
1573889166.477,-1.953,54.199,-598.145,15.137,-114.258
1573889166.481,12.207,56.641,-199.219,46.875,-16.113
1573889166.485,34.668,61.523,-189.941,56.152,148.438
1573889166.489,21.484,58.594,-591.309,30.762,44.922
1573889166.493,2.441,61.035,-750.488,16.113,-122.559
1573889166.497,20.020,74.707,-689.941,40.039,-104.492
1573889166.501,35.156,78.125,-618.652,55.664,57.129
1573889166.505,21.484,71.777,-534.668,28.809,106.445
1573889166.508,-4.395,66.406,-662.109,-0.977,-68.359
1573889166.512,-5.371,64.941,-383.301,10.254,-89.355
1573889166.516,21.484,62.500,-113.770,42.480,44.922
1573889166.520,25.879,60.059,-331.055,37.598,101.562
1573889166.524,4.883,54.688,-623.047,2.930,-13.672
1573889166.528,-4.395,59.082,-592.285,1.953,-123.047
1573889166.532,6.348,64.941,-211.426,38.574,2.441
1573889166.536,13.672,59.082,-171.387,43.945,140.625
1573889166.540,6.836,52.246,-722.656,7.812,-1.465
1573889166.544,-6.348,53.711,-964.844,-6.348,-189.453
1573889166.548,-1.465,59.082,-445.801,23.438,-76.660
1573889166.551,25.879,54.688,-193.359,50.781,98.145
1573889166.555,20.508,49.805,-648.438,25.391,48.340
1573889166.559,-6.836,49.316,-774.902,-3.906,-114.258
1573889166.563,4.395,49.805,-266.602,20.508,-82.520
1573889166.567,30.762,50.781,-98.633,53.711,75.195
1573889166.571,24.902,49.316,-600.098,36.133,65.430
1573889166.575,1.953,51.758,-836.426,0.488,-77.148
1573889166.579,3.418,50.293,-364.258,14.160,-97.168
1573889166.583,28.320,37.598,-159.668,52.734,38.574
1573889166.587,40.039,28.809,-652.344,50.781,95.215
1573889166.590,14.648,24.414,-1000.000,15.625,-65.430
1573889166.594,-4.395,22.461,-719.238,8.789,-149.414
1573889166.598,14.648,18.555,-272.461,40.039,-16.113
1573889166.602,32.715,10.254,-629.395,48.828,72.266
1573889166.606,11.230,11.230,-1000.000,9.766,-23.438
1573889166.610,-8.301,17.578,-805.664,-4.883,-151.367
1573889166.614,9.277,15.625,-321.289,26.855,-35.156
1573889166.618,32.715,9.766,-312.012,49.316,132.324
1573889166.622,26.367,8.301,-793.457,20.996,39.551
1573889166.626,3.418,8.301,-879.395,-6.836,-118.164
1573889166.630,9.277,8.789,-589.844,23.438,-114.258
1573889166.633,31.250,7.812,-617.676,53.711,37.109
1573889166.637,23.926,12.207,-892.090,27.344,85.449
1573889166.641,-1.953,17.090,-947.754,-5.371,-72.754
1573889166.645,-0.488,22.461,-741.211,7.812,-129.883
1573889166.649,20.508,25.879,-768.555,31.250,-6.348
1573889166.653,18.066,25.391,-882.812,26.855,82.031
1573889166.657,3.418,25.879,-954.102,0.977,-24.902
1573889166.661,-12.207,31.250,-824.707,-5.371,-126.953
1573889166.665,3.418,37.598,-462.891,26.855,-27.832
1573889166.669,23.926,31.250,-423.828,32.715,115.723
1573889166.673,7.324,24.414,-778.320,-2.930,48.340
1573889166.676,-11.719,31.738,-892.090,-18.555,-116.699
1573889166.680,6.348,35.156,-631.836,15.137,-59.082
1573889166.684,28.809,15.137,-702.637,37.109,83.496
1573889166.688,9.766,-0.977,-978.027,1.953,43.945
1573889166.692,-17.578,5.859,-984.863,-26.367,-116.211
1573889166.696,-13.672,17.578,-799.805,1.953,-127.930
1573889166.700,10.254,28.320,-673.340,36.133,48.828
1573889166.704,-0.488,33.691,-853.516,10.742,88.867
1573889166.708,-41.504,37.598,-1000.000,-41.504,-92.773
1573889166.712,-56.641,38.574,-837.402,-42.480,-153.320
1573889166.715,-46.875,28.809,-514.648,-14.160,27.832
1573889166.719,-41.992,26.855,-722.168,-23.926,111.328
1573889166.723,-59.570,39.062,-1000.000,-62.500,-41.992
1573889166.727,-91.797,49.805,-944.336,-83.008,-135.742
1573889166.731,-87.891,54.688,-720.215,-63.965,-4.883
1573889166.735,-68.359,59.570,-736.328,-53.223,124.023
1573889166.739,-83.496,62.500,-986.328,-91.797,15.137
1573889166.743,-119.629,62.012,-949.219,-127.441,-144.531
1573889166.747,-124.512,61.523,-541.016,-108.887,-67.383
1573889166.751,-99.121,52.734,-506.348,-79.590,109.863
1573889166.755,-107.422,43.945,-937.012,-104.004,67.871
1573889166.758,-141.113,46.875,-958.008,-140.625,-86.914
1573889166.762,-144.043,51.270,-636.719,-134.277,-95.703
1573889166.766,-121.582,63.965,-505.859,-104.004,52.734
1573889166.770,-123.535,73.242,-787.109,-114.746,115.234
1573889166.774,-153.320,68.359,-1000.000,-165.527,-57.617
1573889166.778,-161.133,71.777,-877.441,-165.527,-142.578
1573889166.782,-137.695,73.242,-824.707,-122.070,-18.066
1573889166.786,-125.977,69.336,-967.773,-125.000,76.660
1573889166.790,-158.203,68.848,-985.840,-167.480,-17.090
1573889166.794,-170.898,70.312,-878.418,-168.457,-139.160
1573889166.798,-142.578,76.172,-582.031,-125.488,-38.086
1573889166.801,-124.023,74.707,-518.066,-107.422,117.676
1573889166.805,-136.230,69.824,-798.340,-133.789,79.102
1573889166.809,-147.949,73.242,-981.445,-153.809,-97.656
1573889166.813,-131.348,84.961,-661.621,-120.117,-70.312
1573889166.817,-113.770,89.355,-395.020,-86.426,106.934
1573889166.821,-123.047,72.754,-783.691,-110.352,83.008
1573889166.825,-135.742,65.918,-1000.000,-140.625,-104.004
1573889166.829,-127.930,75.195,-893.555,-122.559,-138.672
1573889166.833,-111.328,84.961,-580.566,-90.332,43.945
1573889166.837,-100.586,86.426,-684.570,-89.355,110.840
1573889166.840,-101.074,89.844,-1000.000,-105.957,-51.270
1573889166.844,-118.164,96.191,-764.648,-111.328,-137.207
1573889166.848,-106.934,92.773,-382.812,-78.613,-13.672
1573889166.852,-73.730,81.055,-456.055,-53.711,111.816
1573889166.856,-78.125,78.125,-878.418,-80.078,11.230
1573889166.860,-100.098,84.961,-817.871,-98.633,-127.441
1573889166.864,-92.773,84.961,-343.262,-72.266,-38.574
1573889166.868,-62.012,80.078,-405.762,-44.922,123.047
1573889166.872,-56.152,68.359,-863.770,-59.570,61.035
1573889166.876,-86.914,57.617,-878.418,-93.750,-111.328
1573889166.880,-98.145,61.035,-267.090,-80.078,-63.477
1573889166.883,-61.035,58.594,-100.586,-35.645,70.801
1573889166.887,-42.480,41.504,-627.441,-44.434,65.918
1573889166.891,-59.082,42.480,-795.410,-72.266,-71.777
1573889166.895,-65.430,62.500,-351.562,-60.547,-111.328
1573889166.899,-45.410,62.012,-87.402,-26.855,45.410
1573889166.903,-38.086,49.805,-399.902,-33.691,136.719
1573889166.907,-62.012,46.875,-709.961,-69.336,-11.230
1573889166.911,-68.359,44.922,-444.824,-63.965,-109.375
1573889166.915,-44.434,37.109,-275.391,-24.414,-3.418
1573889166.919,-27.832,36.621,-747.070,-17.090,101.562
1573889166.923,-52.734,46.387,-1000.000,-51.270,-5.371
1573889166.926,-78.613,50.781,-838.379,-68.848,-156.250
1573889166.930,-63.477,45.898,-442.871,-41.992,-67.383
1573889166.934,-44.434,36.133,-297.363,-16.602,119.141
1573889166.938,-48.340,28.320,-599.121,-36.621,83.984
1573889166.942,-58.594,27.832,-762.207,-53.223,-98.633
1573889166.946,-64.453,27.832,-494.141,-37.109,-109.863
1573889166.950,-55.176,22.461,-317.871,-21.484,58.594
1573889166.954,-40.039,14.160,-562.988,-20.020,104.492
1573889166.958,-49.316,17.578,-858.398,-42.480,-57.617
1573889166.962,-63.477,36.621,-754.395,-51.270,-128.906
1573889166.965,-51.270,41.504,-572.754,-20.508,3.906
1573889166.969,-23.926,38.574,-674.316,-9.277,92.285
1573889166.973,-26.855,31.250,-851.074,-29.297,-16.602
1573889166.977,-42.969,12.207,-965.820,-36.621,-162.109
1573889166.981,-21.973,0.000,-770.020,-0.488,-67.383
1573889166.985,-5.371,10.254,-521.484,16.113,105.469
1573889166.989,-23.438,14.648,-773.926,-16.602,54.199
1573889166.993,-28.320,9.766,-913.574,-35.645,-114.258
1573889166.997,-20.996,3.906,-428.711,-18.066,-59.570
1573889167.001,0.488,1.953,-192.871,17.578,117.676
1573889167.005,13.184,1.953,-662.598,9.277,82.031
1573889167.008,-21.973,-6.348,-1000.000,-31.250,-96.680
1573889167.012,-38.574,-0.488,-761.719,-17.090,-121.582
1573889167.016,0.488,9.766,-375.488,30.273,44.922
1573889167.020,20.508,19.043,-649.414,24.902,87.891
1573889167.024,-15.137,27.344,-987.305,-27.832,-46.387
1573889167.028,-29.297,36.133,-566.406,-31.250,-99.609
1573889167.032,-1.465,47.363,-82.031,13.672,47.363
1573889167.036,17.090,54.688,-420.410,25.879,135.742
1573889167.040,1.953,50.293,-979.492,-4.395,-19.043
1573889167.044,-24.414,48.340,-821.777,-19.531,-154.297
1573889167.048,-14.160,51.270,-377.441,13.184,-42.480
1573889167.051,13.672,37.109,-519.043,37.109,112.305
1573889167.055,8.789,28.809,-935.059,5.371,30.762
1573889167.059,-25.879,41.016,-1000.000,-25.879,-152.344
1573889167.063,-27.344,45.410,-698.242,-5.371,-96.191
1573889167.067,9.766,30.762,-685.059,26.367,73.242
1573889167.071,8.301,24.414,-992.188,5.859,31.250
1573889167.075,-23.926,31.250,-985.840,-24.414,-128.906
1573889167.079,-23.438,38.086,-746.094,-3.418,-125.488
1573889167.083,7.324,42.480,-546.875,34.180,38.574
1573889167.087,8.789,42.969,-757.812,24.414,97.656
1573889167.090,-12.695,41.504,-980.469,-8.301,-42.969
1573889167.094,-10.254,41.504,-937.012,2.441,-141.113
1573889167.098,16.113,43.457,-593.262,41.016,3.418
1573889167.102,27.344,54.199,-693.359,47.363,109.863
1573889167.106,11.230,70.801,-999.023,10.742,-25.879
1573889167.110,8.789,83.984,-913.574,-0.977,-144.043
1573889167.114,14.160,85.938,-880.859,23.926,-73.730
1573889167.118,14.648,86.914,-704.590,27.832,95.703
1573889167.122,6.348,85.938,-760.742,6.836,68.848
1573889167.126,-7.324,89.844,-951.660,-11.230,-106.445
1573889167.130,8.789,95.215,-538.574,17.090,-65.918
1573889167.133,24.414,83.496,-252.930,43.457,96.680
1573889167.137,11.719,66.895,-602.051,20.508,112.793
1573889167.141,-3.418,62.012,-943.359,-4.883,-53.711
1573889167.145,-5.371,62.988,-678.223,0.000,-112.793
1573889167.149,11.719,63.477,-437.988,28.320,47.852
1573889167.153,24.414,62.988,-785.645,32.227,104.492
1573889167.157,6.348,57.129,-1000.000,0.000,-67.383
1573889167.161,-17.578,53.711,-834.473,-11.719,-162.109
1573889167.165,-4.883,52.246,-364.746,19.043,0.488
1573889167.169,23.438,48.340,-420.410,39.062,139.160
1573889167.173,13.672,52.246,-920.410,9.766,23.438
1573889167.176,-13.672,53.223,-911.621,-17.090,-137.695
1573889167.180,5.859,58.105,-401.367,15.137,-50.781
1573889167.184,30.273,51.270,-409.668,44.922,103.516
1573889167.188,13.672,33.691,-911.133,9.766,39.062
1573889167.192,-8.301,30.273,-949.219,-17.090,-113.281
1573889167.196,0.977,40.527,-671.387,14.648,-99.609
1573889167.200,25.879,49.316,-645.996,44.922,71.289
1573889167.204,28.809,45.410,-931.641,25.391,94.238
1573889167.208,4.883,46.387,-995.117,-10.742,-74.707
1573889167.212,-2.930,45.410,-554.688,-0.488,-84.473
1573889167.215,17.090,36.133,-273.926,39.551,62.988
1573889167.219,25.391,36.621,-611.328,31.738,123.535
1573889167.223,6.348,41.016,-912.598,-7.324,-9.766
1573889167.227,-10.742,35.156,-737.793,-10.254,-126.953
1573889167.231,3.906,24.414,-386.719,26.367,-9.766
1573889167.235,20.020,19.043,-547.852,34.180,103.027
1573889167.239,5.859,23.438,-900.391,-7.812,-3.418
1573889167.243,-1.953,32.227,-972.656,-7.812,-177.734
1573889167.247,5.371,32.715,-923.828,24.414,-116.211
1573889167.251,13.184,34.668,-841.797,29.785,74.219
1573889167.255,9.766,41.504,-887.207,13.672,54.199
1573889167.258,-11.230,51.758,-880.371,-11.230,-73.242
1573889167.262,-2.930,49.316,-665.527,10.742,-89.355
1573889167.266,26.367,41.016,-516.113,47.363,52.246
1573889167.270,27.832,38.086,-626.953,37.109,108.398
1573889167.274,16.113,40.039,-977.051,18.066,-77.637
1573889167.278,12.695,41.504,-765.625,25.391,-129.883
1573889167.282,19.531,42.480,-283.691,44.434,33.691
1573889167.286,29.785,43.945,-512.207,42.969,122.070
1573889167.290,29.297,42.480,-959.473,27.832,0.977
1573889167.294,16.113,47.363,-966.309,20.996,-136.719
1573889167.298,14.648,42.969,-513.672,39.062,-24.902
1573889167.301,33.691,40.527,-348.145,55.664,137.695
1573889167.305,29.785,49.805,-824.219,26.367,37.109
1573889167.309,4.395,57.129,-916.016,0.977,-127.930
1573889167.313,6.348,62.012,-425.781,18.066,-60.547
1573889167.317,30.762,53.223,-194.336,47.852,130.371
1573889167.321,32.227,38.574,-694.336,33.691,110.352
1573889167.325,3.906,44.922,-946.777,2.441,-61.035
1573889167.329,-4.883,53.223,-491.211,19.043,-83.496
1573889167.333,18.066,43.945,-243.164,57.129,67.383
1573889167.337,25.879,37.109,-665.039,41.992,106.934
1573889167.340,-2.441,50.781,-1000.000,-11.719,-68.848
1573889167.344,-14.160,66.895,-709.473,-8.301,-125.000
1573889167.348,8.301,54.199,-259.277,34.668,30.273
1573889167.352,20.996,31.250,-646.484,38.574,87.891
1573889167.356,-1.465,25.879,-1000.000,3.418,-18.066
1573889167.360,-21.973,34.180,-795.898,-11.719,-116.211
1573889167.364,-6.348,42.969,-427.734,18.066,-40.527
1573889167.368,16.113,38.574,-488.770,47.363,107.422
1573889167.372,12.695,31.738,-846.680,19.043,42.480
1573889167.376,-8.789,26.367,-892.578,-9.766,-103.027
1573889167.380,-1.465,21.973,-593.262,21.484,-68.848
1573889167.383,29.297,7.324,-555.176,62.500,76.660
1573889167.387,23.926,-8.789,-879.395,43.457,82.031
1573889167.391,-6.348,-10.742,-907.227,-5.859,-59.082
1573889167.395,0.000,-14.160,-656.738,8.301,-94.238
1573889167.399,32.715,-8.789,-659.180,49.316,34.180
1573889167.403,31.738,-6.836,-733.887,37.109,111.816
1573889167.407,12.207,-10.254,-819.824,5.371,-19.043
1573889167.411,3.418,-2.930,-684.082,0.000,-112.793
1573889167.415,17.090,-3.906,-368.164,25.879,-6.836
1573889167.419,30.762,-3.906,-421.875,36.621,107.422
1573889167.423,13.184,-3.418,-840.332,5.859,2.441
1573889167.426,-5.859,-1.465,-911.621,-7.812,-154.785
1573889167.430,1.953,3.906,-614.258,19.043,-76.172
1573889167.434,17.090,7.324,-655.273,36.621,83.008
1573889167.438,11.230,13.184,-920.410,12.695,40.527
1573889167.442,-9.277,20.508,-1000.000,-13.184,-150.879
1573889167.446,-11.230,27.344,-747.070,-2.930,-145.508
1573889167.450,16.602,31.738,-337.402,30.762,66.406
1573889167.454,27.832,27.344,-585.449,26.367,111.816
1573889167.458,-10.742,9.766,-974.609,-14.648,-60.059
1573889167.462,-20.996,4.883,-692.383,-5.859,-130.371
1573889167.465,5.371,12.695,-255.859,26.367,38.574
1573889167.469,22.949,16.602,-537.109,29.297,117.676
1573889167.473,14.160,19.531,-933.594,5.371,-20.996
1573889167.477,-1.465,14.160,-752.930,1.953,-118.652
1573889167.481,8.301,-6.348,-368.652,35.156,-20.508
1573889167.485,32.227,-19.531,-414.062,57.129,110.352
1573889167.489,31.250,-15.137,-943.359,33.691,20.020
1573889167.493,3.418,-5.859,-769.531,13.184,-134.766
1573889167.497,16.602,-3.418,-131.348,43.945,-60.547
1573889167.501,44.434,-4.395,-156.738,64.941,83.008
1573889167.505,27.344,-6.836,-534.668,34.180,54.688
1573889167.508,2.930,-0.488,-566.406,-3.418,-106.445
1573889167.512,13.672,17.578,-157.227,17.090,-116.699
1573889167.516,32.715,20.020,48.340,45.898,60.547
1573889167.520,32.227,7.324,-355.469,27.344,80.566
1573889167.524,10.742,3.418,-701.660,-5.371,-51.758
1573889167.528,0.488,9.277,-436.523,0.000,-112.793
1573889167.532,24.902,3.418,-324.219,33.691,0.488
1573889167.536,25.391,-12.695,-596.191,29.785,118.164
1573889167.540,-4.395,-20.508,-642.090,-8.789,5.859
1573889167.544,-11.719,-17.578,-512.695,-13.184,-126.953
1573889167.548,9.766,-4.883,-233.398,21.484,-23.926
1573889167.551,26.367,5.371,-200.684,33.203,122.559
1573889167.555,12.207,2.441,-508.789,8.301,47.852
1573889167.559,-16.602,-12.207,-665.039,-22.461,-127.930
1573889167.563,-9.766,-17.578,-318.359,-0.977,-71.289
1573889167.567,25.879,-14.648,-65.430,43.945,124.023
1573889167.571,25.391,-11.719,-533.203,24.902,114.258
1573889167.575,-3.906,0.977,-969.727,-15.137,-76.172
1573889167.579,-1.953,7.324,-830.566,0.488,-117.676
1573889167.583,22.461,11.230,-390.137,30.762,50.781
1573889167.587,34.668,18.555,-373.047,36.621,117.188
1573889167.590,13.672,10.742,-722.656,9.766,-20.996
1573889167.594,-8.789,5.371,-541.016,1.953,-107.910
1573889167.598,15.625,5.371,-37.109,43.945,34.180
1573889167.602,47.852,1.465,-343.750,63.965,114.258
1573889167.606,29.785,17.090,-962.402,33.691,-26.855
1573889167.610,0.000,30.273,-716.797,12.207,-114.258
1573889167.614,9.766,32.715,-157.715,31.250,-14.648
1573889167.618,38.574,32.715,-350.098,52.734,116.699
1573889167.622,38.574,20.020,-912.598,35.645,22.949
1573889167.626,6.836,17.090,-886.230,2.441,-146.973
1573889167.630,1.465,29.297,-312.012,16.113,-69.336
1573889167.633,21.973,36.621,-163.086,46.875,79.590
1573889167.637,20.508,39.062,-715.332,33.203,61.523
1573889167.641,-9.277,49.316,-923.340,-6.348,-97.168
1573889167.645,-13.672,61.035,-513.184,1.953,-139.648
1573889167.649,17.090,60.547,-259.766,46.387,28.320
1573889167.653,20.020,54.199,-568.359,42.480,110.840
1573889167.657,-6.348,61.035,-913.086,-7.812,-26.367
1573889167.661,-13.672,71.777,-734.375,-10.742,-122.070
1573889167.665,10.254,71.289,-511.230,35.156,-1.953
1573889167.669,27.832,61.523,-841.309,41.016,79.102
1573889167.673,11.719,59.570,-1000.000,3.418,-8.301
1573889167.676,-6.348,67.871,-799.316,-15.137,-107.422
1573889167.680,22.949,73.242,-463.379,23.926,-41.504
1573889167.684,45.898,71.777,-505.859,53.223,98.633
1573889167.688,24.902,72.754,-787.598,21.484,68.359
1573889167.692,-2.441,83.984,-826.660,-8.789,-86.426
1573889167.696,1.953,99.121,-546.387,15.137,-95.703
1573889167.700,28.320,110.840,-424.805,51.758,55.176
1573889167.704,25.391,119.629,-639.160,39.062,103.027
1573889167.708,11.719,134.277,-894.531,12.207,-67.871
1573889167.712,17.090,149.902,-914.062,23.926,-142.578
1573889167.715,38.086,161.621,-778.320,58.105,4.395
1573889167.719,37.598,176.758,-705.078,55.664,83.496
1573889167.723,-1.953,195.801,-803.223,4.395,-24.414
1573889167.727,-17.578,205.566,-688.477,-9.277,-131.836
1573889167.731,11.719,215.332,-267.578,35.156,-20.020
1573889167.735,33.203,219.238,-241.211,49.316,117.188
1573889167.739,9.277,213.867,-737.793,16.602,9.766
1573889167.743,-22.949,211.914,-834.473,-7.812,-137.695
1573889167.747,-3.418,216.309,-278.320,29.297,-32.227
1573889167.751,34.668,224.609,-104.004,62.988,148.438
1573889167.755,21.973,230.469,-627.930,27.344,81.055
1573889167.758,-1.953,238.281,-980.957,-3.418,-119.141
1573889167.762,8.789,249.512,-675.781,25.391,-117.188
1573889167.766,30.762,251.465,-284.180,62.012,67.871
1573889167.770,34.668,238.770,-610.352,46.387,71.777
1573889167.774,11.230,235.840,-1000.000,10.254,-128.418
1573889167.778,3.418,247.070,-612.793,20.508,-151.855
1573889167.782,33.203,237.793,-157.715,61.523,22.949
1573889167.786,46.875,228.516,-453.125,52.246,114.746
1573889167.790,19.043,231.445,-940.430,6.348,-35.156
1573889167.794,-1.953,236.816,-676.758,-4.395,-137.695
1573889167.798,25.391,240.723,-164.062,35.156,-7.324
1573889167.801,49.805,234.375,-341.797,56.641,109.375
1573889167.805,28.320,221.680,-876.465,19.043,17.090
1573889167.809,-1.953,223.633,-983.887,-12.695,-141.602
1573889167.813,8.301,239.746,-501.465,15.625,-63.477
1573889167.817,41.016,234.863,-487.305,56.152,105.469
1573889167.821,28.320,216.797,-1000.000,25.879,45.410
1573889167.825,-7.812,218.750,-859.375,-19.043,-87.402
1573889167.829,0.977,215.820,-482.422,7.812,-83.984
1573889167.833,32.227,216.309,-364.746,51.270,59.082
1573889167.837,41.504,219.727,-589.355,44.434,95.703
1573889167.840,27.344,218.262,-815.430,11.230,-51.270
1573889167.844,13.672,217.285,-647.461,14.160,-128.906
1573889167.848,21.484,211.426,-387.695,41.016,-5.859
1573889167.852,27.832,198.242,-588.867,41.992,111.816
1573889167.856,15.137,187.500,-947.754,15.625,-6.348
1573889167.860,4.883,179.199,-920.898,12.207,-161.621
1573889167.864,18.066,170.898,-802.246,46.387,-76.660
1573889167.868,35.156,165.039,-652.344,64.453,90.332
1573889167.872,20.020,154.785,-810.059,39.551,29.785
1573889167.876,3.418,155.762,-970.215,24.414,-133.301
1573889167.880,18.066,157.227,-566.895,54.199,-91.797
1573889167.883,41.016,147.461,-395.020,79.102,60.547
1573889167.887,28.809,135.742,-815.918,52.734,68.359
1573889167.891,4.395,135.254,-1000.000,18.066,-94.238
1573889167.895,15.625,140.625,-675.293,31.250,-139.648
1573889167.899,39.062,137.695,-418.457,61.523,39.062
1573889167.903,34.668,140.625,-721.191,46.875,129.883
1573889167.907,4.395,140.625,-1000.000,1.953,-53.223
1573889167.911,-2.930,139.648,-788.086,4.883,-156.738
1573889167.915,25.879,145.508,-257.324,46.875,20.996
1573889167.919,32.715,151.367,-438.477,41.504,128.906
1573889167.923,3.906,146.973,-975.098,-6.836,1.953
1573889167.926,-11.230,136.719,-805.176,-17.090,-118.652
1573889167.930,1.953,127.441,-275.879,13.672,-24.414
1573889167.934,21.973,116.699,-391.113,35.156,94.727
1573889167.938,7.324,111.328,-923.340,9.766,16.602
1573889167.942,-30.762,118.652,-972.168,-24.414,-120.117
1573889167.946,-28.809,126.465,-566.406,-3.906,-59.082
1573889167.950,1.465,128.906,-488.281,33.203,105.469
1573889167.954,3.906,123.535,-920.898,19.531,73.242
1573889167.958,-34.180,138.184,-960.938,-18.066,-79.102
1573889167.962,-37.598,152.344,-494.629,1.953,-90.332
1573889167.965,-3.418,147.461,-298.340,46.875,35.156
1573889167.969,6.348,148.926,-667.480,35.645,89.844
1573889167.973,-19.043,153.320,-891.113,-7.812,-22.949
1573889167.977,-27.832,159.180,-611.816,-8.301,-102.539
1573889167.981,5.371,158.691,-300.781,39.551,4.395
1573889167.985,29.785,151.855,-458.008,55.664,123.047
1573889167.989,18.555,145.020,-789.062,20.996,43.457
1573889167.993,8.301,146.973,-814.941,9.766,-89.844
1573889167.997,31.250,156.738,-770.996,36.133,-63.965
1573889168.001,50.293,165.039,-812.988,52.246,78.125
1573889168.005,40.527,177.246,-815.918,31.250,70.312
1573889168.008,32.715,183.105,-803.711,13.672,-86.914
1573889168.012,38.574,180.176,-521.973,35.156,-93.750
1573889168.016,47.852,175.293,-246.094,56.152,87.402
1573889168.020,52.734,173.828,-496.094,42.969,115.234
1573889168.024,39.062,179.688,-935.547,13.184,-86.426
1573889168.028,29.785,186.035,-754.883,17.578,-150.879
1573889168.032,38.574,190.918,-242.188,48.828,38.086
1573889168.036,43.457,192.383,-430.176,47.363,118.652
1573889168.040,30.762,197.754,-932.129,14.160,-42.969
1573889168.044,15.137,206.543,-971.191,7.812,-165.527
1573889168.048,13.672,200.195,-531.738,36.133,-34.668
1573889168.051,19.531,186.523,-367.676,47.363,130.371
1573889168.055,6.348,179.688,-839.844,13.184,34.180
1573889168.059,-16.602,184.570,-872.559,-15.625,-119.141
1573889168.063,-13.184,193.848,-391.602,9.277,-65.918
1573889168.067,2.441,186.523,-263.672,34.668,95.215
1573889168.071,4.395,177.734,-727.051,13.184,65.918
1573889168.075,-8.301,176.270,-978.027,-7.812,-108.398
1573889168.079,-12.695,179.199,-539.551,7.812,-98.145
1573889168.083,-0.488,174.805,-259.766,34.668,72.266
1573889168.087,2.441,160.156,-695.801,28.809,97.168
1573889168.090,-11.719,166.016,-1000.000,0.977,-59.570
1573889168.094,-16.113,197.754,-702.637,2.441,-119.629
1573889168.098,11.719,209.473,-188.965,41.992,36.621
1573889168.102,25.391,207.031,-574.219,52.734,107.910
1573889168.106,1.465,217.285,-998.047,17.090,-16.113
1573889168.110,-1.953,236.816,-622.559,18.555,-109.375
1573889168.114,24.414,250.000,-233.887,59.570,-23.438
1573889168.118,43.457,252.441,-220.215,75.195,119.141
1573889168.122,36.621,254.883,-506.836,42.969,54.199
1573889168.126,15.625,254.883,-459.473,12.207,-100.586
1573889168.130,20.020,247.559,-113.770,37.109,-68.848
1573889168.133,45.898,234.375,-156.250,68.359,85.449
1573889168.137,43.945,224.609,-610.352,44.434,68.848
1573889168.141,18.555,231.934,-631.348,11.230,-72.754
1573889168.145,29.297,245.605,-259.277,36.133,-95.215
1573889168.149,60.547,252.930,-311.523,71.289,33.691
1573889168.153,63.477,253.906,-455.078,56.641,99.121
1573889168.157,41.504,248.535,-560.059,20.996,-42.480
1573889168.161,19.531,245.605,-382.812,14.160,-107.422
1573889168.165,31.250,236.328,-58.105,42.480,17.578
1573889168.169,51.758,222.656,-242.188,55.176,122.070
1573889168.173,37.109,225.098,-641.602,22.461,18.066
1573889168.176,10.254,235.352,-629.883,-2.930,-141.602
1573889168.180,21.484,237.305,-366.211,25.391,-71.289
1573889168.184,39.062,228.516,-405.273,40.527,93.262
1573889168.188,21.484,216.797,-761.230,8.789,44.922
1573889168.192,-2.930,215.820,-1000.000,-16.602,-136.230
1573889168.196,-2.930,217.285,-685.547,-1.953,-108.398
1573889168.200,13.672,223.145,-201.172,25.391,84.961
1573889168.204,20.020,216.797,-514.648,14.160,87.402
1573889168.208,-3.906,192.871,-940.918,-16.113,-119.141
1573889168.212,-18.555,180.664,-662.109,-8.789,-173.340
1573889168.215,1.953,182.129,-223.633,23.926,16.602
1573889168.219,10.742,190.918,-471.680,24.414,115.234
1573889168.223,-11.719,198.730,-971.191,-5.859,-31.250
1573889168.227,-24.902,192.383,-870.605,-5.371,-146.973
1573889168.231,1.465,182.129,-513.672,33.203,-25.391
1573889168.235,16.602,174.805,-664.551,36.621,97.656
1573889168.239,-7.324,165.039,-1000.000,-10.254,-11.719
1573889168.243,-13.672,164.062,-770.996,-26.855,-122.070
1573889168.247,12.695,163.086,-196.289,17.578,-21.973
1573889168.251,36.621,142.090,-232.910,44.922,125.000
1573889168.255,38.574,119.629,-768.066,23.438,64.453
1573889168.258,22.461,119.629,-814.453,1.953,-100.586
1573889168.262,23.926,131.836,-376.465,17.578,-83.496
1573889168.266,44.434,145.508,-240.234,46.875,83.496
1573889168.270,51.270,139.160,-598.633,35.645,108.398
1573889168.274,31.738,97.656,-980.957,1.953,-77.637
1573889168.278,20.996,69.336,-772.461,7.324,-129.883
1573889168.282,37.598,39.062,-644.531,43.457,7.812
1573889168.286,35.156,-22.949,-974.609,32.227,68.848
1573889168.290,8.301,-84.473,-994.141,-7.812,-15.137
1573889168.294,-0.488,-144.531,-846.680,0.000,-113.281
1573889168.298,20.020,-193.359,-652.344,33.203,-25.391
1573889168.301,37.109,-216.309,-748.047,38.574,98.633
1573889168.305,19.531,-226.074,-941.406,5.859,25.879
1573889168.309,-1.953,-241.699,-1000.000,-10.742,-145.508
1573889168.313,4.395,-256.348,-761.230,12.207,-72.754
1573889168.317,17.090,-257.324,-555.176,29.297,114.258
1573889168.321,9.277,-255.859,-872.070,7.812,61.035
1573889168.325,-13.184,-248.535,-1000.000,-15.625,-101.562
1573889168.329,-16.602,-239.258,-926.270,0.000,-108.887
1573889168.333,0.488,-234.375,-672.852,32.227,48.828
1573889168.337,2.930,-230.957,-761.719,21.484,79.102
1573889168.340,-22.461,-223.145,-1000.000,-24.414,-92.773
1573889168.344,-20.996,-196.777,-773.926,-12.695,-154.785
1573889168.348,12.207,-176.758,-256.836,35.156,28.320
1573889168.352,23.926,-182.129,-338.867,37.109,139.648
1573889168.356,16.113,-187.500,-864.258,12.207,-13.184
1573889168.360,11.230,-174.316,-770.508,7.812,-134.766
1573889168.364,21.484,-161.621,-238.281,25.879,-20.508
1573889168.368,49.316,-164.062,-407.227,45.898,112.793
1573889168.372,49.316,-171.387,-944.824,25.391,13.672
1573889168.376,20.996,-172.363,-868.164,-5.371,-127.441
1573889168.380,22.949,-157.715,-258.301,11.230,-43.457
1573889168.383,41.016,-150.391,-99.609,35.645,104.004
1573889168.387,31.738,-155.273,-657.227,12.695,72.754
1573889168.391,7.812,-151.855,-871.094,-22.949,-92.285
1573889168.395,5.859,-150.879,-506.348,-6.836,-114.258
1573889168.399,24.414,-154.785,-231.445,34.180,60.547
1573889168.403,20.508,-155.273,-498.047,23.926,122.559
1573889168.407,-2.930,-152.832,-779.297,-11.230,-27.344
1573889168.411,-12.207,-147.949,-494.141,-13.184,-114.258
1573889168.415,11.230,-143.066,-306.641,18.066,11.230
1573889168.419,34.180,-135.742,-765.625,31.738,110.840
1573889168.423,11.719,-130.859,-1000.000,4.395,5.859
1573889168.426,-14.160,-120.605,-662.598,-11.719,-104.492
1573889168.430,4.883,-106.934,-282.715,22.949,-20.508
1573889168.434,31.738,-109.375,-371.094,48.828,105.957
1573889168.438,20.996,-112.793,-711.426,24.414,41.992
1573889168.442,0.977,-96.680,-686.035,7.324,-79.102
1573889168.446,13.672,-82.520,-260.254,40.039,-26.855
1573889168.450,38.086,-89.844,-288.574,71.777,96.191
1573889168.454,40.039,-96.680,-675.293,49.316,110.352
1573889168.458,14.648,-97.168,-833.496,15.625,-59.570
1573889168.462,15.625,-88.867,-628.418,38.574,-111.816
1573889168.465,42.480,-73.730,-378.906,67.383,78.125
1573889168.469,49.316,-65.918,-558.594,49.316,134.766
1573889168.473,29.297,-67.871,-775.391,20.020,-11.230
1573889168.477,25.391,-71.289,-871.094,25.879,-122.559
1573889168.481,42.969,-73.242,-686.523,53.223,-25.879
1573889168.485,44.434,-87.402,-535.645,48.828,92.773
1573889168.489,38.086,-96.680,-939.941,23.926,-23.438
1573889168.493,20.508,-82.031,-880.371,11.230,-130.371
1573889168.497,24.414,-74.707,-391.602,26.855,-42.969
1573889168.501,45.898,-80.566,-323.242,48.340,104.980
1573889168.505,40.039,-79.590,-747.070,30.273,65.430
1573889168.508,17.578,-70.801,-1000.000,6.348,-122.559
1573889168.512,1.465,-72.754,-743.652,15.625,-115.234
1573889168.516,20.996,-79.590,-541.504,41.016,68.359
1573889168.520,30.273,-74.707,-807.129,30.273,80.566
1573889168.524,2.441,-59.570,-1000.000,-5.371,-101.562
1573889168.528,-7.324,-41.016,-671.875,-7.324,-128.906
1573889168.532,12.207,-40.527,-216.797,25.879,48.828
1573889168.536,19.531,-51.270,-562.500,29.785,105.957
1573889168.540,-2.441,-47.852,-1000.000,-15.137,-44.434
1573889168.544,-7.812,-33.691,-756.836,-20.020,-133.301
1573889168.548,16.602,-30.762,-306.152,22.949,-18.066
1573889168.551,32.715,-41.992,-479.004,38.086,113.281
1573889168.555,22.949,-48.340,-930.176,12.695,32.227
1573889168.559,2.930,-35.645,-916.992,-2.441,-117.676
1573889168.563,14.160,-28.320,-553.711,33.203,-41.016
1573889168.567,38.574,-44.922,-662.598,64.941,79.102
1573889168.571,25.391,-52.734,-1000.000,34.668,20.020
1573889168.575,-5.371,-37.109,-911.133,-2.930,-120.605
1573889168.579,-6.348,-30.762,-441.895,7.812,-76.660
1573889168.583,23.926,-24.902,-219.727,43.945,98.633
1573889168.587,25.391,-16.113,-576.660,35.645,96.191
1573889168.590,4.883,-0.977,-800.293,-2.930,-58.105
1573889168.594,4.883,24.414,-583.008,9.277,-119.629
1573889168.598,20.020,29.785,-266.113,43.457,31.738
1573889168.602,32.715,20.508,-465.332,44.922,140.625
1573889168.606,17.090,27.344,-926.270,15.137,-11.719
1573889168.610,8.789,43.945,-869.629,8.789,-152.832
1573889168.614,26.855,41.992,-662.109,41.504,-48.340
1573889168.618,29.785,31.738,-551.270,50.293,102.051
1573889168.622,20.508,27.344,-737.793,33.203,54.688
1573889168.626,0.488,28.809,-828.613,8.789,-95.215
1573889168.630,0.488,35.645,-449.219,17.090,-78.125
1573889168.633,23.438,47.852,-238.281,48.340,83.496
1573889168.637,39.551,52.734,-537.109,40.527,93.262
1573889168.641,22.461,45.898,-818.359,15.625,-84.961
1573889168.645,9.277,43.945,-508.789,24.414,-113.770
1573889168.649,33.203,45.410,-293.457,57.617,43.457
1573889168.653,40.527,39.551,-691.406,55.176,94.727
1573889168.657,20.020,36.621,-1000.000,14.160,-69.336
1573889168.661,4.395,51.758,-773.438,1.465,-141.602
1573889168.665,14.648,65.918,-221.680,25.879,23.438
1573889168.669,33.691,64.941,-329.102,36.621,127.441
1573889168.673,21.973,70.312,-831.543,10.742,6.348
1573889168.676,3.418,81.055,-777.832,1.953,-125.000
1573889168.680,5.859,80.078,-335.449,23.438,-32.227
1573889168.684,20.020,72.754,-339.355,37.598,101.074
1573889168.688,14.648,71.289,-768.066,12.207,47.363
1573889168.692,-15.625,66.895,-728.516,-22.949,-92.285
1573889168.696,-15.137,55.176,-406.738,1.953,-82.031
1573889168.700,16.113,46.875,-463.379,44.434,76.660
1573889168.704,15.137,39.551,-897.949,18.555,70.312
1573889168.708,-20.020,48.340,-939.453,-20.996,-88.867
1573889168.712,-31.250,62.500,-413.574,-4.395,-96.680
1573889168.715,-2.441,46.387,-178.223,29.297,57.129
1573889168.719,9.766,22.949,-504.883,23.926,109.863
1573889168.723,-16.602,26.367,-709.961,-8.789,-28.809
1573889168.727,-33.691,33.691,-395.020,-18.555,-109.375
1573889168.731,-18.066,33.203,-66.895,15.625,19.043
1573889168.735,-13.184,27.832,-369.141,32.227,108.887
1573889168.739,-38.574,27.832,-676.758,0.488,7.324
1573889168.743,-47.363,35.156,-574.707,-3.906,-113.281
1573889168.747,-29.297,28.809,-395.508,34.180,-35.156
1573889168.751,-5.859,20.020,-458.984,56.641,107.910
1573889168.755,-9.766,10.742,-555.664,29.297,55.664
1573889168.758,-28.809,-4.395,-520.508,4.883,-112.793
1573889168.762,-24.414,-2.441,-253.906,31.250,-91.797
1573889168.766,2.441,-4.395,14.160,62.988,99.121
1573889168.770,2.441,-24.414,-170.898,44.434,121.094
1573889168.774,-25.391,-32.227,-525.391,10.742,-66.895
1573889168.778,-30.273,-27.832,-368.652,20.020,-133.301
1573889168.782,-7.324,-25.879,6.836,52.246,29.297
1573889168.786,10.742,-26.367,-122.070,52.734,125.488
1573889168.790,-3.418,-23.438,-678.223,23.438,-27.344
1573889168.794,-17.578,-6.348,-886.719,14.160,-147.949
1573889168.798,-2.441,8.789,-325.195,41.992,-9.766
1573889168.801,18.066,-4.395,-122.070,58.594,113.770
1573889168.805,3.418,-18.066,-590.332,27.344,32.227
1573889168.809,-24.414,-16.113,-599.121,5.859,-97.168
1573889168.813,-11.719,-9.277,-62.012,39.551,-31.738
1573889168.817,14.160,-4.395,0.977,62.500,104.492
1573889168.821,5.859,-10.742,-530.273,30.273,64.941
1573889168.825,-19.531,-9.766,-742.188,-0.488,-92.285
1573889168.829,-32.715,-0.977,-264.160,9.766,-79.590
1573889168.833,-14.160,-6.836,-23.438,33.691,83.496
1573889168.837,-7.812,-16.113,-591.309,23.926,75.684
1573889168.840,-28.320,-18.555,-1000.000,-7.812,-105.469
1573889168.844,-29.297,-19.043,-733.398,-6.836,-167.969
1573889168.848,-11.230,-33.691,-346.191,22.949,5.859
1573889168.852,-0.977,-47.852,-623.047,21.484,82.031
1573889168.856,-11.230,-39.551,-1000.000,-10.254,-62.988
1573889168.860,-21.973,-39.551,-695.312,-11.719,-138.184
1573889168.864,-6.348,-57.129,-226.562,25.391,-11.230
1573889168.868,5.371,-70.801,-308.594,35.156,134.766
1573889168.872,-9.277,-75.684,-709.961,2.441,43.457
1573889168.876,-25.391,-78.125,-697.266,-17.090,-110.352
1573889168.880,-13.672,-80.566,-306.641,9.277,-48.828
1573889168.883,8.301,-86.426,-423.340,30.273,92.773
1573889168.887,0.977,-100.098,-911.621,1.953,44.922
1573889168.891,-22.461,-111.816,-900.391,-29.785,-90.820
1573889168.895,-13.672,-111.816,-587.891,-2.441,-91.797
1573889168.899,17.090,-106.445,-683.105,38.574,38.086
1573889168.903,16.113,-108.887,-878.906,27.344,94.727
1573889168.907,-6.348,-106.445,-963.379,2.930,-74.219
1573889168.911,-3.906,-103.516,-857.422,15.137,-169.434
1573889168.915,19.531,-100.098,-481.934,47.363,-2.441
1573889168.919,21.484,-109.375,-479.004,37.109,123.047
1573889168.923,8.789,-132.324,-841.797,8.301,5.371
1573889168.926,-2.441,-139.160,-812.988,3.418,-124.023
1573889168.930,18.066,-139.160,-562.500,34.180,-46.875
1573889168.934,43.945,-141.113,-626.465,51.758,112.305
1573889168.938,30.273,-147.461,-874.023,22.461,49.316
1573889168.942,14.160,-148.926,-1000.000,5.859,-154.297
1573889168.946,23.438,-131.348,-745.605,21.973,-106.445
1573889168.950,47.852,-113.770,-347.656,47.852,93.262
1573889168.954,56.152,-105.469,-651.855,53.223,66.895
1573889168.958,23.926,-101.074,-995.605,10.742,-120.605
1573889168.962,6.836,-84.961,-672.852,6.836,-118.652
1573889168.965,28.320,-64.453,-184.570,45.410,71.777
1573889168.969,48.828,-49.316,-438.965,46.387,113.770
1573889168.973,38.574,-14.648,-971.680,16.113,-72.266
1573889168.977,18.066,30.762,-776.855,7.812,-143.066
1573889168.981,21.973,51.758,-299.805,33.691,10.742
1573889168.985,40.527,74.707,-494.141,47.363,107.422
1573889168.989,38.574,121.094,-964.355,23.926,-11.230
1573889168.993,7.324,172.852,-711.914,-8.789,-138.672
1573889168.997,0.977,210.449,-38.086,6.836,-32.715
1573889169.001,33.691,235.352,-165.039,40.527,96.191
1573889169.005,39.062,261.230,-704.102,22.949,46.387
1573889169.008,2.930,280.273,-560.547,-11.230,-96.191
1573889169.012,2.930,298.340,-51.270,12.695,-70.312
1573889169.016,30.273,296.875,-39.551,45.898,72.266
1573889169.020,36.621,295.410,-512.695,34.180,64.941
1573889169.024,15.137,304.688,-788.574,0.000,-89.844
1573889169.028,8.789,314.941,-485.352,0.000,-109.375
1573889169.032,40.039,323.242,-330.078,38.574,43.457
1573889169.036,45.898,316.895,-678.711,29.297,95.703
1573889169.040,19.043,302.734,-726.562,-5.859,-40.527
1573889169.044,17.090,311.523,-485.352,5.371,-145.996
1573889169.048,32.715,317.383,-187.012,27.832,-20.508
1573889169.051,36.621,304.688,-184.570,20.996,138.672
1573889169.055,26.855,302.246,-512.207,-4.883,39.062
1573889169.059,17.578,306.152,-572.266,-3.906,-114.746
1573889169.063,33.203,305.664,-190.430,30.762,-31.738
1573889169.067,52.246,300.781,-41.016,44.434,129.395
1573889169.071,42.969,278.320,-550.293,22.949,82.520
1573889169.075,25.391,263.672,-1000.000,3.418,-121.582
1573889169.079,32.227,276.855,-596.680,24.414,-102.539
1573889169.083,48.340,292.969,-107.422,52.246,93.262
1573889169.087,49.316,301.270,-354.980,34.180,113.281
1573889169.090,34.180,304.688,-813.965,4.883,-67.383
1573889169.094,35.645,316.406,-861.816,20.996,-148.438
1573889169.098,50.781,346.191,-321.777,55.176,30.273
1573889169.102,43.945,365.234,-290.039,47.363,118.652
1573889169.106,20.020,361.816,-815.430,4.395,-30.273
1573889169.110,14.160,366.699,-729.980,1.465,-139.648
1573889169.114,40.039,380.859,-217.285,45.898,-35.156
1573889169.118,60.059,384.766,-400.391,64.941,97.656
1573889169.122,44.922,375.000,-921.875,30.273,0.000
1573889169.126,20.508,339.844,-884.277,1.953,-162.109
1573889169.130,33.691,296.387,-461.426,32.715,-76.172
1573889169.133,57.617,205.566,-372.559,55.176,84.473
1573889169.137,48.340,106.934,-807.129,28.320,47.363
1573889169.141,26.367,54.199,-947.754,8.301,-92.773
1573889169.145,30.762,21.973,-496.094,27.832,-81.055
1573889169.149,53.223,15.137,-292.480,49.805,74.219
1573889169.153,43.945,11.719,-725.098,26.855,99.609
1573889169.157,17.578,12.207,-952.148,-3.906,-34.180
1573889169.161,23.438,28.320,-556.152,13.672,-88.867
1573889169.165,46.387,36.621,-419.434,49.316,20.996
1573889169.169,50.781,47.852,-834.473,46.387,90.332
1573889169.173,32.227,83.008,-1000.000,15.137,-24.902
1573889169.176,12.207,125.488,-727.051,3.906,-125.000
1573889169.180,21.484,167.480,-371.582,31.738,-42.969
1573889169.184,43.457,190.918,-507.324,58.105,93.750
1573889169.188,33.203,196.289,-884.277,30.762,28.320
1573889169.192,9.766,211.426,-838.867,0.488,-138.672
1573889169.196,23.926,245.117,-415.039,35.156,-85.449
1573889169.200,49.316,269.531,-219.238,66.895,104.004
1573889169.204,38.574,266.113,-537.598,38.574,81.543
1573889169.208,13.672,268.066,-748.535,4.395,-82.520
1573889169.212,14.160,287.109,-479.980,23.926,-80.078
1573889169.215,34.668,294.434,-344.238,60.059,68.848
1573889169.219,40.527,290.527,-570.801,52.734,106.445
1573889169.223,19.043,297.852,-783.691,16.602,-55.664
1573889169.227,16.602,301.270,-826.172,22.949,-142.578
1573889169.231,41.504,312.012,-557.617,48.340,0.977
1573889169.235,52.734,334.961,-342.773,47.852,122.070
1573889169.239,44.922,340.820,-712.402,25.879,-4.395
1573889169.243,28.320,351.074,-837.402,12.695,-144.531
1573889169.247,41.504,369.141,-341.309,36.621,-38.086
1573889169.251,64.453,359.863,-153.320,55.664,113.281
1573889169.255,61.523,351.074,-643.555,37.109,47.852
1573889169.258,36.621,366.211,-836.426,13.672,-85.449
1573889169.262,29.297,384.277,-459.961,25.879,-76.660
1573889169.266,51.270,388.184,-181.152,55.664,68.359
1573889169.270,59.082,383.301,-544.922,51.270,85.449
1573889169.274,38.086,390.625,-1000.000,20.020,-104.492
1573889169.278,24.414,420.898,-591.309,16.113,-131.348
1573889169.282,42.969,434.082,-91.309,41.504,49.316
1573889169.286,58.105,422.852,-523.926,44.434,71.289
1573889169.290,49.316,414.062,-974.121,26.855,-79.590
1573889169.294,28.320,403.809,-532.227,19.531,-118.164
1573889169.298,25.391,391.602,-117.676,36.133,10.254
1573889169.301,45.898,393.066,-401.855,46.875,102.539
1573889169.305,38.574,392.578,-876.953,20.020,0.977
1573889169.309,20.020,393.555,-914.062,2.930,-146.484
1573889169.313,23.438,407.715,-271.484,25.879,-38.574
1573889169.317,39.062,401.855,-369.141,42.480,90.332
1573889169.321,32.715,387.695,-1000.000,17.090,14.160
1573889169.325,10.742,387.695,-829.590,-7.812,-128.418
1573889169.329,21.973,400.879,-342.285,18.555,-120.605
1573889169.333,43.945,408.691,-145.020,48.828,64.941
1573889169.337,37.598,408.203,-367.188,27.832,107.910
1573889169.340,16.602,412.598,-505.371,-6.348,-39.062
1573889169.344,14.160,415.527,-263.184,2.930,-95.215
1573889169.348,37.109,417.480,-8.301,39.551,44.434
1573889169.352,49.316,414.551,-317.871,46.875,115.234
1573889169.356,25.391,397.949,-772.949,8.301,-22.461
1573889169.360,1.953,390.137,-629.883,-5.859,-121.094
1573889169.364,25.391,385.254,-364.258,31.250,-21.484
1573889169.368,44.922,376.465,-200.195,43.945,123.535
1573889169.372,31.738,359.375,-306.152,18.555,48.340
1573889169.376,28.320,348.145,-445.801,11.719,-127.930
1573889169.380,29.297,353.027,-57.617,34.180,-70.801
1573889169.383,29.785,349.609,158.691,42.969,91.309
1573889169.387,37.109,345.215,-243.164,29.785,61.035
1573889169.391,26.855,353.027,-522.461,9.766,-104.980
1573889169.395,23.926,348.145,-305.664,22.461,-137.207
1573889169.399,45.898,339.844,-132.324,55.176,35.645
1573889169.403,48.340,352.051,-435.547,46.387,79.590
1573889169.407,27.344,363.770,-834.473,12.207,-80.078
1573889169.411,24.902,373.047,-614.746,20.020,-132.324
1573889169.415,40.039,375.977,-13.672,51.270,38.086
1573889169.419,43.457,380.371,-77.637,48.828,125.977
1573889169.423,26.855,392.090,-699.219,18.555,-24.414
1573889169.426,10.742,405.273,-638.184,5.859,-138.184
1573889169.430,25.879,427.246,-16.602,37.109,-26.855
1573889169.434,43.457,442.383,-83.008,54.199,105.957
1573889169.438,28.320,455.078,-586.426,15.137,26.855
1573889169.442,3.906,467.285,-634.766,-16.602,-143.555
1573889169.446,13.184,485.840,-301.758,13.672,-91.797
1573889169.450,32.715,505.371,-269.043,41.016,96.191
1573889169.454,24.414,514.160,-793.945,13.672,73.242
1573889169.458,-16.113,539.551,-853.027,-27.832,-83.496
1573889169.462,-18.555,574.707,-217.773,-11.719,-83.496
1573889169.465,18.555,593.262,-10.742,31.250,72.266
1573889169.469,26.855,619.141,-460.938,25.391,109.375
1573889169.473,12.695,660.156,-718.262,-15.625,-48.828
1573889169.477,5.859,699.219,-397.461,-14.160,-129.883
1573889169.481,25.391,720.703,-86.426,30.273,-0.488
1573889169.485,38.086,732.910,-253.418,39.062,110.840
1573889169.489,11.230,750.977,-545.898,-3.906,18.066
1573889169.493,-9.277,766.602,-529.297,-24.414,-107.910
1573889169.497,11.230,774.902,-440.430,10.254,-36.621
1573889169.501,29.785,793.945,-550.781,26.855,95.703
1573889169.505,13.184,822.266,-655.762,-7.324,41.016
1573889169.508,-20.020,840.332,-617.676,-34.180,-104.980
1573889169.512,-18.555,859.375,-316.895,-15.137,-71.777
1573889169.516,14.160,886.719,-141.602,24.902,91.797
1573889169.520,19.043,901.367,-476.562,17.578,76.172
1573889169.524,-5.859,913.574,-839.355,-21.973,-84.961
1573889169.528,-8.789,933.105,-578.125,-13.672,-93.262
1573889169.532,15.625,941.895,-180.176,25.391,57.617
1573889169.536,19.531,947.266,-428.711,20.508,110.352
1573889169.540,0.000,949.707,-884.277,-19.043,-24.902
1573889169.544,0.977,974.121,-975.586,-17.090,-153.809
1573889169.548,14.648,-1000.000,-565.918,12.207,-45.410
1573889169.551,36.133,999.023,-373.535,32.227,104.492
1573889169.555,28.320,998.535,-811.035,12.207,-15.137
1573889169.559,-2.441,999.512,-887.207,-14.648,-172.852
1573889169.563,8.301,999.512,-351.562,13.184,-60.547
1573889169.567,33.691,999.512,-232.910,44.922,96.191
1573889169.571,35.645,999.512,-762.207,22.461,13.672
1573889169.575,18.066,999.512,-899.414,-2.930,-130.371
1573889169.579,18.066,999.512,-351.074,16.113,-72.266
1573889169.583,43.945,999.512,-202.148,52.246,80.078
1573889169.587,54.688,999.512,-726.562,51.270,54.688
1573889169.590,21.484,999.512,-955.566,1.953,-104.004
1573889169.594,5.371,999.512,-489.746,-1.953,-118.164
1573889169.598,33.691,999.512,-36.133,46.875,54.199
1573889169.602,42.969,999.512,-329.590,41.504,120.605
1573889169.606,9.766,999.512,-845.703,-4.395,-46.387
1573889169.610,-9.277,999.512,-578.125,-12.207,-123.047
1573889169.614,9.277,999.512,-99.609,17.090,0.488
1573889169.618,21.973,999.512,-239.746,28.809,125.977
1573889169.622,8.301,999.512,-576.172,-5.859,50.293
1573889169.626,-7.812,999.512,-516.113,-22.949,-105.469
1573889169.630,1.953,999.512,-202.637,9.766,-64.453
1573889169.633,16.602,999.512,-233.398,27.832,111.328
1573889169.637,10.742,999.512,-712.402,8.301,75.684
1573889169.641,-5.371,999.512,-888.184,-14.160,-102.539
1573889169.645,5.371,999.512,-534.180,13.184,-111.816
1573889169.649,33.203,999.512,-456.543,55.176,59.570
1573889169.653,29.785,999.512,-561.523,37.598,122.070
1573889169.657,5.859,999.512,-615.723,-0.488,-39.551
1573889169.661,0.488,999.512,-472.656,7.812,-117.188
1573889169.665,28.320,999.512,-187.500,50.781,16.113
1573889169.669,39.062,999.512,-259.277,59.570,119.141
1573889169.673,16.113,999.512,-579.590,23.926,14.160
1573889169.676,5.859,999.512,-528.809,10.254,-99.609
1573889169.680,30.273,999.512,-264.160,49.316,-4.395
1573889169.684,49.805,999.512,-434.570,63.965,108.398
1573889169.688,28.320,999.512,-783.203,23.926,38.086
1573889169.692,5.859,999.512,-955.566,1.465,-123.047
1573889169.696,20.996,999.512,-800.293,24.902,-99.609
1573889169.700,34.668,999.512,-396.973,50.293,76.172
1573889169.704,26.855,999.512,-583.984,34.180,71.777
1573889169.708,0.488,999.512,-857.422,4.395,-88.867
1573889169.712,-8.301,999.512,-477.539,12.695,-108.887
1573889169.715,15.137,999.512,-76.660,44.922,69.824
1573889169.719,18.555,999.512,-409.668,36.621,123.047
1573889169.723,2.441,999.512,-900.391,1.465,-57.617
1573889169.727,-0.977,999.512,-775.879,5.859,-138.672
1573889169.731,10.742,999.512,-415.527,27.832,12.695
1573889169.735,30.273,999.512,-553.223,34.668,103.027
1573889169.739,21.973,999.512,-991.211,7.324,-20.996
1573889169.743,2.930,999.512,-763.672,-8.301,-122.070
1573889169.747,16.113,999.512,-242.188,29.297,-36.621
1573889169.751,29.297,999.512,-382.812,50.293,98.145
1573889169.755,21.973,999.512,-936.035,24.902,16.113
1573889169.758,4.883,999.512,-874.023,-1.465,-117.188
1573889169.762,9.277,999.512,-342.285,22.949,-50.781
1573889169.766,29.785,999.512,-276.367,50.293,88.867
1573889169.770,30.273,999.512,-648.438,27.344,98.633
1573889169.774,13.672,999.512,-950.684,-0.488,-84.961
1573889169.778,2.441,999.512,-753.418,12.695,-133.301
1573889169.782,30.273,999.512,-648.926,53.711,14.160
1573889169.786,41.504,999.512,-975.098,48.340,49.316
1573889169.790,8.789,999.512,-966.797,8.789,-57.129
1573889169.794,-1.465,999.512,-667.480,9.766,-135.254
1573889169.798,21.973,999.512,-396.973,41.992,-21.973
1573889169.801,32.227,999.512,-456.543,47.363,107.910
1573889169.805,14.160,999.512,-750.000,8.301,14.648
1573889169.809,1.465,999.512,-894.043,-11.719,-140.137
1573889169.813,15.137,999.512,-534.180,22.461,-60.547
1573889169.817,34.668,999.512,-404.785,41.504,104.004
1573889169.821,22.949,999.512,-829.102,10.742,56.152
1573889169.825,2.930,999.512,-1000.000,-16.602,-136.230
1573889169.829,3.418,999.512,-927.246,-1.953,-153.809
1573889169.833,27.832,999.512,-605.469,34.668,40.039
1573889169.837,38.086,999.512,-597.168,27.344,79.590
1573889169.840,12.207,999.512,-867.676,-4.883,-58.105
1573889169.844,9.277,999.512,-558.105,5.859,-78.613
1573889169.848,29.297,999.512,-172.363,45.410,47.363
1573889169.852,41.992,999.512,-364.258,49.805,125.977
1573889169.856,33.691,999.512,-796.387,17.090,-3.906
1573889169.860,14.160,999.512,-674.316,7.324,-118.164
1573889169.864,26.367,999.512,-230.469,36.621,0.000
1573889169.868,48.340,999.512,-452.637,52.734,124.023
1573889169.872,40.039,999.512,-918.945,25.879,2.441
1573889169.876,16.602,999.512,-904.785,5.371,-169.434
1573889169.880,21.973,999.512,-433.594,37.109,-87.402
1573889169.883,45.898,999.512,-237.305,62.988,99.609
1573889169.887,27.344,999.512,-672.852,25.879,84.961
1573889169.891,-1.465,999.512,-840.820,-7.812,-89.355
1573889169.895,6.348,999.512,-360.840,15.137,-79.102
1573889169.899,37.598,999.512,-145.508,53.223,90.332
1573889169.903,34.180,999.512,-591.797,35.645,100.586
1573889169.907,-0.488,999.512,-885.254,-11.719,-64.453
1573889169.911,-2.930,999.512,-560.547,-4.395,-126.465
1573889169.915,35.156,999.512,-362.793,49.316,28.809
1573889169.919,47.363,998.047,-771.973,47.363,106.445
1573889169.923,15.625,-999.512,-1000.000,-3.906,-47.363
1573889169.926,6.348,990.723,-704.102,-1.465,-145.996
1573889169.930,28.320,951.172,-269.043,37.109,-10.742
1573889169.934,53.223,920.898,-332.520,53.223,122.559
1573889169.938,48.828,896.973,-619.629,29.297,42.969
1573889169.942,20.508,852.051,-565.918,6.348,-104.980
1573889169.946,37.598,802.246,-258.301,42.480,-70.312
1573889169.950,67.871,766.602,-186.523,72.266,96.191
1573889169.954,49.316,743.652,-459.473,41.504,94.727
1573889169.958,27.344,726.074,-654.297,14.648,-82.520
1573889169.962,34.180,696.777,-438.965,40.527,-99.609
1573889169.965,63.965,666.016,-268.066,80.566,69.336
1573889169.969,72.266,638.672,-441.406,75.195,109.375
1573889169.973,46.387,598.145,-573.242,35.156,-31.738
1573889169.977,33.691,551.758,-607.422,30.273,-115.234
1573889169.981,49.805,504.395,-394.043,64.941,8.789
1573889169.985,56.641,455.078,-238.281,69.336,128.418
1573889169.989,41.016,421.875,-615.723,39.062,7.324
1573889169.993,31.250,410.156,-650.879,31.250,-131.836
1573889169.997,31.250,395.508,-170.410,48.828,-21.973
1573889170.001,42.480,373.047,-49.316,57.617,143.555
1573889170.005,40.039,356.445,-524.902,36.621,69.336
1573889170.008,18.555,355.469,-804.688,20.508,-106.445
1573889170.012,26.367,348.145,-504.883,44.922,-86.914
1573889170.016,47.363,321.289,-291.016,67.871,67.383
1573889170.020,37.109,291.016,-643.066,38.086,55.664
1573889170.024,26.855,258.789,-952.637,8.789,-121.582
1573889170.028,31.738,230.957,-550.781,32.227,-115.234
1573889170.032,45.410,205.078,-254.883,65.918,48.340
1573889170.036,55.664,189.453,-651.367,65.918,80.078
1573889170.040,36.133,193.359,-1000.000,35.645,-86.426
1573889170.044,20.996,204.590,-675.293,30.762,-135.742
1573889170.048,36.133,192.871,-208.984,62.012,14.648
1573889170.051,57.129,173.828,-428.711,75.684,120.117
1573889170.055,42.480,166.504,-933.594,45.898,-9.277
1573889170.059,19.043,166.016,-972.168,27.832,-160.156
1573889170.063,38.574,171.387,-507.324,64.941,-62.988
1573889170.067,73.730,172.852,-546.387,92.773,93.262
1573889170.071,59.570,165.527,-1000.000,55.176,16.113
1573889170.075,25.391,165.039,-847.168,23.438,-103.516
1573889170.079,33.691,179.199,-362.305,51.270,-52.734
1573889170.083,53.711,186.523,-294.922,79.590,88.379
1573889170.087,45.898,182.129,-616.211,52.734,99.121
1573889170.090,26.367,181.152,-897.949,18.555,-81.055
1573889170.094,25.391,189.453,-758.301,38.574,-127.441
1573889170.098,42.969,191.895,-419.922,69.824,31.738
1573889170.102,46.387,182.617,-666.504,54.688,88.867
1573889170.106,24.414,176.270,-1000.000,20.020,-61.035
1573889170.110,20.508,183.594,-881.836,20.020,-161.133
1573889170.114,33.691,193.359,-559.082,49.316,-36.621
1573889170.118,40.039,193.848,-498.535,58.594,101.562
1573889170.122,30.273,190.430,-748.535,28.809,34.180
1573889170.126,19.043,184.082,-876.465,9.766,-108.887
1573889170.130,40.039,192.383,-796.875,41.504,-63.477
1573889170.133,50.781,191.406,-594.238,58.594,90.820
1573889170.137,31.250,159.668,-732.422,23.926,87.891
1573889170.141,19.043,140.625,-984.375,-5.371,-108.887
1573889170.145,23.438,133.789,-710.449,19.043,-118.164
1573889170.149,45.898,122.070,-498.535,56.152,77.148
1573889170.153,43.945,113.770,-821.777,34.668,99.609
1573889170.157,23.926,111.328,-1000.000,4.883,-85.938
1573889170.161,21.484,109.375,-809.082,21.973,-158.203
1573889170.165,29.785,95.703,-318.359,51.758,40.039
1573889170.169,37.598,81.543,-432.129,58.105,130.859
1573889170.173,20.508,70.801,-944.336,24.414,-24.414
1573889170.176,1.465,72.266,-803.711,9.277,-130.859
1573889170.180,18.066,72.266,-266.602,43.457,-0.488
1573889170.184,42.480,58.105,-360.352,65.918,128.418
1573889170.188,27.344,53.711,-917.969,33.203,17.578
1573889170.192,2.441,56.641,-832.520,-0.488,-112.305
1573889170.196,17.578,46.875,-419.434,33.691,-46.875
1573889170.200,41.992,32.227,-509.277,63.965,93.262
1573889170.204,29.785,20.508,-908.691,28.809,60.547
1573889170.208,5.371,32.227,-930.664,0.000,-105.957
1573889170.212,14.160,46.387,-459.473,32.227,-114.258
1573889170.215,41.992,52.246,-243.164,68.359,58.105
1573889170.219,49.805,61.035,-530.273,57.617,123.047
1573889170.223,20.020,48.340,-729.492,17.578,-36.621
1573889170.227,7.812,42.969,-444.824,20.020,-111.816
1573889170.231,43.457,42.969,-165.527,66.406,27.832
1573889170.235,54.688,33.691,-410.156,65.430,115.234
1573889170.239,28.320,34.180,-744.141,23.926,20.508
1573889170.243,21.484,44.434,-696.777,19.531,-95.703
1573889170.247,32.715,62.012,-546.387,52.246,-27.344
1573889170.251,40.039,75.195,-642.090,64.453,111.328
1573889170.255,26.367,105.957,-667.969,37.109,71.289
1573889170.258,11.719,135.254,-656.250,15.625,-98.633
1573889170.262,20.996,135.742,-425.293,44.434,-79.590
1573889170.266,38.574,142.578,-209.473,70.801,91.797
1573889170.270,31.738,144.043,-453.125,43.457,91.797
1573889170.274,8.301,139.648,-715.332,11.230,-73.242
1573889170.278,0.000,134.277,-446.289,20.508,-86.426
1573889170.282,20.508,125.000,-110.352,52.246,77.148
1573889170.286,26.855,112.793,-372.070,46.387,124.023
1573889170.290,9.277,103.516,-904.785,10.254,-55.176
1573889170.294,-2.441,107.910,-854.004,7.324,-156.250
1573889170.298,12.207,110.840,-325.195,38.086,7.812
1573889170.301,34.668,112.305,-324.219,41.992,139.160
1573889170.305,20.996,114.746,-784.668,13.184,7.812
1573889170.309,-5.371,122.070,-1000.000,-1.953,-177.246
1573889170.313,-1.465,142.578,-562.988,20.996,-69.336
1573889170.317,20.020,155.273,-331.543,44.922,126.953
1573889170.321,13.672,158.203,-831.055,14.160,46.875
1573889170.325,-10.254,180.664,-939.453,-15.137,-132.324
1573889170.329,-3.906,201.172,-386.230,13.672,-67.383
1573889170.333,22.461,195.801,-138.672,44.434,99.121
1573889170.337,26.855,183.594,-660.156,31.738,85.938
1573889170.340,4.883,184.570,-1000.000,2.441,-78.125
1573889170.344,2.441,194.824,-629.395,8.301,-110.840
1573889170.348,35.156,206.543,-181.152,50.293,55.176
1573889170.352,41.504,207.520,-584.473,43.457,119.141
1573889170.356,12.695,217.773,-1000.000,-3.906,-64.453
1573889170.360,0.000,243.652,-748.535,-3.418,-163.086
1573889170.364,18.066,260.742,-239.746,34.668,9.277
1573889170.368,38.574,276.367,-418.945,50.293,123.047
1573889170.372,24.902,287.109,-881.836,21.484,-1.953
1573889170.376,6.348,297.363,-872.070,4.883,-158.203
1573889170.380,17.090,321.777,-406.250,30.273,-57.617
1573889170.383,41.504,340.332,-395.996,57.617,111.816
1573889170.387,29.785,353.027,-866.211,34.180,60.059
1573889170.391,-12.695,361.328,-838.379,-9.766,-96.191
1573889170.395,-7.324,355.957,-453.613,15.137,-94.238
1573889170.399,22.461,368.652,-547.363,46.387,60.547
1573889170.403,19.531,375.977,-685.059,21.973,126.953
1573889170.407,-4.395,371.582,-678.711,-5.371,-27.832
1573889170.411,-19.531,378.906,-534.180,0.977,-107.422
1573889170.415,4.883,383.301,-215.332,37.109,54.199
1573889170.419,16.113,388.184,-350.586,29.297,126.953
1573889170.423,-11.230,401.855,-741.211,-12.207,-12.207
1573889170.426,-19.531,415.527,-614.258,-7.812,-95.215
1573889170.430,1.953,399.902,-313.477,30.273,9.766
1573889170.434,15.137,387.207,-482.422,41.504,109.863
1573889170.438,6.348,383.789,-876.953,14.160,10.742
1573889170.442,-1.465,367.188,-1000.000,1.953,-151.367
1573889170.446,12.695,370.605,-721.680,33.691,-96.191
1573889170.450,33.203,365.723,-333.008,60.547,99.609
1573889170.454,22.461,326.172,-631.348,38.574,71.777
1573889170.458,-0.488,311.523,-854.004,7.324,-95.703
1573889170.462,2.441,317.383,-438.477,25.391,-97.168
1573889170.465,30.762,299.316,-125.488,61.035,56.641
1573889170.469,43.457,274.414,-545.410,58.594,74.707
1573889170.473,19.531,259.766,-937.988,26.855,-79.102
1573889170.477,12.207,257.812,-718.262,31.250,-123.047
1573889170.481,37.109,256.836,-368.164,63.477,23.438
1573889170.485,51.758,229.004,-557.129,66.406,94.727
1573889170.489,25.391,199.219,-1000.000,27.344,-48.340
1573889170.493,-2.930,194.824,-759.277,7.324,-129.883
1573889170.497,14.648,187.500,-163.086,47.363,3.906
1573889170.501,42.969,156.250,-372.559,70.312,102.539
1573889170.505,29.785,125.000,-904.785,32.227,32.227
1573889170.508,14.648,117.676,-796.387,18.066,-93.262
1573889170.512,29.297,112.305,-380.371,53.711,-71.777
1573889170.516,34.180,98.145,-305.176,68.359,96.680
1573889170.520,34.180,71.777,-659.668,45.898,108.398
1573889170.524,19.043,51.270,-952.148,14.648,-79.102
1573889170.528,9.277,59.570,-727.539,26.855,-127.930
1573889170.532,32.715,62.988,-554.688,62.500,40.039
1573889170.536,42.480,55.176,-784.668,50.293,109.863
1573889170.540,9.277,45.410,-700.195,6.348,-28.320
1573889170.544,0.488,32.715,-401.855,13.672,-104.492
1573889170.548,24.902,15.137,-64.453,60.059,37.109
1573889170.551,32.227,-18.066,-134.277,63.477,117.188
1573889170.555,9.277,-37.109,-469.727,22.461,-4.883
1573889170.559,-0.977,-32.715,-392.578,5.859,-120.605
1573889170.563,20.508,-40.527,-44.434,42.480,-42.969
1573889170.567,48.340,-64.453,75.684,73.730,120.117
1573889170.571,43.457,-93.750,-397.461,43.457,64.453
1573889170.575,16.602,-106.445,-738.281,16.113,-134.277
1573889170.579,24.902,-105.957,-570.801,45.410,-122.070
1573889170.583,47.852,-113.770,-232.422,68.848,65.430
1573889170.587,49.805,-125.488,-272.461,58.105,82.520
1573889170.590,32.715,-130.371,-617.676,30.273,-86.914
1573889170.594,30.762,-129.395,-273.926,31.738,-99.609
1573889170.598,55.664,-142.578,98.145,68.848,54.688
1573889170.602,59.570,-175.293,-286.621,60.547,96.680
1573889170.606,42.480,-195.312,-729.004,25.391,-62.012
1573889170.610,31.738,-184.082,-501.465,32.227,-135.742
1573889170.614,34.668,-176.270,74.707,59.082,25.391
1573889170.618,41.504,-194.824,-151.367,63.477,136.719
1573889170.622,35.156,-213.379,-840.332,39.062,-3.418
1573889170.626,21.484,-214.844,-848.633,25.391,-155.273
1573889170.630,18.066,-208.496,-188.965,47.363,-36.621
1573889170.633,28.320,-218.262,0.000,56.152,133.789
1573889170.637,34.180,-231.934,-561.035,35.156,65.918
1573889170.641,18.066,-227.051,-693.848,24.902,-93.262
1573889170.645,-1.465,-231.934,-153.809,32.227,-57.617
1573889170.649,13.184,-254.883,-51.758,51.758,81.055
1573889170.653,20.020,-268.066,-618.652,42.480,64.941
1573889170.657,3.906,-257.324,-970.215,15.625,-100.586
1573889170.661,6.836,-229.004,-650.879,34.180,-145.020
1573889170.665,22.949,-217.773,-352.539,64.453,28.809
1573889170.669,25.391,-217.773,-752.441,54.688,83.496
1573889170.673,11.230,-212.891,-997.070,18.066,-51.270
1573889170.676,-1.465,-205.566,-585.938,13.184,-121.094
1573889170.680,18.555,-189.453,-213.867,50.781,2.930
1573889170.684,35.645,-179.199,-396.973,58.105,149.902
1573889170.688,9.277,-177.246,-650.879,20.508,59.570
1573889170.692,-10.254,-163.574,-558.105,5.371,-103.516
1573889170.696,17.090,-147.949,-220.703,46.387,-41.992
1573889170.700,43.457,-147.949,-186.523,72.266,107.422
1573889170.704,18.555,-145.996,-588.379,32.715,51.758
1573889170.708,-7.812,-131.348,-751.953,-4.395,-104.492
1573889170.712,7.324,-116.211,-536.133,26.855,-109.863
1573889170.715,32.227,-111.328,-465.820,65.918,37.598
1573889170.719,15.137,-107.422,-732.910,41.504,98.633
1573889170.723,-8.301,-91.797,-875.488,5.859,-44.434
1573889170.727,1.465,-89.355,-814.941,23.926,-131.348
1573889170.731,20.996,-80.078,-566.406,51.758,21.484
1573889170.735,24.902,-60.059,-447.266,41.992,122.559
1573889170.739,11.719,-64.941,-795.410,17.090,-9.766
1573889170.743,-4.395,-72.754,-735.840,10.742,-125.000
1573889170.747,9.277,-64.941,-294.434,33.691,-23.438
1573889170.751,31.738,-64.453,-263.672,53.223,119.141
1573889170.755,21.484,-68.359,-707.520,28.320,51.270
1573889170.758,12.207,-61.035,-913.086,13.672,-107.422
1573889170.762,23.926,-50.293,-584.473,38.574,-75.684
1573889170.766,38.086,-44.922,-326.660,50.293,89.844
1573889170.770,40.527,-32.715,-656.738,37.109,89.844
1573889170.774,20.020,-10.254,-1000.000,12.695,-114.258
1573889170.778,15.625,11.230,-504.395,24.902,-111.328
1573889170.782,35.645,18.066,-27.832,49.805,68.359
1573889170.786,37.598,6.348,-433.105,30.762,111.328
1573889170.790,20.996,12.695,-778.809,2.930,-20.996
1573889170.794,2.930,36.621,-417.969,9.766,-108.398
1573889170.798,20.508,49.805,25.879,47.363,30.762
1573889170.801,38.574,47.363,-215.332,56.641,131.348
1573889170.805,24.902,54.688,-788.086,23.926,6.348
1573889170.809,6.348,61.523,-783.691,11.230,-128.418
1573889170.813,17.090,58.594,-258.789,44.922,-33.203
1573889170.817,39.062,58.105,-415.527,68.848,89.355
1573889170.821,27.344,61.035,-962.891,38.086,13.184
1573889170.825,3.906,73.730,-777.832,14.160,-115.234
1573889170.829,7.324,88.867,-307.617,35.645,-71.289
1573889170.833,30.762,108.398,-156.250,53.711,80.566
1573889170.837,26.367,111.328,-470.703,33.203,74.707
1573889170.840,0.000,102.051,-601.074,0.488,-73.730
1573889170.844,0.000,102.539,-327.637,14.160,-113.281
1573889170.848,20.020,112.305,-116.211,52.246,37.598
1573889170.852,26.367,125.488,-449.707,48.828,101.562
1573889170.856,6.836,129.883,-826.660,5.371,-25.879
1573889170.860,-6.348,125.977,-587.891,-0.488,-100.586
1573889170.864,6.836,121.094,-370.605,34.668,-3.906
1573889170.868,15.137,114.746,-362.793,36.133,120.605
1573889170.872,3.418,93.262,-638.672,5.371,23.438
1573889170.876,-3.906,69.824,-841.309,-2.441,-138.184
1573889170.880,5.859,48.340,-533.203,22.949,-50.293
1573889170.883,21.973,35.156,-382.324,36.133,113.770
1573889170.887,15.137,36.621,-717.285,12.207,53.711
1573889170.891,-12.207,27.832,-865.723,-7.812,-124.512
1573889170.895,-13.184,24.414,-443.848,13.184,-87.402
1573889170.899,15.625,21.973,-272.461,45.410,94.238
1573889170.903,20.508,12.695,-757.324,33.691,89.844
1573889170.907,4.395,11.719,-1000.000,6.836,-80.078
1573889170.911,8.301,11.230,-778.320,22.949,-123.047
1573889170.915,25.391,-2.441,-266.113,58.594,56.641
1573889170.919,35.156,-26.367,-376.953,62.500,134.277
1573889170.923,20.020,-37.109,-902.344,27.344,-36.133
1573889170.926,3.418,-36.621,-832.520,15.625,-164.551
1573889170.930,20.996,-32.715,-276.367,51.758,-7.812
1573889170.934,35.645,-33.691,-358.887,62.988,123.047
1573889170.938,15.137,-43.457,-903.320,24.414,17.578
1573889170.942,3.418,-53.711,-953.613,7.324,-143.555
1573889170.946,7.812,-54.199,-580.566,31.250,-77.637
1573889170.950,18.555,-55.176,-576.660,41.016,101.074
1573889170.954,21.484,-68.359,-963.379,11.719,42.480
1573889170.958,0.488,-66.895,-930.176,-17.090,-105.469
1573889170.962,-2.441,-76.172,-447.754,1.465,-77.148
1573889170.965,25.879,-96.191,-265.137,39.551,93.262
1573889170.969,31.738,-113.770,-744.629,33.691,90.820
1573889170.973,-9.277,-141.602,-974.609,-11.719,-69.336
1573889170.977,-17.090,-157.227,-612.305,0.977,-106.445
1573889170.981,11.230,-157.715,-337.891,51.758,35.156
1573889170.985,17.578,-169.434,-585.449,45.410,118.652
1573889170.989,-5.371,-186.523,-947.754,1.465,-44.922
1573889170.993,-20.996,-201.660,-888.184,-5.859,-137.695
1573889170.997,-0.977,-220.703,-752.441,28.809,-19.531
1573889171.001,13.672,-226.074,-925.781,36.133,85.449
1573889171.005,-3.418,-226.074,-996.094,0.000,6.348
1573889171.008,-15.625,-230.957,-876.953,-13.184,-138.672
1573889171.012,-4.395,-221.191,-524.414,16.602,-55.176
1573889171.016,23.926,-210.449,-372.070,49.316,96.191
1573889171.020,28.320,-222.168,-646.484,29.785,82.031
1573889171.024,7.324,-232.910,-862.793,-1.465,-83.008
1573889171.028,7.812,-231.934,-587.402,19.043,-100.098
1573889171.032,25.391,-242.188,-198.730,48.828,90.820
1573889171.036,26.367,-257.812,-457.520,37.598,129.395
1573889171.040,9.766,-248.535,-948.242,7.812,-86.426
1573889171.044,3.418,-232.422,-968.750,7.324,-151.855
1573889171.048,9.277,-233.887,-554.688,29.785,12.695
1573889171.051,23.438,-238.281,-476.562,37.109,123.047
1573889171.055,14.160,-238.770,-941.895,8.301,-11.230
1573889171.059,-15.137,-237.793,-786.621,-13.184,-128.906
1573889171.063,-7.324,-237.305,-145.508,11.230,19.043
1573889171.067,15.625,-247.559,-62.988,30.273,166.016
1573889171.071,8.301,-265.625,-620.117,-0.977,77.148
1573889171.075,-21.484,-270.996,-784.668,-31.250,-85.938
1573889171.079,-18.066,-272.949,-305.176,-3.906,-61.523
1573889171.083,14.648,-292.480,-229.980,31.738,87.891
1573889171.087,12.207,-312.500,-745.117,11.719,86.426
1573889171.090,-14.648,-319.824,-994.141,-19.531,-84.473
1573889171.094,-20.508,-320.801,-601.562,-6.836,-121.582
1573889171.098,-2.441,-323.730,-186.035,24.902,50.781
1573889171.102,11.719,-336.914,-581.543,26.367,101.074
1573889171.106,-10.254,-350.098,-1000.000,-7.812,-54.199
1573889171.110,-21.973,-356.445,-698.242,-10.254,-98.633
1573889171.114,-3.906,-373.535,-306.152,25.879,15.137
1573889171.118,3.906,-383.789,-500.000,27.832,100.098
1573889171.122,-7.324,-382.812,-803.223,-7.812,22.461
1573889171.126,-12.695,-380.859,-601.562,-13.184,-97.656
1573889171.130,8.301,-376.953,-125.488,29.297,-6.348
1573889171.133,27.344,-383.789,-265.137,50.293,115.723
1573889171.137,18.066,-385.254,-816.406,22.949,33.203
1573889171.141,-3.418,-375.000,-723.633,-2.441,-107.910
1573889171.145,-1.465,-375.977,-230.957,18.066,-82.520
1573889171.149,21.973,-393.066,-361.816,50.293,42.480
1573889171.153,22.461,-407.715,-574.219,35.156,75.684
1573889171.157,0.977,-403.320,-475.586,-4.883,-58.594
1573889171.161,-10.254,-389.160,-239.258,-10.254,-121.582
1573889171.165,8.789,-392.578,-7.324,24.414,37.598
1573889171.169,24.414,-401.855,-125.977,28.320,119.629
1573889171.173,7.324,-403.809,-354.492,-7.324,-8.301
1573889171.176,1.465,-396.484,-247.070,-2.930,-112.793
1573889171.180,13.672,-383.301,-50.293,29.297,-23.438
1573889171.184,18.066,-372.070,-260.742,29.297,90.820
1573889171.188,5.859,-362.305,-486.816,2.930,19.043
1573889171.192,-6.348,-376.465,-688.965,-6.348,-164.062
1573889171.196,7.324,-375.000,-520.020,23.926,-108.398
1573889171.200,30.273,-355.957,0.000,50.293,115.723
1573889171.204,25.879,-349.609,-320.801,33.203,60.059
1573889171.208,-1.465,-338.867,-643.066,3.906,-120.117
1573889171.212,0.000,-320.312,-134.277,21.484,-65.430
1573889171.215,33.203,-300.781,177.246,62.988,83.008
1573889171.219,34.668,-272.949,-214.355,53.223,108.398
1573889171.223,8.789,-240.723,-608.887,16.602,-36.133
1573889171.227,6.836,-220.215,-489.258,24.414,-126.953
1573889171.231,20.996,-201.660,-109.375,55.664,19.043
1573889171.235,30.762,-187.500,-259.766,55.176,105.469
1573889171.239,17.578,-197.754,-864.258,20.508,-43.457
1573889171.243,-4.883,-188.477,-656.250,11.719,-145.508
1573889171.247,6.836,-156.738,56.641,44.434,-5.859
1573889171.251,28.320,-149.902,-125.488,58.105,105.957
1573889171.255,22.461,-146.973,-633.301,29.785,32.227
1573889171.258,5.371,-120.605,-560.547,12.207,-119.141
1573889171.262,17.090,-103.027,-214.355,44.922,-105.957
1573889171.266,36.133,-96.191,-192.383,67.383,68.359
1573889171.270,24.902,-72.266,-584.961,33.203,64.941
1573889171.274,-3.906,-19.531,-800.781,-8.301,-89.355
1573889171.278,-4.883,33.203,-462.891,7.812,-84.961
1573889171.282,21.484,59.570,-343.750,48.828,64.453
1573889171.286,21.484,70.312,-784.180,34.668,70.801
1573889171.290,-12.695,78.125,-740.234,-8.789,-56.641
1573889171.294,-21.973,86.426,-355.469,-4.883,-98.633
1573889171.298,1.465,97.656,-128.906,30.762,22.949
1573889171.301,9.277,122.070,-236.816,26.855,118.652
1573889171.305,-7.324,136.719,-476.562,-4.883,30.273
1573889171.309,-20.996,145.020,-482.422,-3.418,-121.582
1573889171.313,-17.090,164.062,-232.422,35.156,-44.434
1573889171.317,-8.301,182.617,-153.320,52.734,128.418
1573889171.321,-8.789,187.988,-650.879,25.391,58.105
1573889171.325,-31.250,195.312,-918.457,-5.371,-109.863
1573889171.329,-18.066,214.844,-753.906,21.484,-92.285
1573889171.333,6.836,219.727,-509.766,49.316,89.844
1573889171.337,-6.836,223.145,-668.457,25.879,84.961
1573889171.340,-25.879,228.027,-896.484,-1.953,-81.055
1573889171.344,-22.461,231.445,-513.672,15.137,-94.727
1573889171.348,-2.930,245.117,-135.254,42.480,49.805
1573889171.352,-3.906,251.953,-373.047,19.043,111.816
1573889171.356,-14.648,257.324,-745.117,-17.578,-12.207
1573889171.360,-8.789,263.672,-560.059,-6.348,-101.074
1573889171.364,5.371,257.812,-55.664,29.785,35.645
1573889171.368,4.395,250.000,-311.035,30.273,151.367
1573889171.372,-5.859,259.766,-903.809,-1.465,0.000
1573889171.376,-16.113,266.113,-873.535,-12.207,-165.527
1573889171.380,-10.742,253.906,-322.754,12.207,-54.199
1573889171.383,4.883,237.793,-176.270,24.414,108.398
1573889171.387,0.000,233.887,-621.094,-0.977,66.895
1573889171.391,-18.555,226.074,-749.023,-20.996,-81.055
1573889171.395,-14.160,213.867,-250.488,6.348,-48.828
1573889171.399,18.555,218.262,-35.156,44.434,100.098
1573889171.403,18.555,226.074,-471.680,30.762,107.910
1573889171.407,-9.277,228.516,-674.805,-3.906,-46.875
1573889171.411,-1.953,223.145,-322.754,14.160,-106.445
1573889171.415,24.414,212.891,-184.082,58.105,42.969
1573889171.419,33.691,199.707,-591.309,51.270,101.562
1573889171.423,27.344,185.059,-833.496,24.414,-55.176
1573889171.426,6.836,169.922,-499.023,16.602,-128.418
1573889171.430,10.742,149.902,-118.164,38.086,19.043
1573889171.434,30.762,124.023,-573.730,54.688,107.422
1573889171.438,6.348,117.188,-927.734,15.625,15.625
1573889171.442,-15.625,127.930,-613.281,-5.371,-105.469
1573889171.446,4.883,122.070,-324.707,31.738,-59.570
1573889171.450,24.902,93.262,-409.668,54.199,84.961
1573889171.454,12.207,70.312,-662.598,26.367,63.965
1573889171.458,-14.648,64.941,-672.363,-8.301,-82.520
1573889171.462,-12.695,71.777,-469.238,7.812,-91.309
1573889171.465,7.812,65.918,-372.070,37.598,82.520
1573889171.469,0.000,41.504,-563.965,17.578,119.141
1573889171.473,-19.043,29.297,-703.613,-12.695,-42.480
1573889171.477,-8.789,23.438,-703.125,4.883,-114.258
1573889171.481,6.348,13.184,-610.840,34.180,17.578
1573889171.485,2.930,12.695,-489.258,21.973,125.977
1573889171.489,-9.277,15.137,-757.324,-9.766,-3.418
1573889171.493,-19.531,16.113,-756.348,-11.230,-134.766
1573889171.497,1.465,11.230,-321.777,29.297,-26.855
1573889171.501,20.996,-9.277,-265.137,42.480,132.324
1573889171.505,8.301,-29.785,-759.766,6.348,31.250
1573889171.508,-12.695,-36.621,-965.820,-12.207,-157.715
1573889171.512,6.348,-25.391,-588.379,25.391,-68.848
1573889171.516,40.527,-32.715,-498.047,65.430,96.680
1573889171.520,26.367,-62.012,-845.215,38.574,35.645
1573889171.524,0.000,-73.242,-995.117,2.441,-130.859
1573889171.528,1.953,-65.918,-649.414,16.602,-120.117
1573889171.532,25.391,-55.664,-216.309,50.781,73.730
1573889171.536,28.320,-54.688,-571.289,42.969,115.723
1573889171.540,4.395,-60.547,-957.031,7.812,-41.504
1573889171.544,-9.766,-71.777,-552.734,7.812,-84.473
1573889171.548,3.906,-83.496,-188.477,41.504,30.273
1573889171.551,18.555,-80.566,-497.559,41.504,116.699
1573889171.555,-4.395,-80.566,-964.844,-2.441,-15.137
1573889171.559,-23.438,-85.449,-910.156,-18.066,-154.785
1573889171.563,1.953,-76.172,-557.617,21.973,-34.180
1573889171.567,32.715,-84.961,-671.875,42.480,93.750
1573889171.571,19.043,-90.820,-1000.000,6.348,-6.836
1573889171.575,-13.672,-76.660,-863.770,-17.090,-139.160
1573889171.579,-0.977,-74.219,-350.586,11.230,-53.223
1573889171.583,13.672,-79.590,-240.234,33.691,119.629
1573889171.587,0.000,-81.055,-669.434,17.578,87.891
1573889171.590,-18.555,-83.496,-804.199,-9.766,-67.871
1573889171.594,-27.832,-81.055,-424.316,-2.441,-60.059
1573889171.598,-1.953,-79.102,-244.629,31.738,79.102
1573889171.602,16.602,-90.332,-690.918,33.203,91.309
1573889171.606,-15.137,-103.027,-982.422,-9.277,-51.270
1573889171.610,-26.855,-115.234,-682.129,-13.672,-108.398
1573889171.614,5.371,-129.395,-663.574,24.902,-14.160
1573889171.618,21.484,-129.395,-861.816,28.320,79.590
1573889171.622,12.207,-116.211,-970.703,6.348,-25.879
1573889171.626,-8.301,-114.746,-861.328,-1.953,-134.766
1573889171.630,0.000,-132.812,-414.551,23.438,-25.391
1573889171.633,21.973,-154.785,-252.930,43.457,133.301
1573889171.637,9.277,-177.734,-562.500,16.602,105.469
1573889171.641,-7.324,-189.453,-824.219,-4.395,-84.961
1573889171.645,0.000,-185.547,-501.953,21.484,-78.125
1573889171.649,17.090,-197.754,-374.512,49.805,74.219
1573889171.653,17.578,-224.609,-807.129,32.715,93.262
1573889171.657,-1.953,-240.723,-1000.000,-3.906,-96.191
1573889171.661,-10.742,-240.234,-789.062,-2.441,-156.250
1573889171.665,7.324,-230.469,-299.805,25.879,46.875
1573889171.669,26.367,-239.258,-424.316,28.809,104.980
1573889171.673,7.812,-251.953,-921.875,-3.906,-51.270
1573889171.676,-16.602,-256.348,-838.867,-9.766,-151.367
1573889171.680,3.418,-250.488,-235.840,29.785,6.348
1573889171.684,22.461,-254.395,-239.746,34.668,147.461
1573889171.688,0.000,-274.902,-815.918,-6.348,17.578
1573889171.692,-18.555,-280.762,-795.410,-16.113,-129.395
1573889171.696,3.418,-280.762,-390.137,21.484,-34.180
1573889171.700,37.109,-284.180,-466.797,49.805,118.652
1573889171.704,29.297,-288.086,-930.664,22.949,58.594
1573889171.708,-6.836,-298.340,-868.652,-11.230,-69.336
1573889171.712,-6.836,-303.711,-323.242,9.277,-66.406
1573889171.715,25.391,-306.641,-231.445,50.781,78.613
1573889171.719,31.738,-321.289,-666.016,45.410,100.098
1573889171.723,8.789,-329.102,-849.121,10.254,-63.965
1573889171.727,-2.930,-331.055,-454.590,12.207,-92.285
1573889171.731,20.020,-346.191,-254.883,47.852,25.879
1573889171.735,37.598,-370.605,-557.617,54.199,88.867
1573889171.739,14.160,-381.836,-749.512,15.625,-13.184
1573889171.743,2.441,-389.648,-712.891,8.789,-159.180
1573889171.747,30.762,-397.461,-635.742,46.875,-82.520
1573889171.751,43.457,-389.648,-670.410,56.152,83.008
1573889171.755,18.066,-375.488,-626.953,23.438,35.156
1573889171.758,3.906,-371.094,-421.387,6.836,-115.234
1573889171.762,12.207,-368.652,-17.578,28.809,-45.410
1573889171.766,30.762,-364.258,135.254,46.387,122.070
1573889171.770,28.320,-365.723,-149.902,25.391,93.750
1573889171.774,8.789,-370.117,-346.680,3.418,-80.078
1573889171.778,6.348,-372.559,-85.938,19.043,-100.586
1573889171.782,20.996,-374.512,242.676,45.898,78.613
1573889171.786,27.832,-375.000,-28.809,37.598,126.465
1573889171.790,14.648,-380.371,-590.332,17.090,-52.734
1573889171.794,-0.977,-375.488,-444.824,21.484,-120.117
1573889171.798,11.719,-367.188,78.125,46.387,37.598
1573889171.801,29.297,-369.629,22.949,49.805,128.418
1573889171.805,13.672,-372.559,-485.840,20.996,-5.859
1573889171.809,3.418,-366.699,-772.949,13.672,-162.598
1573889171.813,11.230,-345.703,-236.816,34.180,-41.992
1573889171.817,33.691,-339.844,21.973,53.711,111.816
1573889171.821,26.367,-350.098,-555.664,25.879,16.113
1573889171.825,0.977,-347.656,-683.105,-7.812,-140.625
1573889171.829,9.766,-340.332,-141.113,21.484,-91.797
1573889171.833,34.668,-337.402,19.531,58.594,68.359
1573889171.837,35.645,-341.309,-596.680,44.922,56.641
1573889171.840,8.301,-347.656,-937.500,8.789,-106.445
1573889171.844,-3.418,-349.121,-488.770,16.113,-125.000
1573889171.848,13.184,-347.656,-59.082,45.898,70.312
1573889171.852,32.227,-349.609,-354.492,45.898,112.305
1573889171.856,15.137,-356.934,-710.938,20.996,-35.156
1573889171.860,-7.812,-347.168,-322.754,6.836,-84.473
1573889171.864,16.602,-333.008,-7.812,38.574,20.020
1573889171.868,32.227,-331.543,-311.523,50.781,103.516
1573889171.872,5.859,-323.730,-757.324,11.230,-15.625
1573889171.876,-13.184,-308.105,-581.055,-5.371,-111.328
1573889171.880,-4.395,-307.129,-180.176,18.555,-22.949
1573889171.883,17.578,-318.359,-388.184,42.480,106.445
1573889171.887,10.254,-326.172,-821.289,17.090,82.520
1573889171.891,-16.113,-323.730,-747.559,-9.766,-69.336
1573889171.895,-2.930,-316.406,-381.348,20.996,-74.707
1573889171.899,20.508,-327.637,-455.566,48.828,47.852
1573889171.903,20.996,-327.148,-772.461,34.180,72.266
1573889171.907,4.395,-309.570,-805.176,10.254,-81.055
1573889171.911,1.953,-301.758,-573.730,20.996,-123.047
1573889171.915,27.832,-318.359,-561.523,54.199,31.738
1573889171.919,44.434,-345.703,-689.453,57.617,96.680
1573889171.923,17.578,-354.492,-820.801,20.508,-33.203
1573889171.926,1.953,-346.191,-667.480,18.066,-101.074
1573889171.930,22.949,-349.609,-400.391,55.664,23.926
1573889171.934,28.809,-357.422,-617.676,55.176,116.699
1573889171.938,14.648,-352.051,-941.895,22.461,15.137
1573889171.942,10.254,-334.961,-1000.000,11.230,-140.625
1573889171.946,16.113,-324.219,-757.812,30.762,-68.359
1573889171.950,20.996,-318.359,-400.391,48.340,123.535
1573889171.954,19.531,-302.246,-704.590,25.879,61.035
1573889171.958,-3.418,-281.738,-965.332,-10.254,-128.418
1573889171.962,-9.277,-266.113,-546.875,2.441,-97.656
1573889171.965,18.555,-261.719,-226.074,32.715,71.777
1573889171.969,22.949,-267.578,-570.312,20.508,100.098
1573889171.973,-2.441,-273.926,-877.930,-11.230,-43.457
1573889171.977,-6.348,-279.785,-661.621,-1.953,-104.492
1573889171.981,9.277,-286.621,-407.715,29.785,33.203
1573889171.985,19.043,-295.410,-574.707,29.297,117.676
1573889171.989,7.324,-296.875,-975.098,-1.465,-47.363
1573889171.993,-10.742,-288.574,-703.613,-8.301,-137.207
1573889171.997,4.395,-287.598,-81.055,28.320,14.160
1573889172.001,22.949,-284.668,-302.246,43.945,104.004
1573889172.005,15.625,-268.555,-861.816,15.625,-0.488
1573889172.008,0.000,-266.602,-694.336,-1.953,-126.465
1573889172.012,8.301,-276.855,-202.637,28.809,-35.156
1573889172.016,28.809,-291.992,-211.914,54.688,146.484
1573889172.020,21.484,-315.430,-594.727,36.133,104.492
1573889172.024,0.977,-328.125,-826.660,8.301,-94.238
1573889172.028,1.465,-324.219,-530.762,13.672,-102.539
1573889172.032,27.344,-311.035,-423.340,47.852,55.664
1573889172.036,26.855,-303.711,-868.164,38.574,74.707
1573889172.040,-4.395,-301.270,-787.598,1.953,-36.621
1573889172.044,-8.301,-284.180,-374.512,10.254,-107.422
1573889172.048,10.742,-269.043,-158.691,34.180,16.113
1573889172.051,24.414,-270.996,-332.520,29.297,120.117
1573889172.055,13.672,-273.926,-606.934,10.742,0.977
1573889172.059,-5.371,-286.133,-469.238,3.418,-102.539
1573889172.063,-0.488,-291.992,-152.344,26.367,-1.953
1573889172.067,12.695,-293.945,-123.047,37.109,151.855
1573889172.071,2.441,-297.852,-645.996,5.371,52.246
1573889172.075,-19.043,-288.086,-930.176,-14.160,-124.512
1573889172.079,-7.324,-282.227,-750.000,16.113,-85.938
1573889172.083,12.207,-289.062,-479.492,45.410,88.867
1573889172.087,-2.441,-303.711,-470.703,23.926,112.793
1573889172.090,-21.973,-302.246,-785.156,-5.371,-82.520
1573889172.094,-11.719,-288.086,-564.941,9.277,-126.953
1573889172.098,15.625,-285.645,-141.113,44.434,54.199
1573889172.102,28.320,-284.180,-332.031,41.504,125.000
1573889172.106,22.949,-280.273,-779.785,15.625,-35.645
1573889172.110,16.113,-280.762,-667.480,16.113,-144.043
1573889172.114,29.297,-282.227,-202.148,42.969,-2.441
1573889172.118,48.340,-296.387,-423.828,53.223,136.230
1573889172.122,37.598,-301.270,-908.203,19.043,13.184
1573889172.126,21.484,-287.598,-959.473,5.859,-166.504
1573889172.130,33.691,-262.207,-528.320,42.969,-57.129
1573889172.133,43.945,-240.723,-198.242,55.664,144.531
1573889172.137,18.066,-236.816,-636.719,15.137,75.684
1573889172.141,-8.301,-223.633,-813.477,-8.789,-109.863
1573889172.145,-0.488,-200.684,-322.754,14.648,-74.707
1573889172.149,24.414,-204.102,-116.211,41.504,112.305
1573889172.153,18.555,-220.703,-635.254,26.367,83.984
1573889172.157,-11.719,-227.051,-915.527,-14.160,-93.262
1573889172.161,-17.090,-220.703,-488.281,-7.324,-107.910
1573889172.165,15.137,-215.332,-311.035,40.039,68.359
1573889172.169,34.668,-234.375,-752.930,39.062,110.352
1573889172.173,4.395,-250.000,-1000.000,-11.230,-74.707
1573889172.176,-8.301,-234.863,-671.875,-14.160,-134.277
1573889172.180,22.949,-227.051,-296.387,29.297,5.371
1573889172.184,40.527,-233.398,-565.430,36.133,109.863
1573889172.188,32.227,-237.305,-861.328,9.766,12.695
1573889172.192,14.648,-237.793,-743.652,0.488,-140.137
1573889172.196,20.996,-231.934,-386.719,30.762,-49.805
1573889172.200,43.945,-240.234,-391.602,56.152,99.609
1573889172.204,34.180,-251.953,-769.043,30.273,42.480
1573889172.208,13.184,-253.906,-781.250,1.953,-99.121
1573889172.212,22.949,-253.906,-659.180,30.273,-98.145
1573889172.215,44.434,-255.859,-641.113,66.895,71.777
1573889172.219,35.156,-267.090,-678.223,33.203,96.680
1573889172.223,0.488,-259.766,-824.707,-13.672,-69.336
1573889172.227,-8.301,-238.281,-622.070,-2.441,-119.141
1573889172.231,17.090,-228.516,-280.273,31.250,45.410
1573889172.235,34.668,-221.191,-375.977,33.691,135.254
1573889172.239,15.625,-217.773,-826.172,0.488,-4.395
1573889172.243,-1.465,-217.773,-820.312,-7.812,-128.906
1573889172.247,16.113,-208.008,-333.984,25.879,-11.719
1573889172.251,34.180,-204.590,-279.785,41.504,130.859
1573889172.255,19.531,-201.172,-702.148,12.207,41.016
1573889172.258,-5.859,-186.523,-906.250,-12.695,-128.418
1573889172.262,-1.465,-181.641,-624.023,9.766,-86.914
1573889172.266,17.090,-199.219,-383.301,34.180,90.332
1573889172.270,15.137,-215.332,-698.242,16.113,49.316
1573889172.274,-7.324,-216.797,-1000.000,-21.973,-138.184
1573889172.278,-17.578,-205.078,-567.383,-14.648,-101.562
1573889172.282,7.812,-192.871,-89.844,27.832,91.797
1573889172.286,22.461,-201.660,-493.652,23.438,105.957
1573889172.290,3.906,-211.426,-875.000,-8.301,-56.152
1573889172.294,-6.836,-201.660,-496.094,-6.348,-109.375
1573889172.298,19.043,-200.195,-233.887,31.250,23.438
1573889172.301,35.645,-207.520,-480.957,40.039,130.371
1573889172.305,15.137,-209.961,-899.414,3.418,5.859
1573889172.309,1.953,-217.285,-854.492,-3.906,-123.047
1573889172.313,16.113,-221.680,-348.633,27.344,-6.348
1573889172.317,36.621,-229.492,-519.531,43.457,88.867
1573889172.321,24.414,-227.051,-1000.000,9.766,-18.555
1573889172.325,-6.348,-209.961,-837.891,-18.066,-138.672
1573889172.329,7.324,-210.449,-320.801,19.531,-61.523
1573889172.333,33.203,-210.449,-251.953,45.410,108.398
1573889172.337,20.508,-194.336,-629.395,15.137,89.355
1573889172.340,-5.371,-186.035,-709.473,-13.672,-64.941
1573889172.344,-1.465,-193.359,-424.805,4.395,-101.562
1573889172.348,13.672,-196.289,-324.707,35.156,56.152
1573889172.352,8.789,-190.918,-686.035,24.902,93.262
1573889172.356,-21.484,-187.500,-973.633,-16.113,-66.406
1573889172.360,-27.832,-186.035,-651.367,-18.066,-105.957
1573889172.364,2.441,-186.523,-458.496,21.973,0.977
1573889172.368,16.113,-182.129,-443.848,30.762,105.469
1573889172.372,11.230,-182.129,-468.262,2.441,2.930
1573889172.376,-7.812,-184.570,-420.410,-8.789,-136.230
1573889172.380,4.395,-176.270,19.531,23.926,-28.809
1573889172.383,33.203,-174.805,197.754,46.875,130.859
1573889172.387,31.738,-181.641,-215.332,24.414,42.969
1573889172.391,13.672,-188.477,-428.711,3.418,-128.906
1573889172.395,23.926,-186.523,-2.441,28.809,-70.312
1573889172.399,57.617,-189.941,103.027,62.988,74.219
1573889172.403,48.340,-206.543,-416.016,44.434,53.223
1573889172.407,25.391,-201.172,-679.688,16.602,-104.004
1573889172.411,25.879,-190.430,-375.488,31.250,-133.301
1573889172.415,37.109,-187.500,53.223,55.176,33.203
1573889172.419,44.922,-187.012,-9.766,52.246,110.840
1573889172.423,33.203,-194.336,-678.711,25.391,-60.059
1573889172.426,19.531,-187.500,-724.609,16.602,-150.879
1573889172.430,31.738,-166.504,94.238,47.363,30.762
1573889172.434,37.598,-168.457,61.035,51.270,126.465
1573889172.438,13.672,-176.270,-506.348,11.230,6.836
1573889172.442,-4.883,-164.551,-364.746,-0.488,-97.168
1573889172.446,0.000,-160.156,5.371,24.414,-26.855
1573889172.450,20.508,-158.203,-205.078,41.016,95.215
1573889172.454,11.719,-167.480,-825.684,10.742,9.277
1573889172.458,-16.602,-174.805,-827.148,-24.902,-137.695
1573889172.462,-3.906,-157.227,-108.887,3.418,-70.312
1573889172.465,28.320,-145.508,-5.859,45.898,78.613
1573889172.469,24.902,-150.391,-444.336,27.832,101.074
1573889172.473,-1.953,-152.344,-523.438,-11.230,-34.180
1573889172.477,-1.953,-153.320,-167.969,0.488,-85.449
1573889172.481,20.508,-162.598,16.113,29.297,48.828
1573889172.485,31.250,-165.527,-358.887,24.414,100.586
1573889172.489,17.090,-160.156,-658.691,1.465,-19.531
1573889172.493,2.441,-154.297,-609.375,1.953,-133.301
1573889172.497,16.113,-158.203,-573.730,32.227,-51.758
1573889172.501,31.250,-171.875,-693.359,39.062,112.793
1573889172.505,20.508,-180.664,-780.762,17.090,34.668
1573889172.508,5.859,-180.664,-663.574,5.371,-134.766
1573889172.512,21.973,-180.176,-318.848,36.621,-63.477
1573889172.516,41.016,-187.012,-214.355,62.500,99.609
1573889172.520,26.855,-187.012,-515.625,32.715,69.336
1573889172.524,1.465,-187.012,-741.699,4.395,-69.824
1573889172.528,12.207,-185.059,-503.906,27.832,-88.867
1573889172.532,36.621,-175.781,-230.957,58.105,54.688
1573889172.536,24.902,-176.758,-470.215,34.668,107.422
1573889172.540,-3.906,-186.035,-920.410,-4.395,-60.059
1573889172.544,-11.230,-178.223,-831.543,5.859,-142.090
1573889172.548,8.789,-164.551,-317.871,41.016,40.039
1573889172.551,16.602,-166.016,-390.625,34.180,139.648
1573889172.555,5.859,-168.945,-860.352,1.953,-12.207
1573889172.559,-4.883,-171.387,-967.285,-1.465,-137.695
1573889172.563,10.254,-172.852,-499.512,31.738,-9.277
1573889172.567,35.645,-175.781,-314.453,51.270,137.695
1573889172.571,20.020,-176.758,-814.941,19.531,33.691
1573889172.575,2.930,-169.434,-871.094,-1.465,-104.492
1573889172.579,17.090,-166.992,-430.664,28.809,-42.480
1573889172.583,36.621,-168.945,-371.094,54.688,92.285
1573889172.587,34.180,-165.527,-780.273,29.297,51.270
1573889172.590,18.066,-153.320,-971.680,-0.488,-117.676
1573889172.594,21.973,-139.160,-525.879,25.879,-109.863
1573889172.598,38.086,-144.531,-147.949,60.547,62.012
1573889172.602,37.598,-162.109,-587.402,46.875,95.215
1573889172.606,16.113,-154.297,-957.031,11.230,-59.082
1573889172.610,11.719,-143.555,-530.762,18.555,-121.582
1573889172.614,34.180,-155.762,-104.980,57.617,35.156
1573889172.618,40.039,-161.621,-407.715,56.152,108.398
1573889172.622,12.207,-157.227,-836.426,11.230,-27.344
1573889172.626,-10.254,-153.320,-581.543,-7.324,-108.887
1573889172.630,11.230,-152.832,-148.926,24.902,-4.395
1573889172.633,38.574,-145.508,-347.168,39.062,119.629
1573889172.637,22.949,-139.648,-892.090,7.324,12.207
1573889172.641,-4.883,-145.020,-849.609,-21.973,-144.043
1573889172.645,0.488,-146.484,-351.562,-1.465,-70.312
1573889172.649,23.438,-151.855,-525.879,29.297,64.941
1573889172.653,13.672,-146.484,-836.914,6.836,69.336
1573889172.657,-9.277,-133.789,-671.387,-20.996,-51.758
1573889172.661,0.488,-125.488,-372.559,0.488,-75.195
1573889172.665,20.996,-126.953,-238.281,33.691,36.621
1573889172.669,13.672,-138.672,-438.477,18.066,86.426
1573889172.673,-4.883,-151.855,-631.348,-12.207,-6.836
1573889172.676,0.977,-146.484,-557.129,1.465,-113.770
1573889172.680,34.180,-129.883,-427.246,47.363,-28.809
1573889172.684,49.316,-126.465,-532.227,52.246,117.188
1573889172.688,24.902,-124.512,-742.188,9.766,44.434
1573889172.692,3.418,-127.930,-911.133,-4.883,-156.738
1573889172.696,14.648,-138.672,-748.535,28.320,-101.562
1573889172.700,27.832,-144.043,-321.777,47.363,115.723
1573889172.704,21.484,-141.602,-542.969,19.043,75.195
1573889172.708,6.836,-127.441,-775.391,0.977,-102.051
1573889172.712,12.695,-114.258,-305.664,29.785,-56.641
1573889172.715,32.227,-118.652,9.277,51.758,110.352
1573889172.719,30.273,-127.441,-462.891,30.273,87.891
1573889172.723,11.230,-127.441,-821.289,6.836,-66.895
1573889172.727,10.742,-115.723,-601.562,14.648,-100.098
1573889172.731,33.691,-104.980,-357.910,44.922,40.039
1573889172.735,37.109,-109.863,-582.031,40.527,87.402
1573889172.739,13.672,-121.582,-1000.000,-2.441,-88.867
1573889172.743,0.977,-115.234,-760.254,-8.789,-164.551
1573889172.747,19.531,-113.770,-214.355,30.273,-0.488
1573889172.751,38.086,-125.488,-486.816,44.922,104.492
1573889172.755,21.973,-129.395,-915.039,7.324,12.695
1573889172.758,6.836,-109.863,-705.078,-4.395,-112.305
1573889172.762,14.648,-90.820,-155.762,28.320,-11.230
1573889172.766,25.391,-104.980,-144.531,42.969,139.160
1573889172.770,25.879,-117.676,-724.609,20.508,62.988
1573889172.774,14.648,-115.234,-1000.000,0.000,-125.000
1573889172.778,13.672,-117.676,-652.832,22.949,-107.910
1573889172.782,36.621,-129.883,-582.031,56.152,54.199
1573889172.786,36.133,-136.719,-983.887,35.156,36.133
1573889172.790,14.648,-120.605,-921.387,-4.395,-84.961
1573889172.794,16.602,-109.375,-498.047,11.719,-103.516
1573889172.798,37.109,-124.512,-236.328,51.270,36.621
1573889172.801,45.410,-122.559,-447.266,42.969,115.723
1573889172.805,25.879,-104.980,-835.449,0.000,-27.832
1573889172.809,15.137,-103.516,-800.293,-5.859,-136.230
1573889172.813,40.039,-113.281,-404.297,41.504,-34.180
1573889172.817,54.688,-119.141,-363.281,56.641,106.445
1573889172.821,29.297,-122.559,-782.715,12.695,28.809
1573889172.825,5.371,-125.000,-979.004,-3.418,-147.461
1573889172.829,22.461,-112.793,-837.891,33.203,-97.656
1573889172.833,41.504,-103.027,-588.867,52.246,86.426
1573889172.837,23.438,-109.863,-610.840,23.926,74.219
1573889172.840,-2.930,-119.629,-846.680,-4.883,-93.262
1573889172.844,-1.953,-121.094,-556.641,11.719,-102.539
1573889172.848,22.461,-112.793,-164.551,43.457,59.082
1573889172.852,31.738,-106.445,-446.777,34.180,90.820
1573889172.856,13.184,-115.723,-854.004,-1.465,-61.035
1573889172.860,1.465,-119.141,-669.434,-1.953,-117.188
1573889172.864,20.996,-112.305,-329.102,30.762,7.324
1573889172.868,29.785,-108.398,-573.730,33.203,101.074
1573889172.872,9.277,-104.492,-961.914,-0.488,-41.504
1573889172.876,-8.789,-98.633,-871.582,-15.137,-199.707
1573889172.880,6.348,-97.168,-328.125,17.090,-45.410
1573889172.883,28.320,-110.840,-198.730,37.109,116.211
1573889172.887,12.695,-119.141,-749.512,7.324,29.297
1573889172.891,-7.324,-109.863,-816.895,-15.137,-114.746
1573889172.895,-1.953,-109.863,-278.320,8.301,-56.152
1573889172.899,22.461,-110.352,-145.020,36.621,108.398
1573889172.903,28.320,-87.891,-641.113,22.949,91.309
1573889172.907,0.977,-82.031,-874.512,-10.254,-85.938
1573889172.911,0.977,-90.332,-379.883,4.883,-87.402
1573889172.915,32.715,-91.797,-234.863,46.387,69.824
1573889172.919,37.109,-99.609,-777.344,35.645,71.777
1573889172.923,16.602,-103.027,-1000.000,-2.930,-85.938
1573889172.926,9.277,-91.309,-577.637,-0.488,-110.840
1573889172.930,26.367,-75.684,-173.340,36.133,38.574
1573889172.934,32.715,-73.242,-391.602,38.574,142.578
1573889172.938,18.555,-87.891,-740.723,6.836,24.414
1573889172.942,9.766,-97.656,-682.129,-8.301,-125.488
1573889172.946,12.207,-93.262,-292.969,8.789,-18.066
1573889172.950,26.367,-94.238,-262.207,25.879,143.066
1573889172.954,20.020,-100.098,-607.422,0.977,89.355
1573889172.958,-6.836,-97.656,-648.926,-29.297,-65.918
1573889172.962,-1.465,-90.332,-540.039,-4.883,-72.266
1573889172.965,33.203,-84.961,-577.637,39.551,72.266
1573889172.969,30.762,-80.078,-566.895,23.926,113.281
1573889172.973,0.977,-82.520,-720.215,-14.160,-48.340
1573889172.977,0.488,-87.891,-629.395,4.883,-111.328
1573889172.981,23.438,-88.379,-248.047,39.551,59.570
1573889172.985,28.809,-96.191,-286.621,27.832,122.559
1573889172.989,8.789,-108.887,-669.434,-3.906,-53.711
1573889172.993,-0.488,-102.051,-509.766,1.465,-130.371
1573889172.997,20.996,-91.797,-38.086,39.062,0.488
1573889173.001,37.109,-102.051,-42.480,39.062,116.211
1573889173.005,23.926,-116.699,-437.500,3.906,29.297
1573889173.008,-0.977,-127.441,-554.199,-14.648,-103.027
1573889173.012,1.953,-119.141,-260.254,5.859,-49.805
1573889173.016,22.949,-105.469,0.977,25.879,120.605
1573889173.020,23.438,-109.375,-328.125,4.395,75.195
1573889173.024,-4.883,-109.375,-870.117,-30.762,-134.766
1573889173.028,-8.789,-99.121,-385.254,-19.531,-99.121
1573889173.032,28.320,-92.773,156.738,23.438,110.352
1573889173.036,36.133,-96.191,-296.387,16.113,109.375
1573889173.040,7.324,-97.168,-607.910,-22.461,-69.336
1573889173.044,-0.488,-81.543,-173.828,-18.066,-105.957
1573889173.048,19.531,-72.754,202.148,19.043,44.434
1573889173.051,23.926,-83.008,-116.211,15.137,119.141
1573889173.055,13.184,-100.586,-662.109,-8.301,-24.902
1573889173.059,7.812,-105.469,-578.613,-5.859,-128.906
1573889173.063,19.043,-94.238,-119.141,20.020,-14.160
1573889173.067,29.785,-94.238,-230.469,30.273,93.750
1573889173.071,22.949,-100.098,-684.082,10.254,-6.348
1573889173.075,7.812,-94.727,-513.672,-0.488,-120.117
1573889173.079,16.113,-86.426,19.531,29.785,-32.715
1573889173.083,34.180,-80.566,-112.793,52.246,98.145
1573889173.087,19.043,-85.449,-695.312,20.020,53.711
1573889173.090,-4.883,-89.844,-793.945,-6.348,-109.863
1573889173.094,4.395,-97.656,-285.645,18.066,-98.145
1573889173.098,28.809,-99.121,-242.676,44.434,67.383
1573889173.102,23.438,-93.750,-707.031,18.555,104.492
1573889173.106,8.789,-82.520,-905.273,-12.207,-54.199
1573889173.110,7.812,-68.359,-680.664,3.906,-140.625
1573889173.114,25.879,-74.219,-522.949,39.551,-11.230
1573889173.118,36.133,-78.613,-620.117,40.527,88.379
1573889173.122,1.465,-74.219,-696.289,-5.859,-18.066
1573889173.126,-29.297,-82.520,-673.340,-27.344,-144.531
1573889173.130,-15.137,-84.473,-261.719,10.254,-17.578
1573889173.133,3.906,-81.055,-73.730,29.785,149.902
1573889173.137,-7.324,-85.938,-490.234,-5.371,55.664
1573889173.141,-30.273,-87.402,-614.746,-30.273,-85.938
1573889173.145,-19.043,-93.262,-312.012,1.953,-42.969
1573889173.149,11.230,-102.051,-328.125,33.691,82.031
1573889173.153,12.695,-101.074,-723.633,10.254,78.125
1573889173.157,8.301,-97.168,-985.352,-7.324,-101.562
1573889173.161,15.625,-101.562,-837.402,19.531,-143.555
1573889173.165,31.250,-109.375,-394.531,47.852,36.621
1573889173.169,44.434,-113.281,-489.746,40.527,90.332
1573889173.173,21.973,-107.422,-923.340,-6.348,-66.406
1573889173.176,10.254,-100.098,-717.773,-6.348,-143.066
1573889173.180,30.762,-105.957,-262.207,39.062,-4.395
1573889173.184,48.828,-125.488,-429.199,50.781,100.586
1573889173.188,31.250,-140.625,-902.832,13.672,-12.207
1573889173.192,6.348,-134.766,-827.148,-8.301,-121.094
1573889173.196,21.484,-121.094,-401.367,24.902,-5.859
1573889173.200,46.387,-122.559,-532.715,49.316,120.117
1573889173.204,42.480,-128.418,-966.797,24.902,-7.812
1573889173.208,10.254,-113.770,-887.695,-4.395,-157.227
1573889173.212,8.301,-87.891,-303.223,18.066,-60.059
1573889173.215,36.621,-75.684,-183.105,48.828,90.820
1573889173.219,33.691,-81.543,-691.895,27.832,71.777
1573889173.223,11.230,-85.938,-824.219,-5.371,-84.961
1573889173.227,9.277,-79.590,-422.852,10.254,-119.629
1573889173.231,21.973,-77.148,-206.543,35.645,29.297
1573889173.235,22.949,-75.195,-442.383,21.484,120.117
1573889173.239,3.906,-71.777,-706.055,-8.789,-21.484
1573889173.243,-7.324,-75.195,-656.738,-1.465,-141.113
1573889173.247,11.719,-77.148,-557.129,33.691,-31.250
1573889173.251,22.949,-83.008,-748.047,38.086,93.262
1573889173.255,7.812,-74.707,-838.379,6.836,10.742
1573889173.258,-3.418,-66.406,-677.246,-1.465,-114.746
1573889173.262,1.465,-70.312,-342.773,22.949,-51.758
1573889173.266,20.508,-71.777,-233.887,42.969,94.727
1573889173.270,22.949,-82.031,-485.840,31.250,66.895
1573889173.274,9.277,-85.938,-613.770,15.137,-92.773
1573889173.278,15.625,-71.777,-301.758,39.062,-78.125
1573889173.282,32.227,-62.500,-29.297,63.965,94.727
1573889173.286,33.691,-66.406,-291.992,51.758,119.141
1573889173.290,31.250,-72.266,-737.793,33.691,-56.152
1573889173.294,33.691,-69.824,-846.680,38.086,-131.836
1573889173.298,28.809,-62.988,-465.332,45.410,20.508
1573889173.301,27.344,-66.895,-326.172,37.109,111.816
1573889173.305,23.926,-73.242,-780.273,18.066,-41.016
1573889173.309,17.090,-67.871,-666.016,18.066,-130.371
1573889173.313,22.949,-64.941,-167.969,46.387,5.859
1573889173.317,38.086,-72.266,-269.531,57.617,137.207
1573889173.321,24.414,-79.590,-754.883,19.531,28.809
1573889173.325,-8.301,-69.824,-768.555,-6.348,-112.793
1573889173.329,-2.441,-61.035,-197.266,22.461,-24.414
1573889173.333,34.668,-69.824,-127.441,54.688,117.188
1573889173.337,31.250,-84.473,-727.051,30.273,42.969
1573889173.340,-5.371,-89.844,-938.477,-8.301,-118.164
1573889173.344,-10.254,-83.008,-389.160,8.789,-62.988
1573889173.348,12.695,-91.309,-34.668,41.992,113.770
1573889173.352,21.973,-94.727,-558.594,29.785,116.211
1573889173.356,-8.301,-84.473,-1000.000,-16.113,-71.289
1573889173.360,-29.785,-75.195,-617.188,-22.461,-126.953
1573889173.364,-2.441,-72.754,-213.379,25.391,27.344
1573889173.368,20.020,-71.289,-473.145,34.668,114.258
1573889173.372,3.906,-60.547,-935.059,-1.953,-20.996
1573889173.376,-12.207,-50.781,-741.211,-7.324,-124.512
1573889173.380,20.996,-47.852,-192.871,38.574,11.719
1573889173.383,39.062,-57.617,-366.699,62.012,142.090
1573889173.387,9.277,-74.219,-927.734,27.344,35.645
1573889173.391,-2.441,-77.148,-861.328,3.906,-114.746
1573889173.395,10.742,-78.613,-383.789,30.762,-51.758
1573889173.399,31.250,-83.496,-623.047,55.176,66.406
1573889173.403,20.020,-75.195,-1000.000,24.902,43.945
1573889173.407,-6.836,-67.871,-828.125,-4.395,-52.734
1573889173.411,2.930,-62.500,-521.484,19.043,-94.727
1573889173.415,21.973,-56.641,-339.355,44.434,43.945
1573889173.419,17.090,-62.988,-509.766,39.551,100.586
1573889173.423,4.395,-76.660,-835.938,17.578,-63.965
1573889173.426,-3.906,-81.543,-693.848,11.719,-138.184
1573889173.430,8.789,-79.102,-444.336,37.109,2.441
1573889173.434,28.809,-79.102,-622.559,46.875,114.746
1573889173.438,14.160,-70.312,-916.016,15.137,-4.395
1573889173.442,-6.836,-58.105,-945.312,-2.930,-144.043
1573889173.446,3.906,-48.828,-591.309,24.414,-52.246
1573889173.450,22.461,-33.691,-236.816,46.387,130.859
1573889173.454,6.836,-30.273,-522.949,17.578,76.172
1573889173.458,-17.578,-35.156,-933.594,-4.395,-139.160
1573889173.462,-12.207,-23.926,-649.414,13.672,-106.445
1573889173.465,9.277,-13.184,-148.438,36.621,114.258
1573889173.469,16.113,-16.602,-458.984,20.996,114.258
1573889173.473,-2.930,-15.625,-810.059,-17.578,-61.035
1573889173.477,-4.395,1.953,-537.598,-2.930,-82.520
1573889173.481,21.973,16.113,-262.207,41.016,77.148
1573889173.485,40.527,17.090,-567.871,39.551,130.371
1573889173.489,25.879,12.207,-1000.000,8.789,-59.082
1573889173.493,9.277,17.090,-722.656,3.906,-160.156
1573889173.497,22.949,31.738,-139.160,36.621,-5.859
1573889173.501,33.203,33.203,-294.434,44.922,118.164
1573889173.505,11.230,24.414,-792.969,9.277,7.812
1573889173.508,-7.812,23.926,-669.434,-2.930,-130.859
1573889173.512,9.766,24.414,-133.301,34.668,-22.461
1573889173.516,32.227,20.508,-162.109,58.105,138.184
1573889173.520,15.625,10.254,-661.133,25.391,75.195
1573889173.524,-4.395,6.836,-865.723,0.000,-95.703
1573889173.528,9.766,11.230,-501.953,19.043,-83.984
1573889173.532,35.645,7.324,-385.254,47.852,73.730
1573889173.536,33.203,-2.441,-876.953,33.691,91.797
1573889173.540,-0.977,-9.766,-985.352,-9.277,-66.406
1573889173.544,-7.324,-9.766,-613.281,-2.441,-107.910
1573889173.548,12.207,-13.672,-303.223,30.762,37.109
1573889173.551,14.648,-19.043,-461.426,23.438,125.488
1573889173.555,-5.859,-23.438,-676.758,-15.137,10.254
1573889173.559,-14.648,-32.715,-563.477,-14.648,-112.793
1573889173.563,3.418,-43.457,-287.109,22.461,-11.719
1573889173.567,24.414,-52.246,-393.555,32.715,97.168
1573889173.571,9.277,-49.805,-849.609,4.395,-1.953
1573889173.575,-10.254,-44.434,-886.719,-10.742,-115.234
1573889173.579,7.324,-42.969,-708.008,18.555,-64.453
1573889173.583,26.367,-33.203,-518.066,39.551,100.586
1573889173.587,23.926,-27.832,-507.324,13.184,97.656
1573889173.590,5.371,-28.320,-742.188,-9.766,-88.867
1573889173.594,4.883,-27.344,-453.125,12.695,-93.262
1573889173.598,32.715,-35.645,-174.805,46.875,70.312
1573889173.602,35.645,-42.969,-431.152,36.621,96.191
1573889173.606,2.441,-42.480,-722.656,-2.930,-59.082
1573889173.610,-3.906,-31.738,-403.809,8.301,-101.562
1573889173.614,21.484,-26.367,16.602,47.852,39.551
1573889173.618,33.203,-25.391,-351.562,47.852,97.168
1573889173.622,19.531,-21.973,-926.270,15.137,-54.199
1573889173.626,7.324,-15.137,-829.590,7.324,-165.527
1573889173.630,18.555,-9.766,-73.730,38.086,-2.441
1573889173.633,30.762,-11.719,127.441,52.734,148.438
1573889173.637,18.066,-13.672,-402.344,23.926,46.875
1573889173.641,3.906,-17.578,-481.934,7.812,-110.840
1573889173.645,13.184,-15.625,60.547,38.574,-50.293
1573889173.649,36.133,-14.160,252.930,60.059,122.559
1573889173.653,34.180,-17.578,-312.012,37.598,89.844
1573889173.657,3.418,-11.719,-638.672,3.906,-92.773
1573889173.661,-1.953,-3.418,-130.859,13.672,-98.145
1573889173.665,22.461,-17.090,89.355,46.387,66.895
1573889173.669,28.320,-30.762,-580.566,36.621,95.703
1573889173.673,6.836,-25.391,-879.395,-5.371,-58.105
1573889173.676,-10.254,-16.602,-277.344,-12.695,-112.305
1573889173.680,9.277,-13.184,79.590,29.785,24.414
1573889173.684,31.250,-25.391,-191.406,37.109,113.281
1573889173.688,10.742,-28.809,-470.215,-6.348,18.555
1573889173.692,-5.859,-25.879,-336.426,-11.230,-102.051
1573889173.696,18.066,-40.039,-24.902,32.227,-16.113
1573889173.700,44.922,-48.828,-116.211,55.664,122.070
1573889173.704,31.738,-48.340,-505.371,26.367,47.363
1573889173.708,3.418,-41.504,-574.219,-0.488,-104.980
1573889173.712,15.625,-31.250,-350.586,28.320,-76.660
1573889173.715,38.086,-26.855,-393.066,62.500,67.871
1573889173.719,28.320,-35.645,-739.746,39.062,71.777
1573889173.723,-3.906,-43.945,-782.715,-5.371,-75.195
1573889173.727,6.348,-36.621,-616.699,14.648,-122.070
1573889173.731,32.715,-37.598,-518.555,56.152,13.672
1573889173.735,26.855,-44.922,-476.074,44.434,89.355
1573889173.739,8.301,-38.086,-770.508,8.301,-62.500
1573889173.743,-1.465,-21.484,-620.605,8.301,-131.348
1573889173.747,24.414,-1.465,-186.523,49.805,3.418
1573889173.751,46.875,9.766,-199.219,62.012,124.023
1573889173.755,26.855,10.742,-567.383,31.250,32.715
1573889173.758,4.883,8.301,-720.215,14.648,-122.070
1573889173.762,13.184,5.859,-438.965,39.062,-55.664
1573889173.766,35.156,8.789,-416.016,63.477,99.609
1573889173.770,34.668,10.742,-832.520,36.133,27.344
1573889173.774,12.207,14.160,-1000.000,4.883,-169.434
1573889173.778,9.766,22.461,-578.613,29.297,-130.371
1573889173.782,28.809,16.113,-109.375,55.664,94.238
1573889173.786,30.762,2.930,-497.070,41.992,113.281
1573889173.790,12.695,7.324,-923.828,17.090,-79.590
1573889173.794,4.395,20.020,-528.320,17.090,-116.699
1573889173.798,27.344,24.902,-99.609,50.293,66.895
1573889173.801,32.715,18.066,-462.891,48.340,118.652
1573889173.805,6.348,10.742,-1000.000,13.184,-57.617
1573889173.809,-5.859,18.066,-856.445,10.742,-128.418
1573889173.813,13.184,22.949,-297.363,41.504,21.973
1573889173.817,35.645,6.348,-478.516,55.176,109.863
1573889173.821,20.996,-1.465,-1000.000,22.949,2.930
1573889173.825,-2.441,0.000,-902.832,4.395,-114.258
1573889173.829,2.930,-23.438,-406.738,32.227,-42.480
1573889173.833,25.391,-40.039,-300.293,55.176,118.164
1573889173.837,22.461,-40.039,-690.918,31.738,79.102
1573889173.840,2.930,-30.273,-753.418,5.371,-88.379
1573889173.844,7.812,-19.043,-338.379,25.879,-67.871
1573889173.848,31.738,-20.020,-232.910,57.129,67.871
1573889173.852,35.645,-16.602,-737.305,42.480,56.641
1573889173.856,10.742,-1.953,-979.492,3.418,-73.730
1573889173.860,7.324,6.348,-621.582,13.672,-122.070
1573889173.864,34.180,-2.441,-512.695,52.734,14.160
1573889173.868,40.527,-16.113,-710.449,49.805,88.379
1573889173.872,20.996,-26.367,-759.766,17.578,-25.391
1573889173.876,11.719,-41.016,-613.770,12.207,-116.699
1573889173.880,32.227,-50.781,-349.609,46.387,-14.648
1573889173.883,46.875,-48.340,-268.555,55.664,136.230
1573889173.887,35.645,-40.039,-528.809,24.902,60.547
1573889173.891,18.066,-33.203,-641.602,7.812,-98.633
1573889173.895,11.719,-39.551,-271.973,17.578,-54.688
1573889173.899,24.414,-45.410,-243.164,34.180,91.309
1573889173.903,14.648,-47.852,-638.184,15.137,85.938
1573889173.907,-2.441,-62.500,-923.340,-6.836,-104.492
1573889173.911,8.789,-57.129,-763.184,15.137,-133.301
1573889173.915,14.160,-32.227,-207.031,31.250,72.266
1573889173.919,9.766,-25.391,-326.660,15.137,108.398
1573889173.923,-3.418,-22.949,-709.473,-7.812,-41.992
1573889173.926,1.953,-21.484,-433.105,10.254,-99.121
1573889173.930,31.738,-20.020,-4.883,56.152,20.996
1573889173.934,28.809,-9.766,-238.770,44.922,100.098
1573889173.938,4.395,-0.488,-730.469,4.883,14.160
1573889173.942,-7.324,1.465,-656.250,1.953,-118.652
1573889173.946,10.254,-3.418,-317.383,33.203,-45.898
1573889173.950,37.109,-11.719,-400.391,53.223,130.859
1573889173.954,23.926,-19.531,-870.605,18.066,42.480
1573889173.958,-12.207,-19.531,-866.699,-18.066,-121.094
1573889173.962,-1.465,-16.602,-254.883,16.113,-59.570
1573889173.965,25.879,-19.043,-174.805,40.527,88.379
1573889173.969,22.461,-23.438,-714.355,8.789,58.594
1573889173.973,-0.488,-28.809,-813.965,-17.090,-78.613
1573889173.977,-3.906,-27.344,-376.465,8.301,-88.867
1573889173.981,21.973,-31.250,-250.977,45.410,29.297
1573889173.985,24.414,-32.227,-606.934,36.133,79.590
1573889173.989,-0.977,-20.020,-844.238,-6.348,-45.410
1573889173.993,-8.789,-12.207,-678.711,-5.859,-129.883
1573889173.997,24.902,-12.695,-571.289,43.945,-26.367
1573889174.001,33.203,-27.832,-865.234,43.457,96.680
1573889174.005,6.836,-41.504,-964.844,1.465,13.184
1573889174.008,-0.488,-35.156,-746.582,-7.324,-147.461
1573889174.012,20.996,-17.578,-469.238,28.809,-87.891
1573889174.016,41.504,-11.719,-353.027,55.664,97.656
1573889174.020,26.367,-15.625,-631.348,22.461,48.340
1573889174.024,2.441,-9.277,-778.809,-6.348,-119.629
1573889174.028,3.906,-9.277,-423.340,18.555,-63.477
1573889174.032,30.762,-12.695,-193.848,53.223,104.980
1573889174.036,36.133,-12.695,-578.125,46.387,92.285
1573889174.040,21.484,-7.812,-963.379,13.672,-87.891
1573889174.044,19.531,7.324,-992.188,17.090,-179.688
1573889174.048,34.180,15.625,-666.504,46.387,-12.207
1573889174.051,35.645,8.789,-532.715,42.480,114.258
1573889174.055,12.695,1.465,-892.578,7.812,-39.551
1573889174.059,1.953,1.953,-778.809,0.000,-151.367
1573889174.063,21.973,4.395,-228.516,37.598,0.977
1573889174.067,31.250,3.418,-184.570,48.828,134.277
1573889174.071,15.625,-5.859,-679.688,18.555,40.527
1573889174.075,-1.953,-13.184,-787.598,4.395,-116.211
1573889174.079,0.000,-10.254,-243.652,19.531,-38.574
1573889174.083,20.996,-16.113,-126.953,35.156,121.582
1573889174.087,20.508,-26.855,-724.121,14.648,41.016
1573889174.090,-2.441,-20.020,-1000.000,-11.230,-131.836
1573889174.094,-5.371,-11.230,-550.781,1.953,-107.422
1573889174.098,16.113,-2.930,-99.609,33.203,95.703
1573889174.102,23.926,-4.883,-548.828,27.344,87.402
1573889174.106,0.000,-6.348,-1000.000,-7.324,-98.145
1573889174.110,-10.254,2.930,-524.414,-1.953,-94.238
1573889174.114,14.648,2.930,-58.594,30.273,51.758
1573889174.118,26.367,-0.977,-374.023,32.715,109.863
1573889174.122,10.254,5.859,-782.715,0.488,-18.066
1573889174.126,0.488,16.602,-565.918,-6.348,-111.328
1573889174.130,14.648,26.367,-157.227,30.273,1.953
1573889174.133,30.273,25.879,-358.887,45.898,125.488
1573889174.137,21.973,18.066,-899.414,13.672,20.996
1573889174.141,0.000,32.227,-878.906,-17.090,-126.465
1573889174.145,10.742,48.340,-336.426,10.254,-41.992
1573889174.149,37.109,44.434,-455.566,43.457,109.863
1573889174.153,32.715,39.551,-853.027,20.020,72.754
1573889174.157,12.695,39.551,-724.609,-5.859,-73.242
1573889174.161,9.277,27.344,-469.238,11.719,-86.914
1573889174.165,23.438,12.695,-361.328,38.086,59.082
1573889174.169,20.508,5.859,-517.090,22.949,109.375
1573889174.173,-4.395,3.906,-732.910,-17.578,-37.598
1573889174.176,-15.137,6.836,-519.531,-19.043,-97.168
1573889174.180,7.812,6.348,-272.949,13.672,35.156
1573889174.184,32.227,6.348,-475.586,25.391,130.859
1573889174.188,11.230,6.348,-759.766,-5.371,4.883
1573889174.192,-13.672,-2.441,-867.676,-19.531,-158.203
1573889174.196,2.930,0.000,-617.188,16.602,-59.082
1573889174.200,22.461,9.277,-304.199,39.062,104.004
1573889174.204,9.277,2.441,-533.691,11.719,45.898
1573889174.208,-17.090,-3.906,-704.102,-20.508,-94.238
1573889174.212,1.953,10.254,-326.172,14.648,-62.012
1573889174.215,32.227,20.020,31.738,59.082,107.422
1573889174.219,18.555,10.254,-390.137,28.809,109.375
1573889174.223,-8.789,11.719,-673.340,-4.395,-48.340
1573889174.227,0.977,18.066,-381.348,18.555,-89.844
1573889174.231,21.484,27.832,-143.555,47.363,55.176
1573889174.235,24.414,28.809,-232.910,38.086,136.230
1573889174.239,22.461,18.066,-794.922,13.184,-34.668
1573889174.243,13.672,25.879,-562.988,13.184,-120.605
1573889174.247,21.973,25.879,119.141,45.410,27.344
1573889174.251,30.762,10.742,-49.805,48.828,138.672
1573889174.255,13.184,7.324,-508.301,6.836,11.719
1573889174.258,-5.371,11.719,-374.023,-9.277,-125.977
1573889174.262,7.812,16.113,130.859,30.273,-33.203
1573889174.266,28.809,10.254,23.926,46.875,84.473
1573889174.270,13.672,7.324,-445.312,6.348,23.926
1573889174.274,-9.277,7.812,-617.676,-18.066,-137.207
1573889174.278,-0.488,6.836,-231.445,5.859,-71.777
1573889174.282,24.902,-0.488,-148.438,36.621,89.844
1573889174.286,24.414,-14.160,-680.664,18.066,57.129
1573889174.290,-6.348,-24.414,-652.832,-23.438,-80.566
1573889174.294,-14.160,-23.438,-149.414,-10.742,-99.609
1573889174.298,20.020,-20.996,72.266,38.086,49.316
1573889174.301,34.668,-32.227,-233.398,40.527,101.074
1573889174.305,4.883,-42.969,-545.410,-0.977,-40.527
1573889174.309,-7.324,-41.992,-430.176,-2.441,-140.137
1573889174.313,17.090,-34.668,-128.906,42.480,-12.695
1573889174.317,37.598,-28.809,-164.551,56.152,121.582
1573889174.321,32.715,-20.996,-655.273,29.297,11.230
1573889174.325,14.648,-14.648,-820.801,16.113,-137.695
1573889174.329,21.973,-22.949,-414.551,39.062,-44.434
1573889174.333,39.062,-32.715,-284.180,58.105,116.211
1573889174.337,34.668,-42.969,-595.215,35.645,54.688
1573889174.340,26.367,-48.828,-825.195,12.695,-129.883
1573889174.344,28.320,-41.992,-758.789,33.203,-133.301
1573889174.348,39.551,-33.203,-366.699,56.641,74.219
1573889174.352,38.574,-33.203,-440.430,36.133,106.445
1573889174.356,17.090,-28.809,-843.262,4.883,-82.031
1573889174.360,6.348,-20.996,-555.664,13.184,-112.793
1573889174.364,23.438,-24.414,-41.992,46.387,62.500
1573889174.368,34.668,-24.414,-327.148,42.480,148.438
1573889174.372,21.484,-18.555,-922.363,3.906,-27.832
1573889174.376,8.789,-16.602,-854.980,-2.441,-161.133
1573889174.380,15.625,-18.066,-266.113,28.320,-2.930
1573889174.383,31.250,-26.367,-131.836,37.598,151.367
1573889174.387,18.555,-33.203,-692.871,4.883,53.711
1573889174.391,-0.977,-37.598,-825.195,-7.812,-85.938
1573889174.395,11.719,-33.691,-249.512,21.484,-11.719
1573889174.399,36.621,-35.156,-151.367,43.945,119.141
1573889174.403,35.156,-51.758,-712.891,23.438,66.406
1573889174.407,4.883,-58.105,-897.949,-8.789,-88.867
1573889174.411,-1.953,-47.852,-460.449,7.812,-93.750
1573889174.415,25.879,-48.340,-336.914,47.852,76.660
1573889174.419,40.039,-50.781,-804.199,45.410,89.844
1573889174.423,23.438,-31.738,-985.352,10.742,-73.242
1573889174.426,9.766,-18.555,-524.902,11.230,-104.492
1573889174.430,27.344,-20.508,-183.594,50.293,28.320
1573889174.434,40.039,-30.762,-449.707,53.711,112.305
1573889174.438,20.996,-34.668,-730.469,16.113,6.836
1573889174.442,7.812,-22.461,-491.211,4.883,-78.125
1573889174.446,30.762,-10.742,-177.246,40.039,25.879
1573889174.450,38.574,-17.090,-262.207,51.270,148.438
1573889174.454,14.648,-30.762,-502.441,9.766,89.355
1573889174.458,2.441,-36.133,-608.887,-8.301,-82.031
1573889174.462,9.766,-41.016,-484.863,15.625,-43.945
1573889174.465,26.367,-43.945,-511.719,34.668,108.887
1573889174.469,10.742,-43.457,-666.016,8.789,80.078
1573889174.473,-19.531,-36.621,-711.426,-18.066,-90.332
1573889174.477,-14.648,-26.855,-482.910,2.930,-101.562
1573889174.481,6.348,-26.367,-185.059,30.762,74.707
1573889174.485,10.254,-25.879,-247.559,21.484,136.230
1573889174.489,-12.207,-18.555,-585.449,-10.254,-24.902
1573889174.493,-23.438,-11.719,-511.719,-9.766,-125.000
1573889174.497,-3.906,-5.371,-47.363,24.902,38.086
1573889174.501,14.160,-3.418,-122.070,32.227,152.344
1573889174.505,-1.465,-5.371,-691.406,1.465,-4.395
1573889174.508,-9.766,3.906,-708.008,-1.465,-131.836
1573889174.512,21.973,20.508,-333.008,45.410,-26.855
1573889174.516,51.270,27.344,-215.332,69.336,126.953
1573889174.520,41.992,29.785,-450.684,35.156,92.285
1573889174.524,20.508,45.410,-828.125,8.789,-91.797
1573889174.528,27.344,54.199,-474.609,29.297,-89.355
1573889174.532,51.758,33.203,-25.879,62.500,69.336
1573889174.536,55.664,18.555,-481.445,48.828,62.012
1573889174.540,23.438,23.438,-758.789,10.254,-77.148
1573889174.544,13.672,33.203,-327.148,22.949,-110.840
1573889174.548,42.480,39.551,53.223,64.453,51.270
1573889174.551,46.387,36.621,-308.105,55.664,104.004
1573889174.555,22.461,34.180,-858.398,10.742,-48.828
1573889174.559,11.719,37.109,-691.895,4.395,-125.000
1573889174.563,28.809,37.598,-268.066,40.039,-0.488
1573889174.567,33.691,19.043,-503.906,42.480,74.219
1573889174.571,-3.906,-8.301,-1000.000,-2.930,-65.430
1573889174.575,-35.645,-9.766,-795.898,-30.273,-161.621
1573889174.579,-24.414,0.488,-255.371,-3.418,-61.035
1573889174.583,-5.859,4.883,-237.305,19.043,96.191
1573889174.587,-22.461,6.348,-656.250,-17.090,45.410
1573889174.590,-42.969,10.742,-769.531,-47.363,-137.207
1573889174.594,-31.738,16.113,-382.324,-17.090,-105.469
1573889174.598,-8.301,2.930,-209.961,20.020,74.707
1573889174.602,2.930,-10.742,-639.160,12.695,88.867
1573889174.606,-7.324,-11.230,-984.375,-15.137,-76.172
1573889174.610,-7.812,-10.742,-783.203,-2.930,-143.066
1573889174.614,14.160,-4.395,-686.523,24.902,-2.441
1573889174.618,17.090,0.000,-788.574,13.672,88.867
1573889174.622,-3.418,0.977,-786.133,-15.625,-34.180
1573889174.626,-0.977,13.184,-705.566,-5.859,-151.367
1573889174.630,20.996,26.855,-367.676,30.273,-32.227
1573889174.633,35.645,30.273,-295.410,37.109,105.469
1573889174.637,27.344,24.902,-621.582,10.742,28.320
1573889174.641,7.812,13.184,-738.770,-1.953,-123.047
1573889174.645,19.043,1.465,-422.852,26.367,-75.195
1573889174.649,44.922,-5.371,-352.539,55.664,92.285
1573889174.653,40.527,-11.230,-781.738,36.621,57.129
1573889174.657,16.113,-18.555,-1000.000,2.441,-126.465
1573889174.661,12.695,-4.395,-730.957,15.137,-138.184
1573889174.665,32.227,4.395,-229.492,49.805,57.129
1573889174.669,32.715,-7.812,-466.309,37.109,109.375
1573889174.673,3.906,-16.602,-992.676,-10.254,-73.242
1573889174.676,-11.230,-13.672,-771.973,-12.207,-139.648
1573889174.680,0.000,-9.766,-157.715,19.043,41.992
1573889174.684,5.859,-14.160,-260.254,22.949,126.953
1573889174.688,-9.277,-5.371,-772.949,-4.883,0.488
1573889174.692,-17.090,11.719,-628.418,-11.230,-105.469
1573889174.696,3.418,11.719,-275.391,29.785,-17.090
1573889174.700,29.297,4.395,-445.801,55.176,114.746
1573889174.704,20.020,2.930,-920.898,21.973,-1.465
1573889174.708,3.906,-2.930,-856.934,-5.371,-138.672
1573889174.712,16.602,-6.836,-253.418,30.762,-56.152
1573889174.715,43.945,-18.555,-171.875,64.941,92.773
1573889174.719,43.945,-38.086,-675.781,40.039,66.406
1573889174.723,5.859,-55.664,-761.719,-1.465,-81.543
1573889174.727,3.906,-63.965,-426.270,15.137,-93.262
1573889174.731,41.016,-58.105,-270.996,57.617,80.566
1573889174.735,50.781,-53.223,-427.246,45.898,148.926
1573889174.739,22.949,-64.453,-674.805,2.930,-30.762
1573889174.743,7.324,-77.148,-600.098,-7.324,-130.859
1573889174.747,26.367,-77.637,-507.812,23.438,-14.648
1573889174.751,42.969,-80.566,-791.992,32.227,78.125
1573889174.755,17.090,-87.402,-903.320,-5.371,-18.066
1573889174.758,-2.930,-78.613,-608.398,-19.531,-117.188
1573889174.762,13.672,-69.824,-196.777,14.648,3.418
1573889174.766,35.156,-73.242,-254.395,34.668,112.793
1573889174.770,27.832,-74.707,-597.168,10.742,40.527
1573889174.774,2.441,-71.777,-641.113,-13.672,-89.355
1573889174.778,-0.488,-71.289,-320.312,-0.977,-54.199
1573889174.782,18.066,-76.172,-137.207,23.438,106.445
1573889174.786,19.043,-81.543,-540.039,14.648,92.773
1573889174.790,1.465,-77.637,-936.523,-6.348,-90.332
1573889174.794,0.977,-68.359,-906.738,4.883,-132.812
1573889174.798,12.207,-64.941,-541.992,22.949,31.738
1573889174.801,13.672,-82.031,-431.641,12.695,96.680
1573889174.805,0.977,-94.238,-783.203,-11.719,-49.805
1573889174.809,-1.953,-89.355,-619.141,-6.836,-123.535
1573889174.813,19.043,-77.637,-61.523,29.297,15.625
1573889174.817,27.832,-71.289,0.977,33.691,150.391
1573889174.821,12.695,-85.449,-436.523,-3.418,54.688
1573889174.825,-5.371,-100.098,-497.559,-15.625,-101.562
1573889174.829,4.883,-95.215,-85.449,16.113,-58.105
1573889174.833,21.973,-86.914,11.719,37.598,97.656
1573889174.837,11.230,-89.355,-569.336,14.648,44.434
1573889174.840,0.000,-88.379,-941.406,-10.254,-127.441
1573889174.844,-0.488,-79.590,-358.887,8.301,-72.266
1573889174.848,19.531,-81.543,133.301,38.574,95.703
1573889174.852,33.203,-95.703,-286.133,24.414,98.145
1573889174.856,10.254,-96.680,-600.098,-10.742,-50.781
1573889174.860,1.953,-86.914,-121.582,-0.977,-91.797
1573889174.864,26.367,-81.055,246.582,40.527,58.105
1573889174.868,36.133,-83.496,-89.355,41.016,115.723
1573889174.872,19.043,-89.355,-524.902,12.207,-36.133
1573889174.876,5.859,-92.285,-315.918,11.230,-134.277
