timestamps,TP9,AF7,AF8,TP10,Right AUX
1573889572.692,24.902,10.742,-336.914,6.836,-59.570
1573889572.696,29.785,15.625,-109.863,21.484,-91.309
1573889572.700,37.598,18.555,354.004,38.574,97.168
1573889572.704,30.273,18.066,221.680,33.203,145.996
1573889572.708,14.648,19.531,-251.953,17.090,-33.691
1573889572.712,5.371,15.137,-258.789,16.113,-97.656
1573889572.715,14.160,17.578,69.336,34.668,48.340
1573889572.719,16.113,22.461,135.254,34.668,163.574
1573889572.723,2.930,14.160,-394.531,8.789,49.805
1573889572.727,-1.953,7.324,-605.957,2.441,-115.723
1573889572.731,12.695,10.254,191.895,27.344,9.277
1573889572.735,29.297,13.184,407.715,45.410,157.715
1573889572.739,21.484,16.602,-178.223,24.414,49.805
1573889572.743,7.812,14.160,-461.914,0.977,-125.488
1573889572.747,20.508,19.043,48.828,21.973,-62.012
1573889572.751,37.598,23.438,354.004,42.969,125.488
1573889572.755,26.855,18.066,-20.996,23.438,101.074
1573889572.758,11.719,21.973,-381.836,-0.488,-70.801
1573889572.762,11.719,24.902,-159.180,7.812,-71.777
1573889572.766,35.156,19.531,262.695,42.480,113.281
1573889572.770,46.387,12.695,-186.523,41.504,122.559
1573889572.774,18.066,14.648,-498.535,3.906,-40.527
1573889572.778,8.789,17.090,-34.180,2.441,-82.520
1573889572.782,22.949,21.484,291.504,25.391,40.527
1573889572.786,28.809,24.414,227.539,27.344,145.996
1573889572.790,16.602,18.066,-5.371,3.418,57.617
1573889572.794,5.859,17.090,-28.320,-6.836,-71.289
1573889572.798,15.137,18.066,214.355,12.695,5.371
1573889572.801,25.879,17.090,306.152,24.414,148.438
1573889572.805,17.578,29.297,-83.984,3.906,106.445
1573889572.809,0.000,30.762,-271.973,-14.160,-23.926
1573889572.813,8.789,15.137,-204.102,-0.488,-61.523
1573889572.817,23.926,10.742,-147.949,13.184,85.449
1573889572.821,18.066,9.277,4.883,7.324,126.953
1573889572.825,5.859,7.812,-174.316,-8.789,-33.203
1573889572.829,8.789,20.508,-92.773,0.000,-78.125
1573889572.833,30.762,33.691,309.570,29.297,74.707
1573889572.837,27.832,28.809,322.266,25.879,161.621
1573889572.840,6.348,31.250,-125.977,1.465,5.859
1573889572.844,4.395,35.156,-175.781,0.977,-100.586
1573889572.848,20.020,24.414,287.598,24.414,27.832
1573889572.852,28.320,18.066,235.840,32.715,144.043
1573889572.856,15.625,15.625,-352.051,11.230,36.133
1573889572.860,5.371,19.043,-639.160,-0.488,-106.445
1573889572.864,19.531,32.227,-64.941,22.949,-37.598
1573889572.868,38.086,36.133,431.152,42.480,124.023
1573889572.872,27.344,26.855,9.766,23.926,63.477
1573889572.876,10.254,15.625,-232.422,6.348,-85.938
1573889572.880,16.602,12.207,281.250,22.949,-34.180
1573889572.883,35.156,19.531,669.922,44.434,145.996
1573889572.887,30.273,22.461,291.016,33.203,131.348
1573889572.891,13.672,23.926,-105.469,8.789,-35.645
1573889572.895,12.695,27.344,197.754,11.719,-71.777
1573889572.899,29.297,26.855,401.855,33.203,52.734
1573889572.903,46.875,27.344,156.738,44.434,145.020
1573889572.907,29.785,26.367,-69.824,19.043,13.184
1573889572.911,-9.277,25.391,10.742,-17.578,-105.469
1573889572.915,-16.602,29.785,385.254,-15.625,20.996
1573889572.919,-12.695,34.668,284.668,-12.207,143.555
1573889572.923,-35.645,34.180,-60.059,-41.504,66.895
1573889572.926,-59.570,32.715,106.934,-62.012,-66.406
1573889572.930,-65.918,30.762,427.246,-56.641,-35.645
1573889572.934,-71.289,31.250,400.879,-53.711,123.047
1573889572.938,-84.473,40.039,120.605,-78.613,90.820
1573889572.942,-105.469,47.363,23.438,-105.469,-93.262
1573889572.946,-115.234,46.875,142.090,-104.980,-68.848
1573889572.950,-109.863,50.293,265.625,-97.168,95.703
1573889572.954,-115.234,53.223,251.465,-107.422,124.512
1573889572.958,-134.277,55.176,87.402,-128.418,-22.461
1573889572.962,-141.602,57.129,83.008,-129.395,-100.098
1573889572.965,-135.254,58.105,120.117,-121.094,22.949
1573889572.969,-137.207,63.477,99.609,-127.930,124.023
1573889572.973,-147.949,60.059,85.938,-148.438,53.711
1573889572.977,-155.762,53.711,-68.848,-155.273,-86.426
1573889572.981,-144.531,59.570,121.582,-136.719,-7.812
1573889572.985,-132.324,64.941,501.465,-125.977,170.410
1573889572.989,-146.484,62.012,192.383,-145.508,87.402
1573889572.993,-150.879,61.035,-192.871,-157.715,-88.379
1573889572.997,-132.324,62.988,27.344,-133.789,-30.762
1573889573.001,-117.676,62.500,398.926,-114.258,139.160
1573889573.005,-119.141,60.059,137.695,-123.047,89.355
1573889573.008,-129.883,62.012,-375.977,-140.625,-90.332
1573889573.012,-127.930,64.453,-111.328,-127.930,-72.754
1573889573.016,-112.305,63.477,501.465,-104.980,128.418
1573889573.020,-102.539,63.965,296.875,-108.887,161.133
1573889573.024,-114.746,61.035,-379.883,-127.441,-18.066
1573889573.028,-114.746,54.688,-222.656,-119.629,-72.266
1573889573.032,-99.609,50.781,394.043,-92.773,72.754
1573889573.036,-93.262,51.758,268.066,-89.844,165.039
1573889573.040,-97.168,49.805,-307.617,-111.328,65.430
1573889573.044,-107.910,50.781,-373.047,-119.629,-60.059
1573889573.048,-99.121,50.781,168.457,-95.215,12.207
1573889573.051,-80.566,45.898,194.824,-71.777,141.602
1573889573.055,-80.078,44.922,-325.195,-81.055,80.566
1573889573.059,-89.844,42.480,-391.113,-97.168,-84.473
1573889573.063,-86.426,41.016,58.594,-81.055,-54.199
1573889573.067,-78.613,37.109,176.758,-67.383,121.094
1573889573.071,-79.590,33.691,-439.453,-82.031,84.473
1573889573.075,-80.566,41.992,-585.938,-88.379,-101.562
1573889573.079,-77.637,45.410,-206.543,-76.172,-121.094
1573889573.083,-61.523,35.645,75.195,-59.570,61.035
1573889573.087,-52.246,34.668,-48.340,-53.711,150.879
1573889573.090,-56.641,34.180,-400.879,-66.406,-1.465
1573889573.094,-62.500,31.250,-249.512,-71.289,-113.281
1573889573.098,-53.711,36.133,173.340,-49.805,26.855
1573889573.102,-36.621,41.992,190.918,-37.598,137.695
1573889573.106,-42.969,36.133,-34.180,-50.781,49.805
1573889573.110,-49.805,21.484,-77.637,-54.199,-79.102
1573889573.114,-35.645,21.484,0.000,-36.621,-6.836
1573889573.118,-28.320,33.691,77.148,-29.785,135.742
1573889573.122,-44.434,33.691,-6.348,-51.758,69.824
1573889573.126,-54.199,32.715,-208.008,-65.918,-73.242
1573889573.130,-44.922,36.133,-13.672,-45.898,-47.852
1573889573.133,-41.992,31.738,237.793,-36.133,115.723
1573889573.137,-41.504,37.109,5.371,-42.480,126.953
1573889573.141,-37.109,37.598,-470.215,-42.969,-66.406
1573889573.145,-31.738,37.109,-483.887,-32.227,-113.281
1573889573.149,-28.320,45.898,179.199,-19.043,75.195
1573889573.153,-17.578,43.457,439.453,-18.555,178.223
1573889573.157,-24.902,39.062,-80.078,-34.180,10.742
1573889573.161,-41.992,37.109,-98.633,-42.480,-90.332
1573889573.165,-36.133,35.156,439.453,-28.809,33.203
1573889573.169,-25.879,37.109,490.234,-19.531,154.785
1573889573.173,-34.668,40.039,11.719,-39.551,59.082
1573889573.176,-47.852,41.992,-169.922,-55.664,-113.281
1573889573.180,-47.852,42.969,64.941,-40.527,-71.777
1573889573.184,-32.715,45.410,282.715,-26.855,117.188
1573889573.188,-28.320,45.410,-131.348,-38.086,95.703
1573889573.192,-41.016,34.180,-604.980,-56.152,-84.961
1573889573.196,-36.621,28.320,-80.566,-41.504,-82.520
1573889573.200,-13.184,34.180,403.320,-9.277,88.379
1573889573.204,-10.254,43.945,157.715,-14.160,115.723
1573889573.208,-26.367,38.086,-167.969,-41.016,-58.594
1573889573.212,-24.414,27.832,73.730,-28.809,-112.793
1573889573.215,-4.395,24.414,443.359,1.465,59.082
1573889573.219,8.789,29.785,246.094,7.324,137.695
1573889573.223,-0.977,37.109,-124.512,-11.719,-9.766
1573889573.227,0.488,39.551,-179.199,-7.812,-119.629
1573889573.231,20.996,33.691,58.105,23.438,-9.277
1573889573.235,24.414,25.879,17.090,24.902,145.020
1573889573.239,14.648,28.320,-199.219,6.836,58.105
1573889573.243,4.883,28.320,-83.008,0.000,-92.773
1573889573.247,12.207,21.973,233.887,15.625,-24.902
1573889573.251,31.250,27.344,269.043,32.715,108.887
1573889573.255,34.180,39.551,6.348,25.391,73.242
1573889573.258,10.254,30.762,-134.766,0.000,-66.406
1573889573.262,4.883,22.461,76.172,2.930,-65.918
1573889573.266,22.461,22.949,382.324,22.949,98.633
1573889573.270,27.344,22.949,307.129,18.066,168.457
1573889573.274,14.648,24.902,-174.805,-4.395,-2.441
1573889573.278,5.859,23.926,-472.168,-8.789,-125.488
1573889573.282,18.066,30.273,-191.895,14.160,-1.465
1573889573.286,24.902,35.156,202.637,20.996,149.902
1573889573.290,17.578,33.691,-80.078,10.254,19.043
1573889573.294,3.906,22.461,-268.555,2.441,-129.883
1573889573.298,8.789,9.766,185.059,18.066,-8.789
1573889573.301,30.273,11.719,432.129,41.504,155.273
1573889573.305,32.227,20.508,-18.555,30.273,69.824
1573889573.309,19.043,23.438,-391.602,8.789,-119.629
1573889573.313,31.250,26.367,12.695,28.809,-67.383
1573889573.317,53.711,31.738,489.746,56.152,151.855
1573889573.321,46.875,19.531,31.250,40.527,136.230
1573889573.325,35.156,15.137,-701.172,19.043,-62.012
1573889573.329,41.016,20.020,-367.676,26.855,-104.492
1573889573.333,51.758,17.578,336.426,47.363,81.543
1573889573.337,54.688,23.926,192.871,48.340,164.062
1573889573.340,41.992,32.715,-356.934,21.973,-11.230
1573889573.344,33.691,22.461,-208.008,20.508,-100.586
1573889573.348,43.457,10.254,319.824,50.293,37.598
1573889573.352,46.387,13.672,230.957,53.223,143.555
1573889573.356,26.855,13.184,-227.539,26.367,23.438
1573889573.360,10.254,10.254,-205.078,14.160,-100.098
1573889573.364,22.949,19.531,146.973,37.109,-3.906
1573889573.368,29.297,25.391,183.105,45.898,154.297
1573889573.372,12.207,18.066,-278.809,19.043,72.266
1573889573.376,4.395,13.672,-394.531,10.254,-81.055
1573889573.380,16.602,18.555,157.227,27.832,-24.902
1573889573.383,30.762,18.555,101.562,38.086,104.492
1573889573.387,20.508,12.695,-268.066,20.020,138.672
1573889573.391,-4.395,7.812,-230.469,-5.859,-7.812
1573889573.395,-10.254,8.301,-47.363,-2.441,-79.102
1573889573.399,9.277,16.113,229.004,24.414,76.172
1573889573.403,25.879,25.391,187.500,34.180,154.785
1573889573.407,8.789,20.020,-123.047,7.324,6.836
1573889573.411,-5.371,18.066,-147.949,-4.883,-100.586
1573889573.415,8.301,22.461,108.887,14.160,29.785
1573889573.419,19.531,23.926,94.238,17.578,162.598
1573889573.423,19.043,33.691,-227.539,-0.977,68.359
1573889573.426,15.625,37.109,-354.492,-7.812,-94.238
1573889573.430,26.367,32.715,-298.340,12.695,-53.711
1573889573.434,42.480,26.855,58.105,35.156,131.836
1573889573.438,35.156,26.855,85.449,19.043,108.398
1573889573.442,17.578,32.715,-296.875,-8.301,-76.660
1573889573.446,17.090,33.691,0.977,0.488,-45.410
1573889573.450,31.738,31.250,483.398,26.367,142.578
1573889573.454,34.180,26.367,309.082,20.020,177.734
1573889573.458,21.484,16.602,-188.965,5.371,-8.789
1573889573.462,31.250,12.207,-198.242,22.461,-75.195
1573889573.465,39.062,26.855,145.996,31.250,83.496
1573889573.469,25.391,32.715,141.602,12.695,159.180
1573889573.473,19.043,26.367,-427.246,-6.348,17.578
1573889573.477,20.020,33.691,-652.344,-1.953,-110.352
1573889573.481,31.738,37.109,131.348,27.832,20.508
1573889573.485,41.504,27.344,415.039,39.062,167.480
1573889573.489,30.273,16.602,-75.195,17.090,79.102
1573889573.493,15.625,20.020,-144.043,2.441,-47.363
1573889573.497,11.230,22.461,302.734,10.254,-13.672
1573889573.501,26.367,21.973,462.402,28.320,131.836
1573889573.505,32.715,23.438,55.176,25.879,82.031
1573889573.508,13.672,16.113,-396.973,5.859,-125.488
1573889573.512,1.465,15.137,-84.961,6.836,-101.074
1573889573.516,16.602,15.625,365.234,31.738,77.148
1573889573.520,27.832,12.207,-93.262,32.227,107.422
1573889573.524,8.301,16.113,-353.027,7.324,-43.945
1573889573.528,9.277,25.391,114.746,17.090,-108.398
1573889573.532,32.715,25.879,544.922,46.387,64.941
1573889573.536,36.133,17.578,439.453,44.434,166.504
1573889573.540,17.578,17.578,170.898,8.301,39.551
1573889573.544,14.160,24.902,204.590,3.418,-96.191
1573889573.548,18.555,21.484,571.777,28.809,18.066
1573889573.551,22.949,16.113,620.117,34.180,159.180
1573889573.555,22.461,16.113,173.828,17.578,74.707
1573889573.559,17.090,12.207,-12.207,14.160,-73.242
1573889573.563,20.996,9.277,70.312,23.438,-73.730
1573889573.567,35.156,12.695,159.668,33.691,92.773
1573889573.571,39.062,20.508,298.340,34.668,122.559
1573889573.575,20.508,24.414,212.891,12.207,-51.758
1573889573.579,14.160,20.020,387.207,11.719,-66.406
1573889573.583,26.855,20.508,842.285,31.738,118.164
1573889573.587,24.902,24.902,761.230,22.949,167.969
1573889573.590,11.719,18.555,147.461,2.930,-14.160
1573889573.594,6.836,12.207,107.422,5.371,-108.398
1573889573.598,14.648,16.602,679.688,23.926,50.293
1573889573.602,21.973,26.367,665.527,27.344,178.711
1573889573.606,6.836,22.949,64.453,2.930,67.871
1573889573.610,-4.395,16.602,-158.203,-11.719,-93.262
1573889573.614,11.230,19.531,401.367,11.230,-6.836
1573889573.618,20.508,14.648,780.762,28.809,182.129
1573889573.622,10.742,14.160,253.906,8.789,113.281
1573889573.626,-0.977,15.625,-333.984,-8.789,-66.895
1573889573.630,8.301,22.461,109.375,18.555,-62.500
1573889573.633,25.391,36.621,604.980,50.293,102.051
1573889573.637,16.113,39.062,307.129,33.691,143.066
1573889573.641,-5.859,21.973,-108.887,4.883,-52.734
1573889573.645,-0.488,13.672,45.410,14.160,-115.723
1573889573.649,21.484,16.113,310.547,37.109,70.801
1573889573.653,25.391,18.066,62.012,35.156,148.438
1573889573.657,20.508,22.949,-239.746,17.090,7.812
1573889573.661,21.484,21.484,-62.500,17.578,-104.980
1573889573.665,32.715,25.391,379.395,43.457,12.207
1573889573.669,40.527,30.762,78.125,40.527,120.605
1573889573.673,31.738,27.832,-442.871,7.812,33.691
1573889573.676,20.996,35.156,-160.645,5.371,-80.566
1573889573.680,20.508,31.250,288.574,28.809,0.000
1573889573.684,30.273,16.113,324.707,39.551,137.207
1573889573.688,21.973,17.090,-7.812,19.043,85.449
1573889573.692,8.301,23.926,-129.395,0.488,-44.434
1573889573.696,17.090,26.855,-40.039,19.531,-57.129
1573889573.700,27.344,25.879,-151.367,31.738,73.242
1573889573.704,24.902,25.879,-350.098,20.020,92.773
1573889573.708,5.371,21.973,-364.258,-0.488,-45.898
1573889573.712,5.371,20.996,-176.758,6.836,-87.891
1573889573.715,21.484,23.926,153.320,38.574,49.805
1573889573.719,21.973,23.438,204.102,36.621,148.926
1573889573.723,18.066,23.438,-132.324,15.137,21.973
1573889573.727,9.277,25.879,-240.234,11.719,-93.750
1573889573.731,10.742,24.902,127.441,27.344,27.832
1573889573.735,21.484,27.344,385.254,33.691,194.336
1573889573.739,17.578,34.180,8.301,17.090,85.938
1573889573.743,9.277,31.250,-441.406,8.301,-132.324
1573889573.747,11.719,31.738,-252.930,24.902,-73.242
1573889573.751,27.832,35.645,157.227,45.898,121.094
1573889573.755,32.715,28.320,22.949,41.016,111.816
1573889573.758,19.043,19.043,-402.832,17.578,-62.012
1573889573.762,23.438,22.949,-321.289,25.391,-110.840
1573889573.766,41.016,27.832,177.246,48.340,66.406
1573889573.770,40.527,32.715,154.785,40.527,133.301
1573889573.774,27.832,31.738,-507.324,14.160,-52.246
1573889573.778,24.902,23.926,-431.152,14.648,-131.348
1573889573.782,36.133,21.973,270.508,37.598,31.738
1573889573.786,41.016,24.414,233.398,39.062,134.766
1573889573.790,30.273,27.832,-317.383,18.066,0.977
1573889573.794,23.926,34.668,-376.953,10.254,-112.305
1573889573.798,28.320,30.762,240.234,23.438,12.695
1573889573.801,37.598,25.391,333.496,33.691,139.160
1573889573.805,29.785,28.809,-416.992,16.113,25.879
1573889573.809,4.395,22.949,-370.605,-8.301,-75.195
1573889573.813,7.324,20.508,346.191,7.324,14.160
1573889573.817,22.461,23.438,411.133,31.738,138.672
1573889573.821,8.789,15.625,42.480,11.719,112.305
1573889573.825,-5.371,8.301,-130.371,-10.742,-59.570
1573889573.829,3.906,12.207,121.094,9.766,-95.215
1573889573.833,17.090,19.043,423.828,32.715,75.684
1573889573.837,18.066,20.996,107.910,21.484,134.277
1573889573.840,11.719,24.902,-284.668,4.883,-11.719
1573889573.844,11.230,30.273,31.738,11.719,-85.449
1573889573.848,15.625,32.715,238.281,27.344,50.293
1573889573.852,22.949,25.391,72.754,25.391,157.715
1573889573.856,20.996,20.020,-5.859,10.254,58.594
1573889573.860,9.277,26.855,-5.371,0.000,-75.684
1573889573.864,24.414,37.598,130.371,23.926,-27.344
1573889573.868,38.574,33.203,278.809,43.945,131.348
1573889573.872,27.344,28.809,56.641,18.066,97.656
1573889573.876,23.438,28.809,-357.910,6.348,-88.379
1573889573.880,26.855,24.902,-121.094,22.461,-67.871
1573889573.883,32.227,22.949,300.781,34.668,142.090
1573889573.887,32.715,26.367,80.566,30.762,153.320
1573889573.891,23.926,33.691,-349.121,19.531,-28.809
1573889573.895,17.090,31.250,-390.625,23.926,-89.844
1573889573.899,23.438,27.832,124.023,40.039,64.453
1573889573.903,24.902,31.250,318.359,34.668,155.762
1573889573.907,11.230,30.762,-143.066,6.836,9.766
1573889573.911,3.418,23.438,-194.824,4.883,-111.328
1573889573.915,10.742,23.438,330.078,26.855,24.414
1573889573.919,20.020,24.902,421.387,36.133,164.551
1573889573.923,9.277,20.508,-144.043,13.672,38.086
1573889573.926,0.000,22.461,-234.375,-0.488,-75.195
1573889573.930,16.602,27.832,140.625,27.344,-2.441
1573889573.934,27.832,24.902,227.051,41.016,150.391
1573889573.938,17.578,20.508,-339.355,14.648,91.797
1573889573.942,5.859,23.438,-739.746,0.000,-109.863
1573889573.946,9.766,24.902,-60.059,20.020,-75.684
1573889573.950,17.578,21.484,413.086,35.645,111.328
1573889573.954,15.625,20.508,125.000,28.320,146.484
1573889573.958,11.230,25.391,-270.508,12.695,-49.805
1573889573.962,11.719,33.691,47.363,17.090,-69.336
1573889573.965,23.926,28.320,437.012,38.086,106.445
1573889573.969,29.785,20.020,253.906,37.109,174.805
1573889573.973,16.113,17.578,-170.410,12.695,31.250
1573889573.977,10.254,16.113,-261.719,6.836,-84.473
1573889573.981,27.832,21.973,43.945,30.762,30.762
1573889573.985,50.781,29.297,-146.484,44.922,140.625
1573889573.989,38.574,29.785,-401.855,24.902,47.363
1573889573.993,11.719,32.227,-138.672,7.812,-62.988
1573889573.997,19.531,28.809,206.055,30.273,7.324
1573889574.001,34.180,21.973,349.121,48.340,158.691
1573889574.005,29.297,22.461,109.863,31.738,118.652
1573889574.008,6.836,18.555,-141.602,9.277,-51.270
1573889574.012,1.465,18.066,15.137,8.789,-69.336
1573889574.016,18.555,15.137,273.438,28.809,88.379
1573889574.020,21.484,18.066,196.777,25.391,149.902
1573889574.024,5.859,30.273,-205.566,2.930,-0.977
1573889574.028,-2.930,26.367,-440.918,0.977,-94.727
1573889574.032,9.277,14.160,-125.977,24.902,48.828
1573889574.036,18.555,11.719,208.496,39.551,160.645
1573889574.040,7.324,15.625,-31.738,18.066,53.711
1573889574.044,1.953,20.020,-176.270,13.672,-63.477
1573889574.048,12.207,25.879,189.941,37.109,3.418
1573889574.051,21.973,31.738,375.977,46.387,128.906
1573889574.055,20.020,28.320,-58.105,33.691,54.688
1573889574.059,16.113,18.066,-291.992,28.320,-80.078
1573889574.063,29.785,18.066,97.168,48.828,-51.758
1573889574.067,34.180,26.855,407.227,57.129,109.863
1573889574.071,26.855,30.273,-48.828,35.645,97.656
1573889574.075,21.973,32.227,-491.211,16.113,-90.332
1573889574.079,30.273,37.109,-80.078,31.738,-102.539
1573889574.083,44.922,35.156,496.094,53.711,105.957
1573889574.087,42.969,18.555,241.211,41.016,165.039
1573889574.090,31.250,12.207,-551.270,20.508,-26.367
1573889574.094,29.297,28.320,-374.512,21.484,-122.559
1573889574.098,37.109,35.645,217.773,33.691,28.320
1573889574.102,45.898,35.156,151.855,29.785,159.180
1573889574.106,39.062,42.969,-199.707,10.742,38.574
1573889574.110,29.297,40.527,-123.535,5.371,-87.891
1573889574.114,38.086,25.879,264.160,25.391,-14.160
1573889574.118,43.945,21.973,214.844,34.668,126.953
1573889574.122,32.227,27.344,-278.320,12.695,66.406
1573889574.126,17.090,34.668,-392.578,-2.441,-105.469
1573889574.130,27.832,31.250,149.414,17.578,-48.340
1573889574.133,46.875,28.320,207.031,40.527,125.000
1573889574.137,39.551,27.832,-171.387,27.344,117.188
1573889574.141,23.438,27.832,-173.828,7.324,-35.645
1573889574.145,28.809,25.879,47.852,20.996,-83.008
1573889574.149,43.945,35.156,338.379,43.457,62.988
1573889574.153,51.270,42.480,324.219,38.574,153.320
1573889574.157,42.480,31.738,-26.855,22.461,20.020
1573889574.161,33.691,28.809,-52.734,19.531,-97.168
1573889574.165,44.434,32.715,274.902,40.039,21.484
1573889574.169,47.852,31.250,287.598,41.992,154.785
1573889574.173,36.133,28.809,29.297,18.066,44.434
1573889574.176,34.668,29.785,-13.672,16.602,-84.961
1573889574.180,47.363,32.227,40.039,31.738,-33.203
1573889574.184,57.617,35.156,333.496,42.969,140.137
1573889574.188,42.480,37.598,368.164,31.250,119.629
1573889574.192,13.672,30.273,20.020,1.953,-83.008
1573889574.196,20.020,27.832,291.016,13.672,-63.477
1573889574.200,39.551,24.414,763.184,39.551,118.164
1573889574.204,37.109,20.020,557.617,31.250,135.742
1573889574.208,20.020,24.414,97.656,6.836,-37.598
1573889574.212,20.508,27.832,37.598,10.742,-128.418
1573889574.215,35.645,25.879,344.238,34.180,16.113
1573889574.219,33.203,29.785,421.387,31.738,148.926
1573889574.223,23.438,38.574,-78.125,8.789,38.086
1573889574.227,15.137,36.621,-168.457,0.488,-74.707
1573889574.231,23.438,29.297,601.562,21.484,37.109
1573889574.235,31.250,22.949,772.949,33.203,159.668
1573889574.239,21.484,23.438,210.938,12.695,51.270
1573889574.243,15.625,26.855,106.934,3.906,-93.750
1573889574.247,24.414,27.832,568.359,31.250,-33.203
1573889574.251,35.645,33.691,716.797,49.805,137.695
1573889574.255,30.762,44.922,326.172,35.156,108.887
1573889574.258,14.648,37.109,-78.125,13.672,-69.824
1573889574.262,7.812,32.227,155.762,16.113,-65.918
1573889574.266,18.555,37.598,527.344,33.203,106.934
1573889574.270,24.902,32.227,28.320,32.227,105.957
1573889574.274,10.742,32.227,-291.504,12.695,-59.082
1573889574.278,4.395,37.109,178.223,17.578,-81.055
1573889574.282,13.184,30.273,392.578,32.715,38.574
1573889574.286,14.160,25.391,68.359,25.391,125.000
1573889574.290,7.324,33.691,-72.266,13.672,29.785
1573889574.294,5.859,31.250,34.180,14.160,-97.168
1573889574.298,8.789,26.367,286.133,20.508,-13.672
1573889574.301,14.648,30.762,371.094,24.902,141.602
1573889574.305,12.207,29.785,26.855,8.789,101.074
1573889574.309,1.465,30.273,-297.363,-5.859,-59.570
1573889574.313,9.277,37.109,-68.359,11.719,-45.898
1573889574.317,27.832,41.504,218.750,32.715,88.379
1573889574.321,23.926,40.039,114.258,18.066,104.492
1573889574.325,14.160,37.109,-175.293,1.953,-44.434
1573889574.329,18.555,30.762,-406.738,12.207,-129.395
1573889574.333,31.250,28.320,-154.785,32.715,29.785
1573889574.337,33.203,35.645,182.129,36.133,154.785
1573889574.340,26.855,40.527,-108.887,21.973,21.973
1573889574.344,32.227,40.527,-195.312,27.344,-88.379
1573889574.348,39.062,38.574,248.047,44.434,36.133
1573889574.352,37.109,38.574,165.039,41.504,142.578
1573889574.356,29.785,37.109,-421.875,25.391,21.973
1573889574.360,25.391,28.809,-697.266,21.484,-106.445
1573889574.364,31.738,29.785,-207.520,39.062,-30.273
1573889574.368,40.527,31.250,279.297,57.617,137.695
1573889574.372,33.691,20.508,-120.605,39.062,78.613
1573889574.376,17.090,17.578,-376.465,16.602,-76.172
1573889574.380,17.578,27.832,86.426,28.320,-34.668
1573889574.383,27.832,29.785,269.043,41.992,109.863
1573889574.387,21.484,25.879,-30.273,30.762,134.766
1573889574.391,8.789,19.531,-259.277,14.648,-30.273
1573889574.395,10.254,17.578,-94.727,21.973,-100.586
1573889574.399,19.043,23.438,173.340,36.133,53.711
1573889574.403,20.508,20.508,-156.250,27.344,129.883
1573889574.407,1.953,15.137,-637.695,4.395,-27.832
1573889574.411,-2.930,21.973,-262.695,7.324,-131.836
1573889574.415,18.555,26.367,284.668,34.668,-6.836
1573889574.419,28.809,16.602,279.785,42.969,138.672
1573889574.423,19.531,14.160,-48.340,23.926,52.734
1573889574.426,8.301,17.090,-82.031,11.719,-104.980
1573889574.430,27.832,22.949,205.566,32.715,-54.688
1573889574.434,49.316,28.809,332.031,43.945,125.977
1573889574.438,37.598,29.785,69.336,21.484,119.629
1573889574.442,22.461,30.273,-169.922,5.859,-78.613
1573889574.446,25.391,26.855,-16.113,19.043,-89.355
1573889574.450,36.133,24.414,-47.852,36.133,70.801
1573889574.454,32.227,26.367,-110.352,27.344,114.258
1573889574.458,15.625,29.297,-41.992,6.836,-8.301
1573889574.462,12.207,29.297,29.297,15.137,-95.215
1573889574.465,24.414,29.297,317.383,39.062,43.457
1573889574.469,28.809,35.645,375.000,41.016,146.484
1573889574.473,9.766,31.250,53.223,12.695,37.109
1573889574.477,-0.488,22.461,-46.387,0.488,-61.523
1573889574.481,10.742,17.090,267.578,22.949,22.949
1573889574.485,18.555,20.508,457.520,30.273,159.668
1573889574.489,8.789,29.785,136.230,8.789,87.402
1573889574.493,2.441,34.668,-182.129,0.000,-51.270
1573889574.497,12.207,36.621,12.207,17.578,-5.371
1573889574.501,24.902,39.062,375.000,32.227,146.973
1573889574.505,21.973,34.668,262.695,18.555,134.277
1573889574.508,5.371,26.367,-340.332,-4.883,-54.688
1573889574.512,5.859,30.762,-258.789,1.953,-79.590
1573889574.516,26.855,31.738,395.020,33.691,96.680
1573889574.520,30.762,27.832,229.004,29.785,132.324
1573889574.524,15.625,27.344,-240.234,7.324,-29.297
1573889574.528,13.672,21.484,-95.703,12.207,-95.215
1573889574.532,33.203,25.879,394.043,36.133,64.453
1573889574.536,44.922,34.180,265.137,42.480,141.602
1573889574.540,31.250,25.879,-343.262,21.484,0.977
1573889574.544,22.461,20.508,-433.594,15.625,-104.492
1573889574.548,35.645,21.973,170.410,39.062,17.578
1573889574.551,42.480,20.020,246.094,45.898,142.090
1573889574.555,26.367,18.066,-500.488,18.555,46.387
1573889574.559,8.789,18.555,-502.441,2.441,-82.520
1573889574.563,11.719,29.785,126.953,19.531,-41.504
1573889574.567,26.367,39.551,285.156,37.109,115.234
1573889574.571,23.438,22.461,-58.594,22.949,103.027
1573889574.575,5.859,11.719,-212.402,0.977,-41.504
1573889574.579,1.465,17.578,86.426,7.812,-56.641
1573889574.583,14.648,14.160,309.570,30.762,86.426
1573889574.587,20.020,10.254,-42.480,31.250,133.789
1573889574.590,5.371,17.578,-475.586,12.695,-7.812
1573889574.594,7.812,31.250,-149.902,18.066,-66.406
1573889574.598,32.227,31.738,84.961,43.945,39.551
1573889574.602,43.945,25.879,-134.277,47.363,123.535
1573889574.606,30.762,25.391,-189.941,24.902,61.523
1573889574.610,18.555,24.414,-333.496,18.066,-87.891
1573889574.614,30.273,23.438,-69.824,39.551,-42.480
1573889574.618,45.898,31.250,270.996,54.199,139.648
1573889574.622,39.062,40.039,66.406,38.086,89.355
1573889574.626,20.020,37.598,-215.820,17.090,-83.984
1573889574.630,25.879,38.574,0.000,33.691,-58.594
1573889574.633,45.410,36.133,231.934,59.570,122.070
1573889574.637,45.898,30.762,-24.414,50.781,120.605
1573889574.641,24.414,30.273,-356.934,23.926,-59.570
1573889574.645,15.625,33.203,-420.898,27.832,-92.285
1573889574.649,27.344,34.668,112.793,48.828,84.961
1573889574.653,27.344,26.855,337.402,43.945,173.828
1573889574.657,5.859,22.949,-120.605,17.090,34.180
1573889574.661,-2.930,28.809,-190.430,12.695,-102.539
1573889574.665,18.555,36.133,221.191,42.969,15.625
1573889574.669,33.203,32.227,305.176,51.270,150.879
1573889574.673,11.230,22.461,-110.840,14.648,46.387
1573889574.676,-3.906,25.879,-256.836,-2.441,-94.238
1573889574.680,14.648,31.738,13.672,20.020,-36.621
1573889574.684,26.367,27.344,218.262,32.715,141.113
1573889574.688,22.461,22.949,-294.434,16.602,66.406
1573889574.692,21.484,28.320,-718.262,5.371,-110.352
1573889574.696,20.996,28.809,-68.848,14.160,-81.055
1573889574.700,26.367,23.438,386.719,23.438,98.145
1573889574.704,32.227,25.879,120.605,20.996,136.719
1573889574.708,25.879,26.855,-218.262,12.207,-43.457
1573889574.712,20.996,22.949,67.871,17.090,-78.125
1573889574.715,27.832,20.508,493.164,35.645,101.562
1573889574.719,40.039,18.555,253.906,41.992,175.293
1573889574.723,36.621,17.090,-245.605,24.414,18.555
1573889574.727,26.367,17.578,-274.902,19.531,-108.887
1573889574.731,33.203,23.926,47.363,40.527,2.441
1573889574.735,42.480,29.297,-106.934,46.387,134.766
1573889574.739,34.668,23.926,-447.754,26.855,21.973
1573889574.743,18.555,17.090,-246.582,5.859,-114.746
1573889574.747,21.973,19.531,143.555,20.020,-22.461
1573889574.751,34.180,16.602,351.562,41.504,151.855
1573889574.755,19.043,9.766,113.281,22.949,104.980
1573889574.758,-2.441,11.230,-196.777,-5.371,-88.867
1573889574.762,-0.977,13.672,0.977,1.953,-78.125
1573889574.766,13.672,21.484,358.887,27.344,113.281
1573889574.770,20.996,20.996,246.582,22.949,139.648
1573889574.774,10.254,11.719,-320.312,-5.371,-40.527
1573889574.778,1.465,13.672,-385.254,-7.812,-106.934
1573889574.782,14.648,19.531,144.531,18.066,40.527
1573889574.786,20.508,20.020,233.398,17.578,136.230
1573889574.790,12.695,21.484,-123.047,-0.488,-1.953
1573889574.794,12.695,21.973,-494.629,-0.977,-146.973
1573889574.798,18.066,19.043,-249.512,10.742,-33.691
1573889574.801,28.320,15.137,299.805,24.414,149.902
1573889574.805,28.809,13.184,29.297,16.602,72.266
1573889574.809,25.391,19.043,-246.094,7.324,-99.121
1573889574.813,40.527,26.855,170.898,29.297,-64.453
1573889574.817,54.688,24.414,487.793,49.805,108.887
1573889574.821,48.340,22.949,105.957,33.691,123.535
1573889574.825,36.133,25.391,-453.125,11.230,-64.941
1573889574.829,33.691,27.344,-10.742,20.508,-72.266
1573889574.833,48.340,32.715,639.648,44.922,106.934
1573889574.837,54.199,34.180,250.000,44.434,122.559
1573889574.840,40.527,32.227,-176.270,23.926,-7.812
1573889574.844,36.621,34.180,226.562,24.414,-61.523
1573889574.848,42.969,29.785,725.098,48.340,47.363
1573889574.852,47.363,24.902,631.348,49.316,156.738
1573889574.856,38.574,26.855,162.109,27.832,19.531
1573889574.860,19.531,28.809,179.199,14.160,-106.934
1573889574.864,21.973,30.273,651.367,21.973,7.324
1573889574.868,32.715,38.086,582.031,30.273,136.230
1573889574.872,29.297,36.621,27.344,17.090,54.199
1573889574.876,15.137,23.926,-28.320,3.906,-93.750
1573889574.880,11.230,24.414,560.547,16.113,-22.461
1573889574.883,22.461,32.227,586.426,32.227,140.625
1573889574.887,16.602,31.738,53.223,13.184,104.004
1573889574.891,-8.789,24.414,-53.711,-15.137,-54.199
1573889574.895,-6.348,25.879,188.965,0.977,-102.051
1573889574.899,9.766,29.297,515.625,27.832,60.059
1573889574.903,8.789,27.344,513.184,21.973,162.598
1573889574.907,7.812,29.297,216.797,3.906,21.973
1573889574.911,10.742,29.297,183.105,9.766,-86.426
1573889574.915,24.414,30.273,301.270,38.086,-9.277
1573889574.919,34.180,26.855,282.227,42.480,149.414
1573889574.923,20.020,16.602,120.117,17.090,79.590
1573889574.926,15.625,16.113,-81.543,13.184,-98.145
1573889574.930,33.691,23.926,66.895,38.574,-22.461
1573889574.934,40.039,30.273,449.219,51.758,168.457
1573889574.938,35.645,29.297,291.504,40.039,112.793
1573889574.942,28.809,24.414,-141.113,20.996,-57.129
1573889574.946,29.297,20.508,-169.922,28.809,-60.547
1573889574.950,38.086,17.090,233.887,49.316,111.328
1573889574.954,39.551,24.902,256.348,41.992,165.039
1573889574.958,23.438,30.762,-217.773,17.090,-55.664
1573889574.962,16.113,24.414,-277.832,15.137,-133.301
1573889574.965,26.855,20.508,93.262,33.691,54.688
1573889574.969,30.762,23.438,168.945,31.738,150.879
1573889574.973,17.090,28.809,-305.176,5.859,-3.418
1573889574.977,5.859,30.273,-330.566,-0.977,-111.328
1573889574.981,8.789,28.809,265.137,15.137,20.508
1573889574.985,14.648,32.715,393.555,16.602,161.133
1573889574.989,11.230,27.344,-317.383,-3.418,59.570
1573889574.993,4.883,19.531,-628.906,-6.836,-102.539
1573889574.997,13.672,23.926,123.047,19.531,-8.301
1573889575.001,29.297,29.297,414.062,34.668,172.852
1573889575.005,23.438,27.832,-149.902,20.020,103.027
1573889575.008,6.348,33.203,-578.613,5.371,-82.520
1573889575.012,13.184,34.180,-235.840,19.531,-77.637
1573889575.016,27.344,18.066,106.934,38.574,78.125
1573889575.020,21.484,15.625,-141.602,24.902,120.117
1573889575.024,13.184,21.973,-322.754,3.418,-18.555
1573889575.028,17.090,27.344,-167.969,11.719,-104.980
1573889575.032,31.250,33.691,97.656,39.062,48.828
1573889575.036,30.762,31.738,-124.023,33.691,154.785
1573889575.040,15.137,29.785,-416.992,10.742,-2.441
1573889575.044,16.113,29.785,-183.594,16.113,-110.840
1573889575.048,35.645,23.926,193.359,43.457,14.160
1573889575.051,47.852,20.996,321.289,53.711,171.387
1573889575.055,35.156,21.484,-103.516,33.691,81.055
1573889575.059,22.461,24.414,-380.859,19.531,-79.590
1573889575.063,29.297,29.785,-218.750,30.273,-48.340
1573889575.067,40.039,26.367,-49.316,39.062,113.770
1573889575.071,34.180,24.414,31.250,25.391,118.164
1573889575.075,18.066,29.785,-104.004,5.859,-37.109
1573889575.079,8.789,30.762,100.098,6.348,-32.227
1573889575.083,15.625,25.879,473.145,22.461,121.094
1573889575.087,20.996,26.855,434.082,20.020,183.594
1573889575.090,6.836,30.273,34.180,-2.930,34.180
1573889575.094,6.348,26.367,-95.215,1.953,-107.910
1573889575.098,22.949,27.832,299.805,25.879,15.625
1573889575.102,25.391,37.109,291.016,28.320,156.738
1573889575.106,17.578,30.762,-273.438,5.859,20.020
1573889575.110,3.906,16.113,-610.352,-4.883,-146.973
1573889575.114,11.230,19.531,-70.312,19.043,-28.809
1573889575.118,28.809,23.926,356.445,38.086,145.996
1573889575.122,27.344,27.344,-39.062,28.320,92.773
1573889575.126,12.695,30.273,-205.566,13.184,-61.523
1573889575.130,9.277,26.855,197.266,19.043,-54.688
1573889575.133,26.367,24.414,486.328,35.645,109.863
1573889575.137,32.715,20.020,131.836,30.762,117.676
1573889575.141,22.949,23.438,-261.719,12.207,-65.918
1573889575.145,28.809,34.668,58.105,23.926,-86.426
1573889575.149,47.363,34.668,412.109,53.223,89.355
1573889575.153,47.363,29.297,-55.664,47.363,127.441
1573889575.157,31.250,29.785,-650.879,19.043,-41.504
1573889575.161,23.926,28.809,-228.516,15.625,-102.051
1573889575.165,36.621,29.297,393.555,36.621,41.992
1573889575.169,39.551,27.344,218.750,35.156,137.695
1573889575.173,21.973,23.438,-290.527,7.812,29.297
1573889575.176,16.602,31.738,-283.203,0.488,-104.004
1573889575.180,32.227,37.109,208.496,28.320,-13.672
1573889575.184,42.480,30.762,320.801,45.898,159.668
1573889575.188,27.344,31.250,4.395,22.949,108.398
1573889575.192,16.113,32.227,-130.859,9.277,-76.172
1573889575.196,25.879,27.832,-23.926,26.367,-83.008
1573889575.200,40.527,26.367,-114.746,45.410,69.336
1573889575.204,41.016,20.996,-197.754,38.086,113.770
1573889575.208,21.484,26.367,-147.949,18.066,-18.555
1573889575.212,20.508,36.133,-34.668,27.832,-76.172
1573889575.215,39.062,34.180,324.219,51.270,92.773
1573889575.219,37.598,27.832,373.535,47.363,186.523
1573889575.223,21.484,24.902,-35.645,21.973,21.973
1573889575.227,15.625,26.855,-91.797,14.160,-70.801
1573889575.231,24.902,30.273,165.527,38.086,38.086
1573889575.235,33.203,31.738,323.730,48.340,178.223
1573889575.239,27.344,29.785,4.883,24.902,80.566
1573889575.243,11.230,24.902,-532.227,1.465,-103.027
1573889575.247,13.672,26.855,-270.508,14.160,-21.973
1573889575.251,24.414,26.367,315.430,29.297,149.414
1573889575.255,20.508,22.461,159.180,18.555,132.812
1573889575.258,8.789,30.762,-276.367,7.324,-66.895
1573889575.262,8.789,30.273,-92.773,12.695,-98.145
1573889575.266,19.531,29.297,404.785,27.832,112.305
1573889575.270,23.438,34.180,213.867,27.344,147.461
1573889575.274,9.277,29.297,-280.273,6.348,-29.297
1573889575.278,1.465,22.949,-66.895,-0.488,-61.035
1573889575.282,13.672,22.461,425.781,18.066,93.262
1573889575.286,20.020,24.414,210.449,23.438,153.809
1573889575.290,12.207,27.832,-449.219,1.953,-8.789
1573889575.294,3.418,28.320,-505.859,-3.906,-115.234
1573889575.298,17.090,26.367,35.645,23.926,6.348
1573889575.301,34.668,25.391,161.621,47.852,138.184
1573889575.305,29.785,27.832,-475.586,37.109,52.246
1573889575.309,16.602,25.879,-562.500,23.926,-115.723
1573889575.313,23.438,26.855,78.613,46.875,-63.965
1573889575.317,31.738,28.809,353.516,65.918,147.949
1573889575.321,27.832,21.973,66.895,46.875,152.344
1573889575.325,14.648,16.602,-168.457,20.996,-42.480
1573889575.329,13.184,25.391,54.688,23.438,-83.984
1573889575.333,35.645,33.203,278.320,44.434,75.684
1573889575.337,40.039,30.273,-23.926,40.527,133.301
1573889575.340,20.508,27.832,-392.090,13.672,-0.488
1573889575.344,14.648,35.156,-215.820,12.695,-58.105
1573889575.348,21.973,37.598,-11.230,34.180,51.270
1573889575.352,24.902,25.391,-176.270,32.227,119.629
1573889575.356,8.789,24.902,-223.633,7.812,19.043
1573889575.360,-4.883,28.809,-182.129,-1.953,-119.141
1573889575.364,1.465,34.668,89.355,14.648,-35.156
1573889575.368,12.207,35.156,324.707,26.855,146.484
1573889575.372,14.648,26.855,84.961,19.531,79.590
1573889575.376,7.324,31.738,-201.660,8.301,-95.215
1573889575.380,11.719,35.156,51.758,20.020,-57.129
1573889575.383,24.414,31.738,267.578,37.598,118.164
1573889575.387,22.461,29.785,-7.324,22.949,118.164
1573889575.391,12.695,34.668,-265.137,4.395,-43.457
1573889575.395,16.113,35.156,-379.883,12.695,-93.750
1573889575.399,27.832,28.320,-39.551,29.785,68.359
1573889575.403,33.203,29.785,220.215,31.738,170.898
1573889575.407,24.902,29.297,-224.609,15.137,-15.625
1573889575.411,17.578,26.367,-266.602,16.602,-123.535
1573889575.415,30.762,31.738,324.707,39.062,44.922
1573889575.419,46.387,41.016,407.227,50.293,167.480
1573889575.423,36.621,31.250,-90.820,29.785,49.316
1573889575.426,22.461,20.996,-219.238,14.160,-88.379
1573889575.430,33.203,24.414,31.250,30.273,-26.367
1573889575.434,44.922,28.320,199.707,39.551,144.043
1573889575.438,32.227,30.273,-196.777,16.602,103.516
1573889575.442,7.812,29.785,-678.223,-10.742,-92.773
1573889575.446,10.254,39.062,-12.207,2.930,-45.898
1573889575.450,22.949,47.852,438.965,25.391,129.395
1573889575.454,13.184,32.227,56.152,12.207,126.953
1573889575.458,-6.836,14.160,-268.555,-10.742,-29.785
1573889575.462,-9.277,13.184,32.715,-1.953,-72.754
1573889575.465,3.906,19.043,438.965,20.020,71.777
1573889575.469,4.395,25.391,266.113,19.531,143.066
1573889575.473,-4.883,23.438,-81.543,-0.488,-10.742
1573889575.477,-1.465,23.926,-80.078,4.395,-104.980
1573889575.481,14.648,27.832,181.152,32.227,13.672
1573889575.485,24.414,26.367,196.777,35.156,125.488
1573889575.489,20.020,24.414,69.336,18.066,67.383
1573889575.493,19.043,28.809,166.992,12.207,-57.129
1573889575.497,30.273,32.715,375.977,31.250,-29.297
1573889575.501,40.039,34.180,306.641,42.480,116.699
1573889575.505,36.133,31.250,188.477,27.344,101.074
1573889575.508,26.855,25.391,163.086,12.207,-44.922
1573889575.512,33.203,31.250,381.836,23.438,-28.320
1573889575.516,47.363,35.156,604.004,46.875,115.723
1573889575.520,45.410,32.715,526.367,41.016,152.344
1573889575.524,30.273,32.227,65.430,19.531,-31.738
1573889575.528,30.762,34.180,-122.070,23.926,-134.766
1573889575.532,46.387,36.133,373.535,49.316,38.086
1573889575.536,47.363,33.691,639.648,51.758,167.969
1573889575.540,31.738,33.691,320.312,20.020,41.016
1573889575.544,17.578,38.574,145.996,2.441,-94.727
1573889575.548,30.762,45.410,443.359,25.391,-11.230
1573889575.551,38.574,44.434,680.664,31.738,154.297
1573889575.555,22.949,33.691,445.312,1.953,118.652
1573889575.559,19.531,25.391,-167.480,-8.301,-83.984
1573889575.563,26.367,27.344,-2.441,16.113,-59.082
1573889575.567,33.691,32.227,622.070,31.250,137.207
1573889575.571,33.691,35.645,194.824,15.137,91.797
1573889575.575,21.973,28.320,-357.422,-3.906,-97.656
1573889575.579,29.297,24.414,-30.762,14.648,-97.656
1573889575.583,44.434,33.691,576.172,41.992,101.074
1573889575.587,50.293,40.039,374.512,43.945,147.949
1573889575.590,41.992,35.645,-425.293,25.879,-55.176
1573889575.594,27.344,34.180,-289.551,17.578,-143.555
1573889575.598,35.645,32.227,518.066,35.156,62.500
1573889575.602,47.363,30.273,396.973,45.410,173.340
1573889575.606,41.504,39.551,-159.668,29.785,36.133
1573889575.610,34.180,41.992,-62.012,24.414,-89.844
1573889575.614,40.039,40.039,332.031,43.945,-15.137
1573889575.618,45.898,39.062,295.898,50.781,144.531
1573889575.622,35.645,34.180,-186.035,25.391,88.867
1573889575.626,19.531,32.227,-386.230,2.930,-83.008
1573889575.630,21.484,34.180,86.426,19.531,-47.852
1573889575.633,34.668,31.738,214.355,37.598,124.512
1573889575.637,32.227,31.738,-315.918,20.020,107.422
1573889575.641,12.695,41.504,-315.918,-3.418,-41.016
1573889575.645,12.695,48.340,27.832,13.184,-63.477
1573889575.649,23.438,32.715,240.723,32.227,81.055
1573889575.653,16.602,18.066,180.664,20.508,177.246
1573889575.657,3.418,20.020,-33.203,1.953,63.965
1573889575.661,5.859,29.297,-150.879,4.395,-70.801
1573889575.665,22.949,35.645,28.809,27.344,40.039
1573889575.669,27.344,33.203,13.672,29.297,157.227
1573889575.673,16.602,27.832,-267.578,9.277,72.266
1573889575.676,16.113,26.855,-334.473,1.953,-62.012
1573889575.680,27.344,27.344,-191.895,19.043,-53.711
1573889575.684,38.574,28.809,25.391,36.621,104.980
1573889575.688,34.180,29.785,-149.902,23.438,62.012
1573889575.692,26.367,28.320,-443.359,8.789,-93.750
1573889575.696,36.133,35.645,-379.883,33.203,-72.266
1573889575.700,43.457,39.062,81.543,50.293,79.590
1573889575.704,38.086,31.250,104.004,39.551,104.980
1573889575.708,23.926,30.762,-250.000,20.508,-32.715
1573889575.712,20.020,30.762,-197.754,22.949,-79.102
1573889575.715,31.250,30.762,149.414,47.852,62.988
1573889575.719,35.156,31.250,154.785,43.945,155.762
1573889575.723,23.926,34.668,-235.840,17.090,7.324
1573889575.727,16.602,36.621,-176.270,14.648,-94.238
1573889575.731,28.809,42.480,405.273,34.668,44.922
1573889575.735,42.480,48.828,470.215,41.992,141.602
1573889575.739,28.320,38.574,-297.852,20.020,31.738
1573889575.743,8.301,27.344,-571.777,0.000,-102.051
1573889575.747,11.230,29.297,119.629,15.625,-54.199
1573889575.751,27.832,37.109,357.422,35.156,104.980
1573889575.755,23.438,35.645,11.719,19.531,90.332
1573889575.758,2.930,29.785,-326.660,-1.953,-102.051
1573889575.762,7.324,31.738,-77.637,10.742,-91.309
1573889575.766,32.227,33.203,358.887,38.574,103.516
1573889575.770,36.621,25.391,-172.363,28.809,71.289
1573889575.774,23.926,23.926,-483.887,3.418,-79.590
1573889575.778,29.297,28.809,31.250,15.625,-105.469
1573889575.782,42.480,31.738,388.184,45.410,45.410
1573889575.786,45.410,34.668,312.988,46.387,150.879
1573889575.790,36.621,34.180,44.434,19.043,23.438
1573889575.794,32.227,28.320,40.039,17.578,-97.168
1573889575.798,45.898,31.738,281.250,43.945,14.160
1573889575.801,58.105,41.016,390.137,55.664,158.691
1573889575.805,53.223,32.715,-31.738,40.527,62.988
1573889575.809,36.133,21.973,-225.098,19.043,-84.473
1573889575.813,37.109,22.461,-56.641,27.344,-63.965
1573889575.817,45.410,26.855,-0.488,39.551,93.750
1573889575.821,40.527,27.832,89.355,29.297,114.258
1573889575.825,29.785,25.391,-43.945,13.184,-46.387
1573889575.829,23.926,27.344,57.129,15.625,-75.684
1573889575.833,32.715,27.832,398.438,32.227,92.285
1573889575.837,33.203,27.344,349.121,31.738,156.738
1573889575.840,20.020,27.344,-71.777,14.648,1.953
1573889575.844,11.230,28.809,-111.328,8.789,-80.566
1573889575.848,15.137,31.250,315.430,20.020,58.594
1573889575.852,24.414,34.668,237.305,26.855,150.879
1573889575.856,18.066,35.645,-350.586,14.160,13.184
1573889575.860,9.766,29.297,-669.922,2.930,-119.629
1573889575.864,12.695,27.344,-161.621,10.742,-26.367
1573889575.868,24.902,31.738,383.301,29.785,162.598
1573889575.872,27.832,34.668,17.578,22.461,113.281
1573889575.876,8.789,30.273,-305.176,-2.930,-78.125
1573889575.880,18.066,28.320,126.953,11.719,-42.969
1573889575.883,40.527,26.367,447.754,40.527,124.023
1573889575.887,39.062,26.855,88.379,31.738,142.090
1573889575.891,24.414,26.367,-309.082,10.742,-33.691
1573889575.895,29.785,25.391,-26.367,26.367,-87.891
1573889575.899,41.992,27.832,342.773,47.852,115.723
1573889575.903,42.969,30.762,-44.434,39.062,176.270
1573889575.907,38.086,40.039,-636.230,22.949,-18.555
1573889575.911,32.715,40.527,-387.207,29.297,-101.074
1573889575.915,43.945,25.391,117.676,51.270,8.301
1573889575.919,47.363,17.090,145.508,48.828,134.766
1573889575.923,31.250,22.461,-145.020,21.973,55.664
1573889575.926,21.973,28.809,-149.414,14.160,-99.609
1573889575.930,32.227,29.785,215.332,32.715,-16.602
1573889575.934,44.922,34.180,324.707,41.016,150.391
1573889575.938,38.086,37.109,32.715,23.438,106.934
1573889575.942,20.996,25.391,-146.973,8.301,-59.082
1573889575.946,16.602,18.555,-61.523,13.672,-56.152
1573889575.950,30.762,24.414,166.016,31.738,131.836
1573889575.954,27.832,22.461,74.219,29.785,139.648
1573889575.958,0.488,20.508,-233.398,0.977,-58.594
1573889575.962,-0.977,27.344,-140.137,5.859,-98.145
1573889575.965,19.043,30.273,-58.594,38.574,60.547
1573889575.969,18.066,24.902,-108.887,33.691,112.305
1573889575.973,2.441,23.438,-183.105,7.812,-0.977
1573889575.977,1.953,29.785,-164.062,6.836,-70.312
1573889575.981,19.531,32.715,205.566,27.344,50.781
1573889575.985,31.738,32.227,420.898,38.086,187.988
1573889575.989,27.832,28.320,20.020,25.391,60.547
1573889575.993,20.020,23.926,-373.047,13.672,-117.676
1573889575.997,24.414,29.297,-138.672,32.715,-36.621
1573889576.001,45.410,35.156,282.715,53.711,164.062
1573889576.005,50.781,29.785,131.348,37.109,106.934
1573889576.008,38.574,28.809,-523.926,14.160,-118.652
1573889576.012,39.551,31.738,-439.941,26.367,-91.309
1573889576.016,55.176,36.133,378.906,47.852,136.230
1573889576.020,54.688,37.109,224.121,41.504,147.461
1573889576.024,35.156,32.227,-380.371,15.625,-57.129
1573889576.028,26.367,32.227,-200.195,16.113,-126.953
1573889576.032,39.062,33.203,346.191,41.504,48.340
1573889576.036,40.527,29.785,301.758,35.645,161.133
1573889576.040,19.531,22.461,-283.691,2.441,14.160
1573889576.044,9.277,22.949,-477.539,-4.395,-133.301
1573889576.048,20.020,26.367,38.574,18.555,-10.742
1573889576.051,25.391,29.297,265.625,23.438,158.203
1573889576.055,18.555,34.180,-405.273,3.418,53.711
1573889576.059,4.883,33.691,-508.301,-10.254,-100.098
1573889576.063,8.301,25.391,166.992,9.766,-23.926
1573889576.067,24.902,21.973,370.117,30.273,150.879
1573889576.071,25.391,23.926,22.949,19.043,123.047
1573889576.075,17.578,30.273,-123.535,0.977,-31.738
1573889576.079,18.555,41.016,95.215,12.695,-44.922
1573889576.083,29.785,39.551,258.789,37.598,85.938
1573889576.087,35.645,38.574,30.273,32.227,124.512
1573889576.090,29.785,39.551,-363.281,19.531,-24.902
1573889576.094,25.391,36.621,-170.898,22.461,-100.098
1573889576.098,39.062,35.645,112.305,42.969,36.133
1573889576.102,48.828,33.691,-19.531,46.387,148.926
1573889576.106,35.645,32.227,-118.164,22.461,19.531
1573889576.110,31.250,34.668,-65.430,21.484,-116.211
1573889576.114,40.527,40.527,180.664,42.480,-20.508
1573889576.118,48.340,37.109,325.195,49.805,129.395
1573889576.122,41.992,35.645,196.777,31.250,95.215
1573889576.126,30.273,39.062,-62.500,17.578,-88.867
1573889576.130,32.715,42.480,166.016,27.832,-58.594
1573889576.133,43.457,40.527,428.711,41.504,136.230
1573889576.137,42.969,36.621,61.523,36.133,106.445
1573889576.141,27.832,38.086,-292.480,12.207,-63.965
1573889576.145,23.926,43.945,-298.828,14.160,-90.820
1573889576.149,30.273,40.039,242.676,37.598,98.145
1573889576.153,35.645,34.668,562.988,39.551,193.848
1573889576.157,24.902,32.715,93.750,11.719,13.672
1573889576.161,14.160,30.273,24.902,4.883,-109.375
1573889576.165,26.367,40.527,609.863,32.715,51.270
1573889576.169,31.250,40.527,754.395,41.992,194.824
1573889576.173,17.578,34.180,251.953,18.066,68.359
1573889576.176,5.371,36.133,81.543,4.883,-95.215
1573889576.180,15.137,26.855,348.145,28.809,-26.367
1573889576.184,29.785,23.438,520.020,44.434,145.020
1573889576.188,25.391,29.785,114.258,21.484,103.027
1573889576.192,12.207,37.598,-389.648,0.977,-87.402
1573889576.196,18.555,44.922,209.473,20.508,-54.688
1573889576.200,39.551,38.574,787.598,48.340,133.789
1573889576.204,38.086,30.762,345.215,36.133,136.230
1573889576.208,23.926,25.879,-103.516,14.648,-50.293
1573889576.212,23.926,25.391,229.004,22.461,-109.375
1573889576.215,37.598,31.250,644.531,49.316,71.777
1573889576.219,39.551,34.180,480.469,46.387,152.832
1573889576.223,24.414,32.227,79.102,16.113,-4.395
1573889576.227,18.066,30.762,4.883,18.066,-103.516
1573889576.231,23.926,30.273,272.949,39.062,24.902
1573889576.235,25.879,20.508,166.992,34.180,150.879
1573889576.239,14.648,17.578,-145.508,11.230,41.016
1573889576.243,6.836,23.438,-39.062,4.883,-116.699
1573889576.247,18.555,24.414,214.844,24.902,-41.504
1573889576.251,26.367,23.926,202.148,35.156,136.719
1573889576.255,17.578,25.391,20.508,18.555,93.750
1573889576.258,8.789,32.715,-38.086,5.371,-50.781
1573889576.262,9.277,36.133,196.777,17.578,-23.926
1573889576.266,21.484,31.738,480.469,34.668,137.207
1573889576.270,28.809,29.297,361.328,34.668,161.133
1573889576.274,16.602,29.785,-225.098,20.508,-46.875
1573889576.278,10.742,27.344,-325.195,15.625,-114.746
1573889576.282,27.832,28.320,250.488,35.645,77.637
1573889576.286,39.551,37.109,355.469,43.945,165.039
1573889576.290,26.855,46.387,-19.043,23.926,0.488
1573889576.294,25.879,40.527,-395.508,17.578,-138.672
1573889576.298,42.480,31.250,-178.711,36.621,-4.395
1573889576.301,51.758,37.598,288.086,46.387,154.785
1573889576.305,42.480,40.039,-184.082,29.297,41.504
1573889576.309,30.762,37.109,-491.211,14.648,-105.469
1573889576.313,35.645,36.133,-12.207,27.344,-47.363
1573889576.317,43.457,41.504,319.824,45.410,120.117
1573889576.321,39.062,43.457,-4.883,29.297,136.719
1573889576.325,24.902,39.551,-724.609,0.977,-34.180
1573889576.329,20.020,32.715,-596.680,7.812,-78.613
1573889576.333,35.645,28.320,190.430,36.621,84.961
1573889576.337,33.203,22.949,60.547,29.785,129.395
1573889576.340,11.719,25.879,-417.969,-0.977,-41.504
1573889576.344,6.836,28.809,-178.711,2.441,-102.539
1573889576.348,28.809,36.133,366.699,33.691,68.848
1573889576.352,40.527,43.457,281.738,36.133,182.617
1573889576.356,22.949,33.691,-178.223,9.277,50.293
1573889576.360,18.066,26.367,-281.250,2.930,-109.375
1573889576.364,27.832,27.832,58.594,26.367,-15.137
1573889576.368,38.086,28.809,59.082,40.039,139.648
1573889576.372,34.180,34.180,-452.637,25.879,39.062
1573889576.376,20.508,39.062,-391.602,13.672,-125.488
1573889576.380,27.344,36.621,96.191,32.715,-73.730
1573889576.383,44.434,34.180,310.059,49.316,107.910
1573889576.387,39.551,30.273,44.922,37.109,108.398
1573889576.391,29.297,27.832,-136.230,22.949,-49.805
1573889576.395,32.715,28.320,41.992,30.762,-99.121
1573889576.399,50.293,33.691,238.281,56.152,54.199
1573889576.403,56.641,36.621,116.211,54.199,113.281
1573889576.407,35.156,35.156,-141.602,24.414,-39.062
1573889576.411,29.297,35.645,-67.383,23.438,-108.887
1573889576.415,44.434,32.715,262.695,45.410,48.828
1573889576.419,51.758,35.156,202.637,50.781,152.832
1573889576.423,32.227,30.273,-145.508,20.020,27.832
1573889576.426,17.090,26.855,-167.480,4.395,-77.637
1573889576.430,30.762,30.762,149.902,25.391,-10.742
1573889576.434,34.668,27.344,446.777,30.762,152.832
1573889576.438,21.484,27.832,188.965,10.254,84.473
1573889576.442,10.742,33.691,-244.629,-4.395,-111.328
1573889576.446,13.672,33.203,-239.258,8.301,-80.566
1573889576.450,23.438,31.250,298.828,26.855,127.930
1573889576.454,26.367,39.551,315.918,22.461,142.578
1573889576.458,12.207,32.227,-138.672,-4.883,-25.879
1573889576.462,7.324,21.973,-108.887,-2.441,-67.383
1573889576.465,14.160,24.902,243.164,21.484,84.961
1573889576.469,18.066,34.668,330.566,22.461,182.129
1573889576.473,11.230,37.598,-251.465,3.418,14.160
1573889576.477,-0.977,30.762,-451.172,-6.836,-97.168
1573889576.481,11.230,32.715,306.641,21.484,37.598
1573889576.485,22.461,35.645,502.930,37.598,160.156
1573889576.489,12.207,34.180,26.367,15.137,73.242
1573889576.493,8.301,27.832,-129.883,6.836,-79.590
1573889576.497,19.043,27.344,276.367,27.832,-30.762
1573889576.501,33.691,34.180,473.633,44.922,140.137
1573889576.505,40.039,37.598,-5.859,36.621,99.121
1573889576.508,28.320,30.273,-419.922,11.230,-83.008
1573889576.512,28.320,29.297,-117.676,20.508,-67.871
1573889576.516,47.363,33.203,218.750,47.852,102.539
1573889576.520,46.387,28.809,-264.160,34.180,93.750
1573889576.524,29.297,26.855,-482.910,10.742,-45.410
1573889576.528,23.438,32.227,23.926,14.648,-81.543
1573889576.532,30.762,30.273,234.863,36.621,34.180
1573889576.536,34.668,30.273,93.750,40.527,115.234
1573889576.540,21.484,28.320,-131.836,18.066,-9.277
1573889576.544,8.301,24.414,-56.641,11.719,-92.773
1573889576.548,17.578,24.414,292.969,32.715,39.551
1573889576.551,25.391,27.832,347.168,41.992,164.062
1573889576.555,16.602,31.250,-121.094,20.996,62.012
1573889576.559,0.977,35.156,-361.816,5.859,-103.516
1573889576.563,5.859,34.668,-53.711,18.555,-17.578
1573889576.567,20.996,24.414,4.883,32.227,132.812
1573889576.571,11.719,20.508,-44.434,16.602,99.121
1573889576.575,-1.465,23.438,-193.848,1.465,-60.059
1573889576.579,8.301,29.297,-78.125,15.137,-83.008
1573889576.583,25.879,31.250,375.977,36.621,113.770
1573889576.587,29.297,36.621,298.340,38.086,170.410
1573889576.590,24.414,36.621,-328.613,21.484,-42.969
1573889576.594,23.926,39.551,-254.883,22.949,-104.004
1573889576.598,33.691,43.945,319.824,50.781,68.848
1573889576.602,34.668,29.297,291.016,50.293,189.453
1573889576.606,19.531,25.879,-267.090,25.391,55.664
1573889576.610,12.695,37.109,-626.953,21.484,-132.324
1573889576.614,19.531,37.109,-142.090,37.598,-36.133
1573889576.618,27.832,35.156,417.480,48.828,165.039
1573889576.622,24.414,36.133,-29.785,34.180,89.844
1573889576.626,14.160,40.527,-458.496,19.531,-103.027
1573889576.630,22.949,42.969,48.828,31.250,-53.223
1573889576.633,37.109,36.133,441.895,52.734,127.930
1573889576.637,37.598,37.109,86.426,46.387,117.676
1573889576.641,26.367,40.039,-268.066,19.043,-40.527
1573889576.645,21.484,35.156,-70.801,26.367,-64.941
1573889576.649,35.156,36.133,225.098,48.828,78.125
1573889576.653,39.551,35.645,-126.953,43.945,114.258
1573889576.657,26.367,32.715,-706.543,20.996,-42.480
1573889576.661,19.043,41.992,-295.898,16.113,-94.238
1573889576.665,29.785,46.875,383.301,37.109,59.082
1573889576.669,37.109,39.551,350.098,44.922,171.875
1573889576.673,29.785,35.645,-94.727,31.738,42.480
1573889576.676,26.367,36.621,-83.984,29.785,-81.055
1573889576.680,38.574,43.945,308.105,51.758,8.301
1573889576.684,50.781,49.316,357.910,64.941,148.438
1573889576.688,47.363,49.805,60.059,45.898,103.516
1573889576.692,35.645,41.992,-192.871,27.344,-99.121
1573889576.696,32.227,34.668,-105.469,37.598,-87.891
1573889576.700,49.316,34.668,55.176,60.059,106.445
1573889576.704,57.129,37.598,-152.344,55.664,101.074
1573889576.708,38.574,40.039,-286.621,29.785,-51.270
1573889576.712,33.203,43.945,-129.883,30.273,-102.051
1573889576.715,41.992,42.480,-125.000,48.828,29.785
1573889576.719,43.457,40.039,-31.250,46.387,147.461
1573889576.723,34.668,37.598,-127.441,26.855,-7.812
1573889576.727,21.973,24.414,-225.098,18.555,-119.141
1573889576.731,30.762,25.879,194.824,38.574,45.898
1573889576.735,36.621,35.645,423.828,45.410,190.430
1573889576.739,20.020,29.785,131.348,21.973,97.168
1573889576.743,12.207,24.902,-274.902,8.789,-40.527
1573889576.747,19.043,35.645,-193.359,22.949,-5.859
1573889576.751,22.949,41.016,321.289,29.785,163.574
1573889576.755,17.578,39.062,210.449,10.742,136.719
1573889576.758,9.766,33.691,-418.945,-4.883,-101.562
1573889576.762,20.508,33.203,-236.328,13.184,-96.680
1573889576.766,40.527,34.668,395.508,39.062,94.727
1573889576.770,41.504,37.598,268.555,30.273,134.277
1573889576.774,28.320,41.504,-151.855,5.371,-31.738
1573889576.778,29.785,41.016,-3.906,17.090,-105.469
1573889576.782,44.922,37.598,529.785,44.434,72.266
1573889576.786,46.387,32.715,477.539,38.574,164.062
1573889576.790,34.668,30.762,-135.254,15.625,-0.488
1573889576.794,27.832,35.156,-242.676,13.672,-106.445
1573889576.798,39.062,41.504,376.953,41.504,25.391
1573889576.801,56.152,32.715,603.027,61.035,170.898
1573889576.805,41.992,24.414,-110.840,36.133,81.055
1573889576.809,23.926,28.320,-280.762,15.137,-94.727
1573889576.813,35.156,28.320,299.316,40.039,-60.059
1573889576.817,44.922,25.879,402.344,57.617,100.098
1573889576.821,37.109,33.203,200.195,37.109,95.703
1573889576.825,22.949,37.109,127.930,15.137,-60.547
1573889576.829,18.066,35.645,423.340,17.578,-72.754
1573889576.833,28.809,28.320,723.633,32.715,108.398
1573889576.837,31.738,16.602,442.871,27.832,166.504
1573889576.840,13.184,18.066,-25.391,3.906,2.930
1573889576.844,8.301,25.879,120.117,4.883,-87.402
1573889576.848,23.438,29.785,417.969,29.785,47.363
1573889576.852,33.203,31.250,55.664,31.738,135.254
1573889576.856,21.484,31.738,-35.156,11.719,56.641
1573889576.860,13.672,35.645,178.711,9.766,-71.777
1573889576.864,23.926,31.250,489.258,31.738,22.461
1573889576.868,32.227,21.973,644.531,40.039,176.758
1573889576.872,23.926,21.484,232.910,22.461,85.449
1573889576.876,10.742,21.973,-61.035,14.648,-88.379
1573889576.880,23.926,28.809,229.492,36.621,-57.129
1573889576.883,43.457,37.598,507.812,58.105,141.113
1573889576.887,39.062,30.273,158.691,45.410,120.117
1573889576.891,23.438,21.484,-280.273,20.996,-53.223
1573889576.895,20.996,25.879,-71.777,28.809,-74.707
1573889576.899,35.156,31.738,480.469,50.781,95.703
1573889576.903,39.062,30.273,497.070,47.852,169.434
1573889576.907,21.973,26.367,-99.121,18.555,-11.719
1573889576.911,15.625,31.250,-435.059,10.254,-115.234
1573889576.915,21.973,41.504,161.621,28.809,43.457
1573889576.919,24.414,45.898,476.562,33.203,170.410
1573889576.923,15.625,41.016,-41.992,15.625,40.527
1573889576.926,4.883,29.297,-318.359,4.395,-122.070
1573889576.930,14.160,31.250,-0.977,24.414,-47.363
1573889576.934,26.855,34.180,184.570,40.039,118.652
1573889576.938,22.461,33.203,-321.777,21.973,53.711
1573889576.942,17.578,36.621,-498.535,11.719,-80.078
1573889576.946,20.020,31.250,64.453,29.297,-53.711
1573889576.950,32.227,28.809,420.410,44.922,92.773
1573889576.954,31.250,29.297,-123.047,34.180,104.492
1573889576.958,15.137,26.367,-671.875,9.766,-59.570
1573889576.962,15.137,28.809,-149.414,15.137,-83.008
1573889576.965,29.297,31.250,346.680,34.668,91.309
1573889576.969,34.180,33.691,95.703,32.715,138.184
1573889576.973,26.367,33.203,-257.812,14.160,3.418
1573889576.977,26.367,26.855,-288.086,16.602,-96.680
1573889576.981,34.668,27.344,-107.422,42.969,-6.836
1573889576.985,43.457,35.645,-18.555,51.270,139.648
1573889576.989,41.016,37.109,-215.820,36.621,44.922
1573889576.993,28.809,28.809,-185.059,28.320,-93.262
1573889576.997,40.527,31.250,106.445,46.875,-25.879
1573889577.001,58.594,37.598,-101.562,60.547,88.379
1573889577.005,43.457,32.715,-274.414,36.133,86.426
1573889577.008,26.855,36.621,-191.406,20.508,-67.383
1573889577.012,27.344,36.621,-128.418,34.668,-104.492
1573889577.016,36.133,29.785,110.352,45.898,76.660
1573889577.020,33.203,30.762,155.273,29.297,141.113
1573889577.024,14.648,29.785,-200.195,-0.977,-15.137
1573889577.028,14.160,24.902,-339.355,1.953,-89.844
1573889577.032,20.020,16.113,-81.543,22.949,54.199
1573889577.036,22.461,18.066,223.633,25.879,156.250
1573889577.040,18.066,23.926,-121.582,10.254,5.371
1573889577.044,11.230,25.391,-256.348,7.812,-99.609
1573889577.048,23.926,30.762,326.660,34.180,36.133
1573889577.051,37.598,36.133,524.902,47.363,153.320
1573889577.055,25.391,31.250,118.652,23.438,66.895
1573889577.059,12.207,31.250,-171.875,4.395,-90.820
1573889577.063,20.996,36.133,229.492,22.949,-28.809
1573889577.067,42.969,32.715,577.637,44.434,139.648
1573889577.071,42.969,26.367,88.379,37.598,86.426
1573889577.075,33.203,27.832,-567.871,20.508,-65.918
1573889577.079,37.109,35.156,-187.500,30.762,-43.457
1573889577.083,56.152,39.551,582.520,62.012,129.395
1573889577.087,65.918,38.574,344.238,61.523,146.484
1573889577.090,49.316,33.203,-179.688,34.180,-38.086
1573889577.094,45.410,31.738,2.930,35.156,-106.445
1573889577.098,63.477,36.621,416.016,60.547,50.781
1573889577.102,70.801,42.480,271.973,61.523,139.648
1573889577.106,57.617,41.992,-163.574,38.574,-1.465
1573889577.110,45.898,37.109,-76.172,31.250,-101.562
1573889577.114,50.293,35.645,395.020,48.828,7.324
1573889577.118,61.035,33.203,258.301,56.152,143.066
1573889577.122,50.293,27.832,-304.199,32.715,66.406
1573889577.126,32.715,31.250,-298.828,16.113,-105.469
1573889577.130,38.086,36.621,204.102,31.250,-41.504
1573889577.133,48.828,38.574,365.723,44.434,139.648
1573889577.137,43.945,43.457,-26.367,31.738,123.047
1573889577.141,31.250,41.016,-164.062,10.742,-16.113
1573889577.145,30.762,40.039,63.965,13.184,-64.941
1573889577.149,46.387,45.898,332.031,31.738,77.637
1573889577.153,51.758,41.016,170.410,29.297,158.691
1573889577.157,39.551,39.062,-190.430,8.789,4.883
1573889577.161,35.645,41.016,-93.262,7.324,-94.727
1573889577.165,46.387,34.668,110.840,30.762,20.996
1573889577.169,49.805,35.156,-2.930,40.527,134.766
1573889577.173,43.457,36.621,-200.195,24.414,45.410
1573889577.176,40.039,36.621,-208.496,21.484,-84.473
1573889577.180,51.270,38.086,-193.359,43.457,-31.250
1573889577.184,65.430,44.922,73.242,63.477,138.672
1573889577.188,62.012,47.363,80.078,53.223,107.422
1573889577.192,47.363,34.180,-349.121,29.785,-112.793
1573889577.196,47.852,27.832,-125.000,40.039,-88.379
1573889577.200,59.082,30.273,363.281,60.059,115.723
1573889577.204,49.316,30.762,245.117,44.922,145.996
1573889577.208,24.902,28.320,-258.301,17.578,-48.828
1573889577.212,30.762,36.133,-341.797,28.809,-131.836
1573889577.215,52.734,38.574,59.570,54.688,50.293
1573889577.219,55.176,35.156,38.574,52.734,141.113
1573889577.223,41.992,36.621,-516.602,29.785,10.254
1573889577.227,36.621,33.691,-577.148,22.949,-88.867
1573889577.231,44.922,34.668,198.242,47.363,34.180
1573889577.235,49.805,40.527,412.109,58.105,154.297
1573889577.239,43.457,38.574,-118.164,37.598,30.273
1573889577.243,26.855,34.180,-232.422,17.578,-97.656
1573889577.247,33.691,38.574,237.305,37.598,-18.555
1573889577.251,44.434,39.062,394.043,55.176,124.023
1573889577.255,34.180,36.621,-78.125,34.668,67.383
1573889577.258,20.508,36.621,-393.066,12.695,-67.383
1573889577.262,29.785,35.645,-109.863,27.344,-50.781
1573889577.266,53.223,39.062,84.473,54.199,61.523
1573889577.270,51.270,33.203,-381.348,47.852,66.895
1573889577.274,34.180,25.391,-589.355,25.879,-76.660
1573889577.278,31.250,26.855,-33.691,31.738,-90.820
1573889577.282,47.852,27.832,354.980,56.641,73.242
1573889577.286,55.664,28.320,238.770,59.570,159.668
1573889577.290,42.480,22.949,-63.965,37.109,9.277
1573889577.294,32.715,18.066,-26.367,29.785,-97.168
1573889577.298,42.969,22.461,326.172,53.223,32.715
1573889577.301,53.223,28.320,382.812,64.941,164.551
1573889577.305,41.992,31.250,-46.387,41.504,80.566
1573889577.309,27.832,28.320,-364.258,21.973,-113.281
1573889577.313,28.809,21.973,-253.906,33.203,-101.562
1573889577.317,38.574,21.484,-89.355,44.434,94.238
1573889577.321,34.668,22.461,28.320,27.832,113.770
1573889577.325,19.531,22.949,-331.055,11.230,-107.910
1573889577.329,21.484,24.902,-228.027,23.438,-121.094
1573889577.333,41.992,26.855,306.641,46.875,78.613
1573889577.337,47.852,26.367,262.207,42.969,132.324
1573889577.340,32.715,25.879,-125.488,20.508,-17.090
1573889577.344,29.297,29.297,-119.629,21.973,-102.539
1573889577.348,39.551,25.879,254.395,36.133,41.504
1573889577.352,47.852,33.691,152.832,39.062,141.113
1573889577.356,40.527,39.062,-313.965,22.949,13.672
1573889577.360,29.785,30.762,-659.668,10.254,-143.066
1573889577.364,38.086,30.762,-146.484,27.344,-27.832
1573889577.368,47.852,30.762,428.223,41.992,149.414
1573889577.372,36.133,24.902,12.695,21.484,70.312
1573889577.376,22.461,21.973,-241.211,7.324,-73.242
1573889577.380,28.320,29.785,67.871,25.879,-57.617
1573889577.383,48.340,36.133,343.750,48.340,95.215
1573889577.387,48.828,31.738,129.395,41.992,109.863
1573889577.391,30.762,32.227,-224.121,21.973,-65.918
1573889577.395,28.809,30.762,93.750,28.809,-88.379
1573889577.399,37.598,24.902,438.477,42.480,80.566
1573889577.403,35.156,22.461,1.953,31.738,106.934
1573889577.407,26.367,27.344,-542.969,9.766,-42.480
1573889577.411,23.926,35.156,-90.820,7.324,-87.891
1573889577.415,35.645,29.785,607.910,29.785,68.848
1573889577.419,39.551,22.461,535.156,31.250,166.016
1573889577.423,28.809,22.949,117.676,11.719,39.551
1573889577.426,19.043,27.832,169.434,0.488,-71.777
1573889577.430,20.508,35.156,565.918,15.137,9.766
1573889577.434,30.273,35.645,619.629,29.297,164.551
1573889577.438,19.043,27.832,195.312,5.371,96.680
1573889577.442,5.371,29.785,82.520,-9.277,-68.848
1573889577.446,16.113,36.133,292.480,15.137,-49.805
1573889577.450,31.250,37.109,343.750,33.203,109.375
1573889577.454,26.367,37.598,247.070,13.672,118.164
1573889577.458,9.766,32.227,108.398,-9.277,-65.430
1573889577.462,12.695,32.227,202.637,3.418,-109.375
1573889577.465,32.227,41.504,363.770,30.762,62.988
1573889577.469,37.598,45.410,417.480,31.738,154.297
1573889577.473,24.414,43.945,242.188,10.254,16.602
1573889577.477,18.066,48.828,145.020,12.207,-104.492
1573889577.481,27.832,48.828,515.625,32.227,26.855
1573889577.485,35.645,42.969,668.945,34.668,167.480
1573889577.489,22.949,36.133,328.613,11.719,81.543
1573889577.493,7.812,32.227,-59.570,-8.789,-55.176
1573889577.497,16.602,37.598,65.430,12.207,-2.930
1573889577.501,34.180,37.109,444.824,36.133,137.695
1573889577.505,27.344,33.203,331.543,22.949,108.398
1573889577.508,19.531,38.086,-207.031,11.719,-61.523
1573889577.512,24.414,38.574,-291.992,20.508,-106.445
1573889577.516,25.391,36.621,429.199,31.738,114.258
1573889577.520,26.855,40.527,424.316,26.855,166.016
1573889577.524,21.973,39.551,-155.273,8.301,-46.875
1573889577.528,18.066,40.039,-42.480,10.742,-105.469
1573889577.532,27.832,41.016,492.188,30.273,75.195
1573889577.536,36.133,37.598,395.020,28.320,151.855
1573889577.540,23.438,41.504,-213.867,5.859,7.324
1573889577.544,16.602,51.758,-289.062,6.836,-74.219
1573889577.548,28.809,55.176,62.988,28.320,2.441
1573889577.551,36.621,41.016,135.742,36.133,139.160
1573889577.555,33.691,32.715,-499.512,15.625,43.945
1573889577.559,24.414,37.109,-707.031,2.441,-110.352
1573889577.563,28.809,39.062,86.426,26.855,-22.461
1573889577.567,45.898,38.086,380.371,51.758,131.836
1573889577.571,44.922,38.574,5.371,38.574,87.402
1573889577.575,24.414,40.039,-180.664,13.672,-80.078
1573889577.579,21.484,41.992,96.680,23.438,-88.379
1573889577.583,41.016,40.039,331.055,49.805,73.730
1573889577.587,38.574,36.621,2.930,35.645,115.234
1573889577.590,27.832,45.410,-480.957,15.625,-61.523
1573889577.594,27.344,42.480,-339.844,23.926,-128.906
1573889577.598,35.645,34.180,142.578,37.109,48.340
1573889577.602,41.992,34.668,168.945,40.039,154.785
1573889577.606,23.926,35.645,-169.922,20.508,50.293
1573889577.610,12.207,40.527,-161.621,11.719,-68.848
1573889577.614,28.809,40.527,-5.371,29.297,4.883
1573889577.618,35.645,41.992,-40.039,36.621,140.137
1573889577.622,25.391,43.945,-36.133,18.066,99.609
1573889577.626,15.625,31.250,-218.262,8.789,-79.590
1573889577.630,19.043,23.926,-65.430,21.484,-80.566
1573889577.633,37.598,30.762,170.410,38.086,108.398
1573889577.637,35.645,32.715,-100.586,31.250,111.328
1573889577.641,21.973,33.691,-449.219,10.742,-43.945
1573889577.645,26.367,41.992,-302.246,18.066,-82.031
1573889577.649,41.016,42.969,329.102,40.039,113.770
1573889577.653,42.969,36.621,433.105,41.504,187.500
1573889577.657,32.227,36.621,-49.316,23.438,32.227
1573889577.661,34.180,29.785,-160.645,27.344,-52.734
1573889577.665,41.992,26.855,221.680,47.363,50.781
1573889577.669,44.922,38.086,438.965,52.246,169.434
1573889577.673,35.156,38.574,-77.148,29.297,47.363
1573889577.676,29.785,30.273,-471.680,19.531,-86.914
1573889577.680,45.410,30.762,40.039,51.758,13.672
1573889577.684,52.734,33.691,366.699,64.453,162.109
1573889577.688,42.969,36.621,-139.648,41.016,86.426
1573889577.692,26.855,37.598,-601.562,19.043,-118.164
1573889577.696,30.762,38.574,-3.906,31.738,-91.309
1573889577.700,47.363,37.109,560.547,56.152,105.957
1573889577.704,38.086,34.668,137.207,43.457,92.285
1573889577.708,23.926,38.086,-226.074,20.020,-64.941
1573889577.712,24.414,43.945,166.016,25.391,-76.172
1573889577.715,34.668,41.504,583.984,47.852,93.750
1573889577.719,39.062,35.156,328.613,43.945,156.738
1573889577.723,25.391,34.668,-71.289,13.672,10.742
1573889577.727,21.484,32.715,-75.684,10.254,-90.332
1573889577.731,33.691,33.203,202.637,30.762,32.227
1573889577.735,41.504,35.156,46.387,39.062,154.785
1573889577.739,36.133,33.691,-256.836,27.832,61.523
1573889577.743,23.926,40.039,-69.824,15.137,-93.750
1573889577.747,29.785,49.316,197.266,28.809,-48.340
1573889577.751,40.527,45.410,313.477,39.551,111.328
1573889577.755,33.203,35.156,122.559,24.902,86.426
1573889577.758,20.020,34.180,-109.863,8.301,-90.820
1573889577.762,19.531,41.504,-34.668,17.090,-116.211
1573889577.766,36.133,46.387,270.020,38.574,75.684
1573889577.770,43.945,51.270,224.121,35.645,149.414
1573889577.774,27.344,50.293,-204.102,16.602,-10.254
1573889577.778,19.531,41.504,-345.215,17.090,-92.285
1573889577.782,39.551,45.410,-69.824,38.574,68.848
1573889577.786,43.457,42.480,197.266,41.504,162.598
1573889577.790,28.320,35.156,-25.879,24.902,31.738
1573889577.794,27.832,42.480,-200.684,23.438,-108.887
1573889577.798,38.574,48.828,205.566,44.434,11.230
1573889577.801,51.270,46.875,511.230,58.594,187.988
1573889577.805,40.039,38.574,49.805,39.551,57.129
1573889577.809,20.508,36.621,-309.082,23.926,-112.793
1573889577.813,25.391,42.480,49.316,38.574,-45.410
1573889577.817,37.109,41.016,423.828,53.711,141.113
1573889577.821,29.297,34.668,-9.766,31.738,103.516
1573889577.825,13.184,33.691,-697.754,4.395,-71.289
1573889577.829,17.090,38.086,-358.887,19.043,-57.617
1573889577.833,33.691,38.086,260.742,43.945,91.797
1573889577.837,36.133,33.691,77.637,34.668,134.277
1573889577.840,25.391,33.691,-300.781,12.207,-25.879
1573889577.844,32.227,37.109,-120.117,21.484,-108.398
1573889577.848,46.387,41.016,441.406,44.434,86.914
1573889577.852,45.898,47.852,310.059,40.527,169.434
1573889577.856,35.156,49.805,-225.586,20.020,17.090
1573889577.860,27.832,37.598,-176.270,16.602,-77.148
1573889577.864,41.504,33.203,241.699,43.457,-1.953
1573889577.868,50.293,35.156,108.887,52.246,137.207
1573889577.872,38.086,34.180,-451.172,32.227,58.105
1573889577.876,23.438,37.598,-392.090,23.926,-98.145
1573889577.880,30.762,42.969,172.852,40.039,-15.137
1573889577.883,41.016,41.992,296.387,55.664,128.418
1573889577.887,29.297,35.645,-144.531,35.645,97.168
1573889577.891,16.113,32.715,-374.023,11.719,-45.410
1573889577.895,19.043,36.621,-69.336,21.484,-73.242
1573889577.899,34.668,40.039,274.902,39.551,78.125
1573889577.903,32.715,33.203,185.547,24.414,151.855
1573889577.907,20.020,38.086,-109.863,4.395,15.137
1573889577.911,21.973,44.434,-63.477,20.020,-67.871
1573889577.915,43.457,38.574,186.035,46.387,46.875
1573889577.919,51.758,36.621,61.035,47.852,147.949
1573889577.923,36.133,38.086,-255.371,20.996,51.758
1573889577.926,31.250,43.945,-244.141,12.695,-71.289
1573889577.930,39.551,42.480,-158.203,34.668,-14.160
1573889577.934,45.898,39.062,63.477,39.062,137.207
1573889577.938,41.016,36.133,102.539,22.949,111.816
1573889577.942,30.273,32.715,-211.914,12.695,-50.293
1573889577.946,32.227,34.668,-86.426,23.926,-39.062
1573889577.950,48.828,37.598,347.168,47.363,128.906
1573889577.954,49.805,37.109,200.684,40.527,119.629
1573889577.958,31.250,28.809,-303.223,15.137,-77.637
1573889577.962,21.484,22.461,-395.996,15.137,-154.297
1573889577.965,29.297,22.461,-2.930,35.645,42.480
1573889577.969,31.738,24.414,241.699,30.273,172.363
1573889577.973,27.344,23.438,-288.574,8.789,22.461
1573889577.977,25.391,30.273,-545.410,5.859,-94.238
1573889577.981,33.203,39.551,107.910,24.902,30.762
1573889577.985,43.457,34.180,294.434,31.250,157.715
1573889577.989,36.133,28.320,-102.051,13.184,67.383
1573889577.993,17.090,28.809,-209.473,0.000,-75.195
1573889577.997,23.438,31.738,247.070,21.973,-20.020
1573889578.001,42.969,36.133,407.227,45.898,152.344
1573889578.005,37.598,41.504,-3.906,34.668,113.770
1573889578.008,24.902,45.410,-333.008,21.973,-66.895
1573889578.012,26.367,40.039,-99.121,37.598,-54.688
1573889578.016,48.340,29.785,183.105,68.359,95.215
1573889578.020,55.176,20.996,-234.863,62.012,111.816
1573889578.024,35.645,23.926,-476.562,34.180,-38.086
1573889578.028,33.691,33.691,23.926,42.969,-87.402
1573889578.032,48.340,34.668,400.879,63.477,61.523
1573889578.036,49.805,35.156,299.805,55.664,151.855
1573889578.040,34.668,41.016,97.168,31.738,46.875
1573889578.044,26.855,36.133,187.012,25.391,-51.758
1573889578.048,29.297,25.879,488.281,33.691,37.109
1573889578.051,37.598,26.367,538.574,33.203,157.715
1573889578.055,23.926,25.879,23.438,8.301,35.645
1573889578.059,3.906,26.367,-275.391,-6.836,-129.395
1573889578.063,13.672,28.809,-26.367,10.742,-69.336
1573889578.067,25.879,31.250,208.008,22.461,133.789
1573889578.071,16.602,34.668,341.797,12.695,149.902
1573889578.075,2.441,33.691,236.328,-6.348,-29.297
1573889578.079,2.441,37.598,396.484,-0.977,-38.574
1573889578.083,18.066,43.945,746.094,25.391,119.141
1573889578.087,19.531,31.250,650.391,20.020,148.926
1573889578.090,1.465,22.949,262.207,-4.883,2.441
1573889578.094,-1.465,27.344,216.797,-2.930,-84.473
1573889578.098,14.160,32.715,550.781,23.438,17.090
1573889578.102,26.855,38.574,532.227,32.227,142.090
1573889578.106,22.461,38.086,-1.953,18.066,13.672
1573889578.110,16.113,39.062,-176.270,11.719,-122.070
1573889578.114,21.484,44.434,268.066,30.273,-17.090
1573889578.118,35.645,45.410,517.578,51.270,122.559
1573889578.122,36.621,39.551,250.488,43.457,81.055
1573889578.126,26.855,35.645,-216.797,27.832,-72.266
1573889578.130,32.715,38.086,139.160,45.410,-52.734
1573889578.133,51.270,38.574,719.727,71.289,125.977
1573889578.137,53.711,40.527,370.117,62.988,119.629
1573889578.141,42.480,46.387,-24.902,42.969,-48.828
1573889578.145,41.504,39.551,266.602,51.758,-76.172
1573889578.149,48.828,31.738,535.156,69.824,78.125
1573889578.153,42.969,28.809,155.273,55.664,126.465
1573889578.157,23.926,27.344,-258.301,30.273,-26.367
1573889578.161,12.695,35.156,18.555,27.832,-101.074
1573889578.165,26.367,41.504,521.973,45.410,37.598
1573889578.169,33.691,39.062,316.895,43.457,158.203
1573889578.173,13.672,35.156,-354.004,12.695,18.555
1573889578.176,-1.953,35.645,-214.355,0.000,-102.051
1573889578.180,8.301,39.551,342.285,21.973,-6.836
1573889578.184,23.438,38.574,202.637,33.203,126.465
1573889578.188,16.602,38.086,-220.703,14.160,73.242
1573889578.192,4.883,45.410,-234.375,2.441,-82.520
1573889578.196,12.695,48.828,-60.547,17.578,-58.105
1573889578.200,30.273,47.852,120.605,37.109,104.492
1573889578.204,34.180,47.363,41.992,31.738,113.281
1573889578.208,20.996,41.016,-147.949,10.254,-66.406
1573889578.212,24.902,47.363,-118.652,18.555,-149.414
1573889578.215,40.527,53.223,-66.895,40.039,20.508
1573889578.219,44.434,50.781,-59.082,35.645,124.023
1573889578.223,37.109,53.711,-109.863,19.531,5.859
1573889578.227,30.762,51.758,-197.266,15.625,-100.098
1573889578.231,39.062,44.434,51.758,32.715,15.625
1573889578.235,48.340,46.387,274.414,43.945,161.133
1573889578.239,42.480,49.316,15.137,29.297,67.871
1573889578.243,31.738,45.898,-410.645,18.066,-90.820
1573889578.247,39.551,40.039,-289.062,38.086,-44.922
1573889578.251,46.875,40.527,192.383,56.641,124.023
1573889578.255,32.227,42.480,117.188,40.039,120.605
1573889578.258,19.531,38.574,-365.723,18.066,-53.223
1573889578.262,21.484,33.203,-274.414,25.879,-78.613
1573889578.266,30.273,33.203,291.016,45.898,96.191
1573889578.270,30.762,33.691,138.184,40.527,115.234
1573889578.274,17.090,37.109,-309.082,17.578,-53.711
1573889578.278,15.137,49.805,-164.551,14.160,-113.281
1573889578.282,37.598,53.223,374.512,41.016,63.477
1573889578.286,47.852,39.551,207.520,48.340,143.555
1573889578.290,31.250,28.809,-406.250,23.438,-7.812
1573889578.294,19.043,24.414,-422.363,17.578,-111.328
1573889578.298,41.992,26.855,226.074,54.199,34.180
1573889578.301,63.477,36.133,410.645,74.219,177.734
1573889578.305,43.945,40.527,-155.273,38.574,40.527
1573889578.309,24.902,45.898,-235.352,20.020,-110.352
1573889578.313,31.250,48.828,311.523,41.016,-11.719
1573889578.317,50.781,49.316,450.684,57.617,146.973
1573889578.321,51.270,49.805,-142.090,49.316,91.309
1573889578.325,32.715,51.758,-277.832,30.273,-63.965
1573889578.329,35.645,52.246,172.363,35.156,-65.918
1573889578.333,52.246,44.434,415.527,59.570,81.055
1573889578.337,48.340,33.203,122.559,54.688,131.348
1573889578.340,33.203,33.691,-305.176,33.203,-35.645
1573889578.344,30.273,42.969,-274.414,34.180,-136.719
1573889578.348,43.457,45.898,150.879,48.340,47.363
1573889578.352,50.293,45.898,273.438,46.875,165.039
1573889578.356,32.715,44.434,44.434,19.531,55.176
1573889578.360,20.508,48.828,54.688,7.812,-72.754
1573889578.364,35.645,46.875,66.895,30.762,-29.297
1573889578.368,41.504,42.480,-8.789,35.645,119.629
1573889578.372,24.902,43.457,-37.598,9.277,63.477
1573889578.376,22.949,41.504,-168.457,3.418,-93.750
1573889578.380,34.180,41.016,55.664,23.438,-57.617
1573889578.383,41.504,39.062,301.270,38.574,125.488
1573889578.387,38.574,40.039,22.949,30.273,129.883
1573889578.391,25.879,43.457,-349.121,12.695,-52.734
1573889578.395,30.273,42.969,-442.383,22.461,-111.328
1573889578.399,52.246,49.805,-2.441,55.176,74.707
1573889578.403,59.570,47.852,222.168,62.012,154.297
1573889578.407,40.527,35.645,-198.242,35.645,-2.441
1573889578.411,37.109,41.016,-156.738,34.668,-83.496
1573889578.415,53.711,43.945,336.426,58.594,34.668
1573889578.419,58.594,43.945,388.672,64.453,139.648
1573889578.423,41.992,43.945,-92.773,41.016,52.734
1573889578.426,29.297,37.598,-189.453,30.273,-53.711
1573889578.430,39.062,35.645,123.047,52.734,8.301
1573889578.434,48.340,35.156,253.906,61.035,146.973
1573889578.438,44.434,36.621,-229.980,40.527,59.570
1573889578.442,30.762,34.668,-698.242,23.438,-113.281
1573889578.446,30.762,35.156,-65.430,36.133,-49.805
1573889578.450,46.387,40.527,375.488,58.105,95.703
1573889578.454,39.551,42.480,23.438,44.922,102.539
1573889578.458,17.090,38.574,-270.020,19.531,-32.715
1573889578.462,15.137,36.621,-10.742,23.926,-93.262
1573889578.465,30.273,35.645,342.773,45.898,60.547
1573889578.469,35.156,30.273,212.891,43.457,165.039
1573889578.473,20.020,31.250,-211.914,14.648,-5.859
1573889578.477,8.789,38.574,-229.004,10.742,-98.633
1573889578.481,22.949,44.434,87.891,36.133,34.668
1573889578.485,30.273,34.668,-157.227,41.016,120.605
1573889578.489,11.719,30.762,-419.434,14.648,65.918
1573889578.493,0.488,32.227,-160.156,-0.488,-60.547
1573889578.497,14.160,34.668,116.699,21.484,-30.273
1573889578.501,33.203,42.480,271.484,42.969,143.555
1573889578.505,32.227,40.039,22.461,31.738,75.684
1573889578.508,24.902,34.180,-211.426,19.531,-94.727
1573889578.512,30.762,33.203,-62.012,34.180,-63.477
1573889578.516,43.945,32.715,233.887,55.664,112.305
1573889578.520,42.969,26.855,254.883,47.852,165.039
1573889578.524,31.738,28.320,-209.961,29.297,-16.602
1573889578.528,29.297,31.250,-471.680,38.574,-125.488
1573889578.532,39.551,36.621,-166.504,60.547,40.527
1573889578.536,43.945,40.527,141.602,57.617,154.297
1573889578.540,30.762,34.180,-140.625,33.691,-14.160
1573889578.544,25.391,35.156,-270.508,28.320,-126.465
1573889578.548,40.039,43.457,164.062,49.316,10.742
1573889578.551,46.387,41.016,441.895,56.152,174.805
1573889578.555,40.039,39.062,84.473,39.062,90.820
1573889578.559,33.203,49.805,-190.430,29.297,-62.500
1573889578.563,35.645,48.340,213.379,45.410,6.348
1573889578.567,42.480,36.133,419.922,55.664,155.762
1573889578.571,32.715,26.367,-122.070,35.645,85.449
1573889578.575,16.113,26.367,-722.656,12.695,-78.125
1573889578.579,20.996,34.668,-387.695,21.484,-68.359
1573889578.583,37.109,40.527,342.285,39.062,93.262
1573889578.587,37.598,43.457,197.754,33.691,147.949
1573889578.590,24.414,44.922,-244.629,15.137,-7.324
1573889578.594,21.973,42.480,-36.133,14.160,-78.125
1573889578.598,32.715,35.156,417.480,33.691,55.176
1573889578.602,38.574,30.762,292.480,36.621,154.785
1573889578.606,30.762,25.879,-206.055,13.672,15.137
1573889578.610,30.762,30.273,-165.039,15.625,-105.957
1573889578.614,42.480,34.668,247.070,41.504,12.695
1573889578.618,53.711,34.668,172.363,55.176,143.555
1573889578.622,47.363,40.527,-206.055,40.039,95.703
1573889578.626,33.203,44.434,-386.719,25.879,-60.547
1573889578.630,40.039,42.969,60.059,45.410,-37.598
1573889578.633,55.664,33.203,223.145,62.012,120.117
1573889578.637,50.293,21.973,-316.895,42.480,103.516
1573889578.641,30.762,20.020,-378.906,18.555,-59.570
1573889578.645,35.156,30.762,-13.184,34.668,-91.309
1573889578.649,53.223,41.992,289.062,61.523,74.707
1573889578.653,54.199,43.457,169.922,56.641,130.859
1573889578.657,35.645,36.133,-131.836,33.203,-18.555
1573889578.661,25.391,36.621,-106.445,28.320,-109.375
1573889578.665,41.016,37.109,141.602,48.828,20.996
1573889578.669,51.270,31.738,114.258,54.688,151.855
1573889578.673,37.109,34.180,-156.250,33.203,47.852
1573889578.676,31.250,35.645,-125.000,23.438,-69.336
1573889578.680,43.457,37.109,-44.434,41.016,-14.160
1573889578.684,49.805,38.086,136.719,49.805,118.164
1573889578.688,43.945,37.598,236.816,35.156,102.051
1573889578.692,35.645,38.574,-77.148,20.020,-92.773
1573889578.696,40.527,40.039,137.207,35.156,-80.078
1573889578.700,53.223,37.109,622.559,58.594,113.770
1573889578.704,48.828,33.203,488.281,46.875,131.348
1573889578.708,37.598,37.598,91.797,24.902,-32.715
1573889578.712,37.598,40.039,103.516,31.738,-87.891
1573889578.715,48.828,31.738,457.031,49.316,83.008
1573889578.719,52.734,27.832,452.637,50.293,140.137
1573889578.723,41.016,29.785,-112.793,29.297,-33.691
1573889578.727,32.227,30.762,-272.461,20.020,-121.582
1573889578.731,45.410,37.109,428.711,47.852,7.324
1573889578.735,52.734,37.109,671.387,56.641,142.090
1573889578.739,40.527,30.762,187.500,34.180,45.410
1573889578.743,34.180,27.832,34.180,27.344,-110.352
1573889578.747,41.504,34.180,511.230,41.992,-40.039
1573889578.751,54.688,40.527,727.051,57.617,136.230
1573889578.755,51.758,35.156,293.945,41.016,80.078
1573889578.758,32.227,25.879,-70.801,14.160,-78.613
1573889578.762,33.691,27.344,154.785,24.902,-60.059
1573889578.766,46.387,32.715,516.602,46.387,114.746
1573889578.770,44.434,31.738,69.824,38.574,132.812
1573889578.774,29.785,34.668,-306.152,16.113,-37.598
1573889578.778,27.832,37.598,208.008,23.438,-84.473
1573889578.782,45.898,37.598,644.531,49.805,96.680
1573889578.786,45.898,39.551,516.113,47.852,186.035
1573889578.790,32.715,41.992,162.109,25.879,26.367
1573889578.794,26.367,38.574,67.871,24.414,-94.238
1573889578.798,38.574,35.645,188.965,45.410,-25.879
1573889578.801,48.340,34.180,292.480,51.270,112.305
1573889578.805,35.156,26.367,-37.598,26.367,51.270
1573889578.809,19.531,27.344,-279.785,8.789,-100.586
1573889578.813,24.414,36.621,-43.457,25.391,-47.363
1573889578.817,39.551,36.133,-85.938,46.875,101.562
1573889578.821,37.109,39.062,-107.422,39.062,96.680
1573889578.825,23.438,38.574,-174.316,27.344,-60.547
1573889578.829,21.973,32.227,-70.801,38.086,-71.289
1573889578.833,32.715,31.250,346.191,55.176,93.262
1573889578.837,36.621,31.250,317.871,54.199,142.578
1573889578.840,23.438,29.297,-96.191,33.691,-31.250
1573889578.844,13.184,28.809,-157.227,32.715,-135.742
1573889578.848,26.855,33.203,190.430,55.176,16.113
1573889578.852,33.203,28.809,125.488,52.734,146.484
1573889578.856,15.137,24.414,-327.637,22.461,28.320
1573889578.860,4.883,31.250,-564.453,9.766,-137.207
1573889578.864,14.648,35.156,-41.992,25.879,-16.602
1573889578.868,27.344,32.715,439.941,38.086,182.617
1573889578.872,21.484,27.344,36.621,20.020,113.281
1573889578.876,10.254,25.879,-338.379,6.836,-64.941
1573889578.880,24.902,30.273,90.332,26.367,-19.043
1573889578.883,38.086,28.809,447.266,45.898,141.113
1573889578.887,29.785,23.926,-50.781,29.785,102.051
1573889578.891,16.113,19.531,-659.180,5.371,-77.637
1573889578.895,15.625,21.484,-234.863,20.996,-87.402
1573889578.899,36.133,30.273,269.531,52.246,112.793
1573889578.903,43.457,32.715,12.207,43.945,173.340
1573889578.907,24.902,26.367,-360.352,18.066,12.695
1573889578.911,14.648,27.344,-256.348,19.531,-92.285
1573889578.915,21.484,27.832,264.648,33.691,27.344
1573889578.919,27.832,20.508,148.926,32.715,148.438
1573889578.923,15.137,22.461,-366.699,11.230,37.109
1573889578.926,3.418,23.438,-146.484,0.977,-65.430
1573889578.930,11.230,20.508,290.039,19.531,-8.301
1573889578.934,22.461,20.996,177.734,30.273,118.164
1573889578.938,16.602,25.391,-139.648,18.555,92.773
1573889578.942,5.371,32.715,-108.887,7.812,-61.523
1573889578.946,15.625,34.668,80.078,26.367,-66.406
1573889578.950,35.156,31.738,-9.766,48.340,86.914
1573889578.954,29.785,28.809,-161.621,30.762,115.234
1573889578.958,15.625,29.297,-121.582,10.254,-41.504
1573889578.962,18.555,31.738,45.898,23.926,-72.266
1573889578.965,35.156,35.645,337.402,48.828,82.520
1573889578.969,47.852,39.062,369.141,52.246,157.715
1573889578.973,36.621,39.062,54.199,31.250,5.859
1573889578.977,27.344,38.574,-26.367,30.762,-101.562
1573889578.981,40.527,36.621,279.297,48.828,13.672
1573889578.985,46.387,31.250,409.668,49.316,142.578
1573889578.989,38.086,31.250,131.836,30.273,66.406
1573889578.993,24.902,32.227,-275.391,15.625,-83.496
1573889578.997,29.297,38.086,-133.789,31.738,-23.438
1573889579.001,37.109,36.133,354.004,39.551,149.414
1573889579.005,27.832,31.738,189.941,20.020,107.910
1573889579.008,18.555,40.039,-302.734,7.812,-83.008
1573889579.012,23.438,43.457,-154.785,20.508,-83.008
1573889579.016,36.621,37.598,457.031,38.574,126.465
1573889579.020,30.762,31.250,178.223,30.273,132.812
1573889579.024,11.719,32.227,-439.941,8.789,-43.945
1573889579.028,20.996,37.109,-162.109,17.090,-68.848
1573889579.032,39.551,38.086,401.367,43.945,68.359
1573889579.036,39.062,39.062,308.105,44.434,174.316
1573889579.040,27.832,40.039,-267.090,25.391,21.973
1573889579.044,25.391,38.574,-390.137,28.320,-114.258
1573889579.048,32.715,34.668,137.207,43.945,23.926
1573889579.051,39.062,34.668,292.969,46.387,158.691
1573889579.055,27.832,34.668,-129.395,27.832,84.961
1573889579.059,17.090,36.621,-171.387,19.043,-55.176
1573889579.063,23.438,37.598,259.277,40.527,-13.672
1573889579.067,31.250,33.691,383.789,50.293,145.020
1573889579.071,27.832,36.621,-354.004,32.227,75.684
1573889579.075,17.578,44.922,-695.801,16.602,-96.680
1573889579.079,22.949,47.852,-153.809,25.879,-67.383
1573889579.083,39.062,40.527,186.035,51.270,75.684
1573889579.087,40.039,34.668,-17.578,46.387,135.254
1573889579.090,29.785,36.133,-356.934,22.949,1.465
1573889579.094,29.785,39.551,-124.023,30.273,-59.082
1573889579.098,42.480,41.016,197.266,50.781,76.660
1573889579.102,48.828,39.551,-71.777,50.293,146.484
1573889579.106,36.133,44.434,-189.453,30.273,33.203
1573889579.110,26.367,45.898,-106.445,21.484,-100.586
1573889579.114,35.156,33.691,129.883,33.691,-21.973
1573889579.118,41.992,29.297,268.066,46.387,134.277
1573889579.122,31.250,31.250,32.227,30.273,72.754
1573889579.126,14.648,29.297,-194.336,8.789,-85.938
1573889579.130,16.113,31.250,42.480,19.531,-35.645
1573889579.133,33.691,37.109,225.098,42.480,125.977
1573889579.137,35.645,34.180,-89.355,39.551,114.746
1573889579.141,21.484,25.391,-458.008,19.531,-68.848
1573889579.145,30.273,25.879,-515.625,29.297,-116.211
1573889579.149,48.340,34.180,-31.250,53.223,75.684
1573889579.153,54.199,37.598,240.234,55.176,157.715
1573889579.157,45.410,33.691,-202.148,34.180,-18.066
1573889579.161,39.551,32.227,-163.574,31.250,-81.055
1573889579.165,47.852,35.645,375.000,57.617,66.895
1573889579.169,51.270,38.574,434.082,63.477,169.922
1573889579.173,40.039,38.574,-95.215,42.969,42.480
1573889579.176,26.367,34.180,-274.902,31.738,-104.492
1573889579.180,35.156,30.273,92.285,52.246,-2.441
1573889579.184,42.480,26.367,281.250,62.012,163.086
1573889579.188,33.691,24.414,-213.379,37.109,73.242
1573889579.192,21.484,28.809,-646.973,19.043,-118.652
1573889579.196,27.832,30.762,-13.184,34.180,-50.293
1573889579.200,42.480,26.367,431.641,48.340,130.859
1573889579.204,38.086,24.414,38.086,31.738,116.699
1573889579.208,23.926,27.344,-309.082,8.789,-30.273
1573889579.212,17.578,33.203,-8.789,11.230,-69.824
1573889579.215,29.785,36.133,395.996,33.203,79.590
1573889579.219,39.062,39.551,59.570,32.227,138.184
1573889579.223,24.414,36.133,-403.809,10.254,-20.508
1573889579.227,16.113,28.320,-286.621,9.277,-102.539
1573889579.231,28.809,33.691,10.742,36.133,20.996
1573889579.235,36.133,42.480,88.379,45.410,137.207
1573889579.239,29.785,42.480,-104.980,26.855,53.223
1573889579.243,20.996,38.086,-91.309,16.113,-81.543
1573889579.247,33.203,37.109,108.398,35.156,-29.297
1573889579.251,52.734,36.133,-63.477,52.246,115.234
1573889579.255,42.480,39.062,-258.301,35.156,83.496
1573889579.258,27.344,41.504,-147.949,20.996,-69.336
1573889579.262,37.109,42.969,-55.176,38.574,-85.938
1573889579.266,54.199,41.016,93.262,55.664,79.102
1573889579.270,50.293,37.109,151.367,43.457,135.742
1573889579.274,36.133,39.551,-252.930,25.391,-41.504
1573889579.278,33.203,38.086,-322.266,30.273,-103.027
1573889579.282,44.434,32.715,148.438,47.363,54.199
1573889579.286,48.828,30.762,267.578,45.410,149.414
1573889579.290,36.133,29.785,-37.109,24.902,11.230
1573889579.294,30.762,32.715,-330.566,20.508,-117.188
1573889579.298,37.598,33.691,-197.754,37.598,-12.207
1573889579.301,44.434,29.785,211.914,43.945,164.551
1573889579.305,36.133,32.227,-19.531,26.367,92.773
1573889579.309,22.949,37.109,-279.785,16.602,-85.449
1573889579.313,30.762,40.527,144.043,35.645,-15.625
1573889579.317,45.410,40.527,553.711,56.152,165.527
1573889579.321,42.480,37.109,146.484,42.969,120.605
1573889579.325,25.391,35.645,-582.520,19.043,-80.566
1573889579.329,23.926,38.574,-392.090,27.832,-115.723
1573889579.333,37.109,42.480,454.102,47.852,91.309
1573889579.337,41.504,39.551,375.488,41.504,139.648
1573889579.340,30.273,31.738,-277.832,20.996,-32.227
1573889579.344,22.949,29.297,-29.297,20.996,-74.219
1573889579.348,39.062,34.668,665.039,43.945,79.102
1573889579.352,48.828,36.621,617.676,46.387,176.758
1573889579.356,38.086,36.621,120.605,23.926,16.113
1573889579.360,24.902,35.156,-33.691,13.672,-141.602
1573889579.364,31.738,36.133,441.406,37.598,-26.367
1573889579.368,47.363,39.062,479.492,56.152,134.277
1573889579.372,38.574,36.133,-51.270,34.668,51.270
1573889579.376,23.926,40.527,77.637,20.996,-70.801
1573889579.380,32.715,45.898,615.723,39.551,-8.789
1573889579.383,43.457,39.551,698.242,51.758,134.766
1573889579.387,32.227,31.738,333.496,31.738,112.305
1573889579.391,19.531,33.203,125.000,14.160,-76.660
1573889579.395,29.297,37.109,300.293,24.414,-116.699
1573889579.399,47.363,38.086,571.289,44.922,54.688
1573889579.403,44.922,38.574,486.816,42.480,138.672
1573889579.407,29.297,36.621,196.777,18.555,-11.719
1573889579.411,23.926,33.203,221.191,17.578,-100.586
1573889579.415,36.621,32.227,470.703,42.969,45.410
1573889579.419,46.875,34.668,313.965,51.270,134.277
1573889579.423,34.180,34.668,-77.637,30.273,29.785
1573889579.426,26.855,33.691,-179.688,21.973,-104.492
1573889579.430,41.504,35.645,-18.555,41.504,-26.367
1573889579.434,44.434,31.738,291.016,49.805,158.691
1573889579.438,37.598,33.203,306.641,32.227,107.422
1573889579.442,35.156,34.668,-14.160,20.020,-58.105
1573889579.446,42.969,28.320,196.777,32.715,-19.043
1573889579.450,50.293,25.391,564.941,42.480,128.418
1573889579.454,45.410,28.320,300.293,34.668,115.723
1573889579.458,32.227,29.297,-129.883,12.695,-40.527
1573889579.462,25.391,29.785,-193.848,11.719,-105.469
1573889579.465,35.645,31.738,119.141,36.133,37.598
1573889579.469,39.062,31.250,297.852,33.691,151.855
1573889579.473,28.320,30.273,-354.004,9.277,-34.668
1573889579.477,20.508,31.250,-660.645,3.906,-164.062
1573889579.481,26.367,35.156,149.902,25.391,26.367
1573889579.485,33.203,33.691,449.707,34.668,175.781
1573889579.489,19.043,28.809,-47.852,11.230,60.059
1573889579.493,8.789,28.809,-223.145,2.441,-94.727
1573889579.497,21.973,37.109,250.000,30.273,-15.137
1573889579.501,29.297,42.480,437.500,47.363,136.230
1573889579.505,24.902,35.156,10.254,33.203,88.867
1573889579.508,19.043,28.809,-338.867,17.090,-60.059
1573889579.512,21.484,28.809,-192.871,30.273,-75.195
1573889579.516,31.738,29.785,124.023,53.223,89.355
1573889579.520,31.738,30.273,-323.730,39.062,114.258
1573889579.524,18.066,32.227,-714.844,14.160,-61.523
1573889579.528,16.602,33.203,-229.980,24.414,-93.750
1573889579.532,31.250,32.227,92.285,51.270,66.895
1573889579.536,35.156,33.691,47.852,49.805,153.809
1573889579.540,22.461,33.691,-138.672,25.879,41.992
1573889579.544,17.090,36.621,-45.410,22.949,-47.363
1573889579.548,27.832,39.551,263.184,38.574,45.410
1573889579.551,31.738,34.668,302.734,40.527,163.574
1573889579.555,21.973,27.832,-172.852,21.973,55.664
1573889579.559,13.184,30.273,-391.113,12.695,-103.516
1573889579.563,21.484,32.227,-87.891,30.762,-43.945
1573889579.567,36.133,24.902,139.160,44.922,130.371
1573889579.571,27.832,24.414,32.227,30.273,98.145
1573889579.575,16.602,29.297,-141.602,11.719,-61.035
1573889579.579,19.531,26.855,-158.691,20.020,-77.637
1573889579.583,28.809,26.855,-25.879,37.598,79.590
1573889579.587,27.832,33.691,36.133,27.344,131.348
1573889579.590,14.160,38.086,-254.395,4.883,-38.574
1573889579.594,15.137,37.109,-145.508,11.719,-105.957
1573889579.598,27.832,33.203,338.379,31.250,52.734
1573889579.602,31.250,32.227,318.848,32.715,162.598
1573889579.606,22.461,32.715,-252.930,14.648,8.789
1573889579.610,13.184,29.297,-446.777,9.766,-153.320
1573889579.614,18.555,30.273,138.672,30.762,-9.766
1573889579.618,33.203,31.738,599.609,46.387,190.918
1573889579.622,27.344,23.438,196.777,31.250,101.074
1573889579.626,12.207,23.438,-428.711,13.672,-95.215
1573889579.630,14.648,25.879,-51.270,32.715,-43.945
1573889579.633,27.344,25.391,553.711,51.758,140.137
1573889579.637,29.785,27.344,231.934,43.457,124.512
1573889579.641,20.508,30.273,-254.395,30.273,-53.223
1573889579.645,18.066,34.668,10.742,36.621,-55.176
1573889579.649,32.227,34.180,388.184,54.199,89.844
1573889579.653,33.203,28.320,20.996,44.434,130.371
1573889579.657,10.742,27.344,-459.473,10.742,13.672
1573889579.661,4.395,29.785,-149.414,3.906,-81.055
1573889579.665,19.043,29.297,482.422,28.809,62.012
1573889579.669,24.902,28.320,428.711,29.785,176.270
1573889579.673,14.160,24.414,-67.383,4.395,25.391
1573889579.676,7.812,25.879,-83.008,-0.977,-103.027
1573889579.680,19.043,29.785,322.754,19.531,4.395
1573889579.684,31.738,31.738,429.688,33.203,162.598
1573889579.688,27.344,34.180,50.781,22.949,82.031
1573889579.692,20.508,36.133,-149.902,11.719,-84.473
1573889579.696,29.785,36.621,72.266,28.809,-33.691
1573889579.700,46.875,41.992,-25.879,52.734,110.840
1573889579.704,35.156,36.133,-266.113,42.969,106.934
1573889579.708,18.066,30.273,-217.773,25.879,-39.062
1573889579.712,26.367,35.156,-84.961,40.527,-92.285
1573889579.715,40.039,31.250,225.098,56.641,74.219
1573889579.719,41.504,29.297,293.457,50.781,168.457
1573889579.723,29.297,28.809,-42.480,27.344,19.043
1573889579.727,24.414,27.832,-149.414,21.484,-81.543
1573889579.731,35.645,30.762,173.828,42.480,48.340
1573889579.735,42.480,35.645,375.000,48.828,188.965
1573889579.739,32.715,37.598,99.609,26.855,102.539
1573889579.743,22.949,40.039,-322.266,14.648,-56.641
1573889579.747,30.762,44.434,-266.113,34.668,-35.645
1573889579.751,42.480,44.922,265.625,53.223,152.344
1573889579.755,39.062,36.621,36.621,39.062,116.211
1573889579.758,23.438,31.738,-499.512,16.113,-88.867
1573889579.762,25.391,34.180,-164.551,28.809,-66.406
1573889579.766,38.574,39.551,390.137,53.711,125.488
1573889579.770,37.598,40.039,277.344,45.898,160.156
1573889579.774,20.508,32.715,-263.184,17.578,-2.441
1573889579.778,14.648,32.715,-195.801,12.207,-57.129
1573889579.782,26.367,37.109,341.797,37.109,85.938
1573889579.786,33.691,32.715,324.707,43.945,184.082
1573889579.790,20.996,21.973,-218.750,20.996,47.363
1573889579.794,14.160,25.879,-440.918,15.625,-102.051
1573889579.798,31.250,33.691,66.895,41.992,15.625
1573889579.801,45.898,28.320,267.090,50.781,149.902
1573889579.805,40.039,24.902,-438.965,32.227,43.457
1573889579.809,31.250,30.273,-614.746,24.414,-104.004
1573889579.813,44.434,36.133,10.254,46.387,-33.203
1573889579.817,62.500,41.992,312.988,63.965,166.016
1573889579.821,56.152,39.551,46.387,50.293,135.254
1573889579.825,39.551,39.551,-212.402,35.156,-65.918
1573889579.829,42.480,43.457,90.820,48.828,-67.383
1573889579.833,53.223,34.180,349.609,68.848,104.980
1573889579.837,50.781,28.809,-19.531,61.035,127.441
1573889579.840,35.156,29.785,-441.406,36.621,-28.320
1573889579.844,25.879,30.273,-284.668,34.180,-112.305
1573889579.848,37.109,32.715,55.176,48.340,38.086
1573889579.852,39.062,36.133,-96.191,42.480,155.273
1573889579.856,20.020,38.574,-250.488,18.066,21.973
1573889579.860,11.719,34.668,-146.484,8.789,-103.516
1573889579.864,21.973,31.250,204.590,29.297,12.695
1573889579.868,28.809,25.391,279.297,37.109,167.969
1573889579.872,21.973,23.438,-1.465,15.625,97.656
1573889579.876,17.090,25.879,-172.852,4.395,-84.473
1573889579.880,26.367,26.367,7.812,25.879,-52.246
1573889579.883,41.016,34.180,285.156,45.410,155.273
1573889579.887,37.109,39.551,-11.719,32.715,130.859
1573889579.891,19.531,29.785,-348.633,12.207,-47.363
1573889579.895,22.461,24.414,-384.277,20.508,-82.520
1573889579.899,36.621,30.762,-26.367,35.645,72.754
1573889579.903,40.039,33.691,281.250,34.180,159.668
1573889579.907,34.180,35.156,-182.617,18.066,-20.508
1573889579.911,28.809,38.086,-362.793,14.648,-147.949
1573889579.915,35.156,34.668,192.871,34.668,4.395
1573889579.919,42.969,26.855,417.969,36.133,160.156
1573889579.923,34.180,32.715,-108.887,13.184,26.855
1573889579.926,27.832,39.062,-385.742,4.883,-119.629
1573889579.930,36.621,33.203,-59.570,22.949,-35.645
1573889579.934,43.457,29.297,114.746,33.203,119.141
1573889579.938,44.922,31.738,-294.434,21.973,88.867
1573889579.942,33.203,31.738,-681.152,6.836,-91.797
1573889579.946,33.203,35.156,-86.914,17.090,-65.918
1573889579.950,50.781,41.016,483.887,41.016,129.883
1573889579.954,50.781,42.969,192.383,35.156,132.812
1573889579.958,31.250,43.457,-184.082,7.812,-42.969
1573889579.962,27.832,44.922,105.469,13.184,-61.523
1573889579.965,43.945,41.504,501.465,44.922,97.168
1573889579.969,45.410,39.062,300.781,41.504,155.762
1573889579.973,29.785,31.738,-49.316,20.020,25.879
1573889579.977,27.344,27.344,-117.676,21.484,-86.426
1573889579.981,46.387,32.227,125.488,45.898,37.109
1573889579.985,58.594,37.109,199.707,57.129,175.781
1573889579.989,48.340,44.434,-12.207,44.922,69.336
1573889579.993,38.574,41.504,57.129,35.156,-71.289
1573889579.997,43.457,36.133,332.520,45.898,-16.602
1573889580.001,49.805,33.203,256.348,55.176,106.445
1573889580.005,42.969,29.785,43.457,37.598,69.824
1573889580.008,26.855,32.715,-27.832,17.578,-82.520
1573889580.012,24.414,31.738,196.289,28.320,-68.848
1573889580.016,38.574,31.250,508.789,49.805,96.680
1573889580.020,35.645,36.621,438.965,39.062,129.883
1573889580.024,21.484,37.109,10.742,14.160,-42.480
1573889580.028,22.461,38.086,-124.023,19.043,-120.605
1573889580.032,39.551,36.621,168.457,42.480,23.926
1573889580.036,37.598,31.738,408.691,37.598,134.277
1573889580.040,21.973,30.762,167.480,14.648,8.789
1573889580.044,16.113,32.227,-81.543,2.441,-117.676
1573889580.048,25.879,35.645,363.770,22.461,36.621
1573889580.051,35.156,34.180,743.164,41.016,177.246
1573889580.055,25.391,29.297,392.090,20.996,75.684
1573889580.059,14.648,26.855,84.473,9.766,-97.656
1573889580.063,20.020,31.738,391.602,26.855,-48.340
1573889580.067,32.227,36.133,802.246,39.062,165.527
1573889580.071,30.273,33.691,278.320,26.367,97.168
1573889580.075,17.578,31.738,-359.375,9.277,-110.352
1573889580.079,15.137,34.180,37.109,16.602,-84.473
1573889580.083,33.203,41.992,662.109,41.016,114.746
1573889580.087,38.086,37.109,521.484,41.504,166.992
1573889580.090,23.438,31.738,-266.113,17.578,-23.926
1573889580.094,22.949,35.156,-351.074,13.184,-123.535
1573889580.098,40.039,37.109,301.758,42.480,13.672
1573889580.102,50.293,35.645,323.730,49.805,121.582
1573889580.106,36.621,34.180,-83.984,24.414,19.043
1573889580.110,24.902,39.551,-28.809,10.742,-107.422
1573889580.114,37.598,35.645,365.723,33.203,-20.020
1573889580.118,47.363,30.273,287.598,51.270,124.512
1573889580.122,37.109,35.645,-133.789,29.785,74.219
1573889580.126,24.414,39.062,-154.785,13.184,-69.824
1573889580.130,28.320,37.109,259.766,24.414,-33.203
1573889580.133,43.457,37.598,246.094,40.039,100.098
1573889580.137,38.086,37.598,-302.246,28.809,83.008
1573889580.141,24.902,43.457,-300.293,11.230,-43.945
1573889580.145,28.809,51.758,92.285,19.043,-73.730
1573889580.149,40.039,44.922,282.227,42.969,72.754
1573889580.153,39.062,34.668,-7.324,41.016,115.234
1573889580.157,26.367,34.668,-265.137,14.160,-31.738
1573889580.161,27.344,37.109,-107.422,21.484,-107.422
1573889580.165,46.875,45.898,166.016,55.664,24.902
1573889580.169,53.223,49.316,85.449,56.152,148.926
1573889580.173,39.062,41.016,-187.012,31.250,63.965
1573889580.176,30.762,37.598,-198.730,26.855,-69.336
1573889580.180,37.109,37.109,-136.719,41.992,-39.062
1573889580.184,41.016,37.598,53.223,52.734,130.371
1573889580.188,31.738,41.992,7.324,36.133,95.703
1573889580.192,20.996,42.480,-312.500,20.020,-71.289
1573889580.196,27.344,41.992,-274.414,34.668,-45.898
1573889580.200,38.086,44.922,121.582,51.270,110.352
1573889580.204,34.180,43.457,127.441,38.574,131.836
1573889580.208,20.508,39.551,-309.082,18.555,-34.180
1573889580.212,21.973,40.527,-319.824,24.414,-94.238
1573889580.215,36.133,41.016,68.359,44.922,67.871
1573889580.219,38.086,41.016,71.777,44.922,139.648
1573889580.223,28.320,41.992,-374.512,27.344,-28.809
1573889580.227,24.414,48.828,-338.379,22.949,-115.723
1573889580.231,36.133,58.594,338.379,40.039,63.965
1573889580.235,47.363,53.711,509.277,54.199,177.246
1573889580.239,35.156,43.945,-294.434,28.809,7.324
1573889580.243,21.484,42.969,-656.250,11.230,-115.723
1573889580.247,27.832,43.457,122.070,34.180,5.371
1573889580.251,41.016,47.363,547.852,49.805,187.012
1573889580.255,41.016,52.734,113.281,35.156,118.652
1573889580.258,29.297,47.363,-332.031,16.602,-83.008
1573889580.262,30.273,38.574,-98.633,29.785,-71.289
1573889580.266,41.992,39.551,214.844,50.293,104.492
1573889580.270,40.039,37.109,5.371,41.016,121.094
1573889580.274,25.879,35.156,-214.844,18.066,-49.805
1573889580.278,23.926,38.086,104.004,24.414,-82.031
1573889580.282,40.527,40.039,496.094,53.223,83.984
1573889580.286,44.434,32.227,80.566,46.875,139.648
1573889580.290,29.785,28.809,-300.781,22.949,-6.836
1573889580.294,23.438,32.227,-70.312,22.461,-122.559
1573889580.298,32.715,30.273,275.391,41.504,0.000
1573889580.301,41.016,30.762,323.242,45.898,159.180
1573889580.305,34.180,36.133,-84.961,32.227,70.801
1573889580.309,19.043,39.062,-304.199,19.531,-107.910
1573889580.313,20.508,32.715,14.160,28.809,-58.594
1573889580.317,31.738,31.738,342.285,42.969,126.953
1573889580.321,26.855,37.109,107.910,24.414,97.168
1573889580.325,10.254,36.133,-174.316,1.953,-64.941
1573889580.329,10.742,31.738,-146.973,8.789,-96.680
1573889580.333,28.320,33.691,-24.902,28.320,56.641
1573889580.337,29.297,39.551,179.199,28.320,137.695
1573889580.340,18.066,42.969,-96.191,15.625,-43.457
1573889580.344,21.973,36.621,-155.273,21.973,-134.766
1573889580.348,38.574,35.645,318.359,45.898,41.016
1573889580.352,45.898,35.156,295.898,50.293,159.180
1573889580.356,36.133,33.203,-240.723,29.785,2.441
1573889580.360,29.297,34.180,-575.195,23.438,-152.832
1573889580.364,37.109,33.203,-156.738,41.992,-31.250
1573889580.368,49.805,39.062,460.938,57.617,173.828
1573889580.372,43.457,41.992,143.066,43.457,101.074
1573889580.376,29.297,38.574,-310.059,24.902,-101.562
1573889580.380,34.668,35.645,-14.648,35.156,-54.199
1573889580.383,51.758,35.645,471.191,51.270,147.949
1573889580.387,54.199,36.621,112.305,41.504,114.746
1573889580.391,36.621,36.133,-320.801,20.020,-54.199
1573889580.395,36.133,38.086,46.875,31.250,-49.805
1573889580.399,49.316,37.109,337.402,54.199,86.914
1573889580.403,47.363,37.109,54.199,46.387,175.293
1573889580.407,30.273,33.691,-499.512,23.438,13.672
1573889580.411,19.531,33.203,-220.215,17.090,-74.219
1573889580.415,29.297,35.156,435.547,32.715,78.125
1573889580.419,40.039,32.715,320.312,41.992,154.785
1573889580.423,26.855,29.785,-124.023,16.113,37.109
1573889580.426,9.766,30.273,-89.844,0.488,-68.848
1573889580.430,27.344,33.203,305.664,30.273,24.902
1573889580.434,44.434,32.227,333.984,47.852,168.457
1573889580.438,36.621,34.180,-71.777,30.762,84.961
1573889580.442,26.367,30.273,-209.961,16.602,-77.148
1573889580.446,31.250,28.320,13.184,31.250,-40.527
1573889580.450,40.527,32.715,-102.539,45.410,93.750
1573889580.454,43.945,32.715,-300.781,36.621,110.840
1573889580.458,34.668,23.438,-273.926,17.578,-56.152
1573889580.462,27.344,20.508,-90.820,16.113,-90.332
1573889580.465,46.875,29.785,220.703,45.898,76.660
1573889580.469,55.176,36.133,194.824,51.758,136.719
1573889580.473,41.504,32.715,-71.289,33.691,11.230
1573889580.477,40.527,34.668,-133.789,37.598,-95.215
1573889580.481,48.828,41.504,167.480,58.594,15.625
1573889580.485,47.852,35.156,396.484,57.129,178.711
1573889580.489,37.109,32.227,66.895,33.691,102.539
1573889580.493,25.391,32.227,-461.914,18.555,-98.633
1573889580.497,29.297,27.344,-317.871,27.832,-60.059
1573889580.501,38.086,35.645,223.633,39.551,156.250
1573889580.505,25.879,35.156,140.137,20.996,125.488
1573889580.508,11.719,23.926,-398.926,-1.465,-72.266
1573889580.512,9.766,26.855,-394.531,4.883,-67.871
1573889580.516,20.508,30.762,234.375,27.832,118.652
1573889580.520,20.508,32.227,226.074,21.973,147.461
1573889580.524,10.254,34.668,-195.312,4.883,-2.441
1573889580.528,17.090,38.086,-104.492,15.625,-80.566
1573889580.532,32.715,40.039,315.430,39.062,46.875
1573889580.536,37.598,36.621,312.012,42.480,154.297
1573889580.540,26.855,28.320,-264.160,21.973,20.508
1573889580.544,23.926,27.832,-353.516,20.508,-83.008
1573889580.548,34.668,38.574,142.090,43.457,25.879
1573889580.551,49.316,43.457,326.660,59.570,166.016
1573889580.555,44.922,36.133,-411.621,43.945,26.367
1573889580.559,28.320,33.691,-754.395,24.414,-164.062
1573889580.563,37.109,38.086,39.551,42.969,-48.828
1573889580.567,52.246,41.504,393.066,56.641,161.621
1573889580.571,41.992,39.551,21.484,35.645,116.211
1573889580.575,18.066,35.156,-235.352,10.254,-74.219
1573889580.579,16.113,36.621,11.719,18.555,-89.844
1573889580.583,28.809,40.527,241.699,41.016,82.520
1573889580.587,30.273,40.527,-70.312,33.691,125.488
1573889580.590,17.578,36.133,-521.484,9.766,-52.246
1573889580.594,15.625,35.645,-275.391,11.719,-97.168
1573889580.598,34.668,40.527,71.289,36.621,26.855
1573889580.602,38.574,46.875,-193.359,37.109,122.070
1573889580.606,20.996,45.898,-341.309,11.230,33.691
1573889580.610,11.719,41.504,-187.500,6.348,-121.582
1573889580.614,25.879,36.621,157.715,28.320,-21.973
1573889580.618,39.062,38.086,359.375,39.551,156.738
1573889580.622,30.762,42.480,107.422,23.926,80.078
1573889580.626,24.414,43.457,-140.625,17.090,-96.680
1573889580.630,36.133,44.434,94.238,40.527,-56.641
1573889580.633,48.828,38.086,304.199,53.223,127.930
1573889580.637,41.992,33.691,18.066,35.645,132.812
1573889580.641,28.320,37.598,-236.328,18.555,-36.133
1573889580.645,32.227,40.039,-311.035,28.320,-105.469
1573889580.649,42.480,39.062,40.039,49.316,63.477
1573889580.653,43.457,38.086,421.875,45.410,172.363
1573889580.657,31.250,35.156,65.430,26.367,16.113
1573889580.661,22.949,39.551,-30.273,28.320,-89.355
1573889580.665,36.133,43.945,541.504,51.758,63.965
1573889580.669,43.945,37.109,697.266,55.176,180.664
1573889580.673,32.227,39.062,174.805,29.785,42.480
1573889580.676,24.414,41.504,24.414,22.461,-99.609
1573889580.680,33.691,42.969,415.527,41.992,6.836
1573889580.684,40.039,40.527,589.355,51.270,182.129
1573889580.688,33.203,40.039,132.324,34.668,94.238
1573889580.692,23.926,41.016,-354.980,19.043,-91.309
1573889580.696,31.250,49.316,156.738,33.691,-62.012
1573889580.700,44.434,58.594,793.457,51.758,144.531
1573889580.704,39.551,55.664,511.719,40.039,148.438
1573889580.708,27.344,47.363,50.781,19.043,-65.430
1573889580.712,22.949,38.086,316.406,19.531,-100.586
1573889580.715,37.598,33.203,658.691,41.504,82.520
1573889580.719,41.504,33.203,428.711,40.039,143.555
1573889580.723,27.344,35.645,-10.742,16.113,-24.414
1573889580.727,23.926,44.922,-71.777,20.020,-110.352
1573889580.731,34.180,49.805,343.262,39.062,34.668
1573889580.735,41.504,42.480,160.645,41.504,132.324
1573889580.739,32.715,34.668,-263.672,25.391,28.320
1573889580.743,22.461,35.156,12.695,18.555,-92.773
1573889580.747,32.227,34.180,403.320,40.039,-16.602
1573889580.751,51.270,39.551,512.695,57.617,143.555
1573889580.755,42.480,41.016,264.648,40.527,96.191
1573889580.758,28.809,39.062,55.176,25.391,-66.895
1573889580.762,37.598,41.992,216.797,39.551,-58.105
1573889580.766,45.410,40.527,519.043,53.711,135.742
1573889580.770,42.480,41.504,426.758,43.945,170.898
1573889580.774,29.297,44.434,-90.820,24.902,-26.855
1573889580.778,21.484,39.551,-254.395,22.461,-83.984
1573889580.782,25.879,30.273,96.680,34.668,63.477
1573889580.786,26.855,23.438,241.699,28.320,143.066
1573889580.790,13.672,18.555,-18.555,2.930,22.461
1573889580.794,4.883,19.531,-342.773,-3.906,-130.371
1573889580.798,16.113,27.832,-212.891,10.742,-22.949
1573889580.801,24.902,34.668,298.340,24.414,172.363
1573889580.805,21.484,33.691,145.996,11.719,105.957
1573889580.809,14.160,27.832,-154.785,2.441,-55.176
1573889580.813,21.484,30.762,121.094,24.414,-24.902
1573889580.817,39.062,37.109,436.035,43.457,130.859
1573889580.821,35.156,31.250,-76.660,27.832,81.055
1573889580.825,19.531,30.762,-546.387,8.301,-83.008
1573889580.829,20.996,37.598,-245.605,25.391,-87.891
1573889580.833,38.574,36.621,165.039,49.316,84.961
1573889580.837,43.945,35.156,91.797,46.875,132.324
1573889580.840,24.902,27.344,-640.625,19.043,-65.918
1573889580.844,15.625,27.832,-567.871,15.625,-128.906
1573889580.848,27.344,36.621,213.379,40.039,47.852
1573889580.852,37.598,36.621,201.660,45.410,158.691
1573889580.856,24.902,31.250,-215.332,19.531,48.340
1573889580.860,18.066,36.133,-184.570,7.324,-87.402
1573889580.864,31.250,44.922,250.488,38.086,8.301
1573889580.868,40.527,40.527,171.387,50.781,146.484
1573889580.872,25.391,29.785,-361.816,25.391,56.641
1573889580.876,9.277,28.320,-357.422,11.719,-84.473
1573889580.880,19.531,32.715,129.395,31.738,-44.434
1573889580.883,39.551,39.551,201.660,54.688,117.188
1573889580.887,34.180,43.945,-375.977,36.133,82.031
1573889580.891,12.695,45.410,-457.520,6.836,-85.449
1573889580.895,12.695,47.852,39.062,19.531,-81.543
1573889580.899,28.320,40.039,177.246,38.086,62.988
1573889580.903,26.367,30.762,-10.254,23.438,127.441
1573889580.907,13.184,32.227,-72.266,5.859,11.230
1573889580.911,17.090,39.062,54.199,12.695,-68.359
1573889580.915,34.668,42.969,324.219,37.598,58.105
1573889580.919,49.316,46.875,187.988,52.246,149.414
1573889580.923,43.945,47.363,-171.875,34.180,19.531
1573889580.926,35.156,40.527,-166.016,22.949,-100.586
1573889580.930,43.945,36.621,95.703,43.945,-22.461
1573889580.934,54.199,35.156,280.762,59.570,136.230
1573889580.938,44.922,33.691,158.691,40.527,111.816
1573889580.942,38.086,38.086,-173.828,23.438,-86.914
1573889580.946,45.410,39.062,-255.371,40.039,-86.426
1573889580.950,51.758,46.387,238.281,57.617,125.488
1573889580.954,47.363,50.781,310.059,47.363,128.906
1573889580.958,33.691,37.598,-200.195,27.344,-65.430
1573889580.962,30.273,30.762,-164.551,30.273,-77.637
1573889580.965,41.016,35.645,302.734,48.828,109.863
1573889580.969,43.457,37.109,284.180,46.387,161.621
1573889580.973,30.762,32.227,-154.297,22.461,9.766
1573889580.977,25.391,34.668,-147.461,21.484,-89.844
1573889580.981,35.156,38.574,358.887,45.410,25.879
1573889580.985,42.969,33.203,537.109,49.805,165.039
1573889580.989,30.273,30.273,-194.824,22.461,23.438
1573889580.993,17.090,30.273,-625.000,8.789,-130.371
1573889580.997,23.438,33.203,116.211,29.297,-11.719
1573889581.001,40.039,42.480,415.039,44.434,170.410
1573889581.005,36.621,44.922,-49.316,30.762,97.168
1573889581.008,24.414,36.621,-375.000,13.184,-86.914
1573889581.012,28.320,32.715,-130.859,24.902,-65.430
1573889581.016,40.039,38.574,269.531,43.945,110.840
1573889581.020,40.527,41.016,-146.973,38.086,119.141
1573889581.024,26.367,42.969,-579.590,20.508,-71.777
1573889581.028,21.484,44.922,-62.012,26.367,-101.074
1573889581.032,39.062,45.898,357.910,53.711,68.848
1573889581.036,46.875,38.086,261.719,54.688,171.387
1573889581.040,29.297,27.344,-28.809,27.344,41.016
1573889581.044,17.090,30.273,-10.254,18.555,-75.684
1573889581.048,24.902,38.574,253.906,35.645,27.832
1573889581.051,31.250,41.016,276.855,41.992,161.133
1573889581.055,17.090,33.691,-126.953,22.461,74.707
1573889581.059,8.301,31.250,-443.848,10.742,-104.980
1573889581.063,25.879,38.574,-261.230,33.691,-60.059
1573889581.067,42.480,40.527,-156.738,50.781,99.609
1573889581.071,30.762,39.551,-109.863,32.715,104.980
1573889581.075,13.184,37.598,-169.434,11.719,-55.176
1573889581.079,17.578,38.086,-39.062,23.438,-83.984
1573889581.083,36.621,38.574,291.504,47.363,81.055
1573889581.087,35.645,34.668,218.262,39.062,120.605
1573889581.090,20.508,28.809,-161.621,10.254,-30.273
1573889581.094,23.438,36.133,-177.246,16.602,-98.145
1573889581.098,45.410,43.945,246.094,48.828,52.734
1573889581.102,54.199,31.250,249.023,49.316,168.457
1573889581.106,43.457,25.391,-238.281,23.926,44.922
1573889581.110,41.504,34.180,-595.215,18.066,-100.586
1573889581.114,53.711,41.016,-265.137,38.086,-3.906
1573889581.118,59.570,42.480,340.820,48.340,180.176
1573889581.122,49.316,38.086,61.035,30.762,96.680
1573889581.126,37.109,36.133,-319.336,17.578,-95.703
1573889581.130,41.992,36.621,104.492,36.133,-41.504
1573889581.133,56.152,37.109,490.723,60.547,136.230
1573889581.137,45.898,38.086,126.953,45.410,130.371
1573889581.141,22.949,38.086,-296.875,16.602,-51.270
1573889581.145,30.273,41.992,-90.820,29.785,-92.285
1573889581.149,53.223,40.527,240.234,62.988,86.914
1573889581.153,42.969,32.715,-62.988,48.340,141.113
1573889581.157,16.113,33.691,-684.082,11.230,-29.785
1573889581.161,9.277,43.457,-374.512,10.742,-97.656
1573889581.165,21.484,48.828,336.426,37.598,55.664
1573889581.169,24.414,39.062,190.918,38.574,153.809
1573889581.173,5.859,29.297,-291.016,8.789,33.691
1573889581.176,-11.719,22.949,-209.473,-6.836,-97.656
1573889581.180,0.977,29.297,206.055,16.113,-17.578
1573889581.184,13.672,35.645,316.895,31.738,137.695
1573889581.188,6.836,28.809,-57.617,14.648,70.801
1573889581.192,-1.953,28.809,-225.098,3.906,-91.797
1573889581.196,14.160,41.016,-18.066,24.902,-68.359
1573889581.200,41.016,40.039,-62.500,51.270,91.309
1573889581.204,44.434,31.250,-306.152,43.945,94.727
1573889581.208,34.668,34.668,-309.082,27.344,-76.172
1573889581.212,36.133,33.691,-96.680,32.715,-112.793
1573889581.215,51.270,32.227,226.074,52.246,62.500
1573889581.219,57.617,36.133,251.953,50.293,147.461
1573889581.223,48.340,41.992,-6.836,26.855,29.785
1573889581.227,41.992,43.457,-215.820,23.926,-104.004
1573889581.231,55.176,44.434,87.402,47.852,10.742
1573889581.235,67.383,40.039,400.879,61.035,184.570
1573889581.239,57.129,31.250,19.043,33.691,54.688
1573889581.243,42.969,35.645,-371.094,13.672,-117.676
1573889581.247,48.828,40.527,-102.539,33.691,-36.621
1573889581.251,55.664,37.109,299.805,43.945,139.648
1573889581.255,49.805,39.062,118.164,29.785,94.238
1573889581.258,35.645,41.992,-406.738,12.207,-95.703
1573889581.262,34.180,34.668,-458.008,22.461,-103.516
1573889581.266,39.551,27.832,230.957,39.062,119.141
1573889581.270,36.133,32.715,290.527,28.320,165.527
1573889581.274,24.414,36.621,-235.352,7.324,-35.156
1573889581.278,18.555,35.645,-131.348,7.812,-103.027
1573889581.282,31.738,37.109,299.805,26.367,48.828
1573889581.286,39.551,40.527,247.070,30.273,156.738
1573889581.290,26.367,43.945,-206.543,5.371,25.879
1573889581.294,24.414,44.922,-224.609,7.324,-86.426
1573889581.298,45.410,42.480,411.133,42.480,36.133
1573889581.301,45.898,37.109,589.355,45.410,156.738
1573889581.305,27.344,28.320,-181.152,15.625,25.879
1573889581.309,14.648,27.832,-466.309,2.930,-152.344
1573889581.313,31.738,38.086,289.062,30.762,-55.176
1573889581.317,52.734,37.598,645.020,45.410,162.598
1573889581.321,44.922,33.203,326.172,27.832,138.672
1573889581.325,27.832,30.762,128.418,9.277,-42.480
1573889581.329,32.715,35.645,412.109,23.926,-60.059
1573889581.333,50.293,37.598,695.312,50.781,108.887
1573889581.337,52.246,34.668,349.121,47.852,143.066
1573889581.340,40.527,30.273,-122.070,22.461,-18.066
1573889581.344,35.645,29.785,49.805,18.066,-91.309
1573889581.348,48.340,35.645,394.531,44.434,44.434
1573889581.352,49.316,30.762,253.418,42.480,138.672
1573889581.356,34.668,28.320,16.602,14.648,4.883
1573889581.360,26.855,35.156,129.395,11.230,-113.281
1573889581.364,40.527,42.480,526.367,35.645,-2.930
1573889581.368,50.781,42.969,684.570,41.992,156.250
1573889581.372,40.527,37.109,410.156,23.438,77.148
1573889581.376,25.391,35.645,107.910,6.348,-117.676
1573889581.380,29.785,32.227,321.289,16.602,-72.754
1573889581.383,49.805,37.598,494.629,41.504,106.445
1573889581.387,43.457,40.039,145.020,27.344,91.797
1573889581.391,22.949,40.527,-44.434,1.465,-62.012
1573889581.395,28.320,45.410,-138.672,12.695,-105.957
1573889581.399,45.410,41.016,108.887,37.109,62.012
1573889581.403,46.387,36.133,429.688,41.504,142.090
1573889581.407,38.086,37.598,60.547,26.367,-2.441
1573889581.411,34.180,41.504,-23.926,30.273,-96.191
1573889581.415,48.828,50.293,466.309,58.594,31.250
1573889581.419,60.059,54.199,619.629,66.895,172.852
1573889581.423,45.410,42.480,84.961,41.504,37.598
1573889581.426,37.109,37.598,-118.652,31.250,-109.375
1573889581.430,47.363,35.156,189.453,50.781,-9.277
1573889581.434,52.734,37.598,330.566,63.965,146.484
1573889581.438,45.410,50.293,-136.719,48.340,53.711
1573889581.442,33.203,47.852,-641.602,27.832,-126.465
1573889581.446,28.809,36.621,-72.266,33.691,-61.523
1573889581.450,34.180,31.738,453.613,45.410,119.141
1573889581.454,31.250,35.156,100.098,34.180,121.582
1573889581.458,18.555,43.457,-250.977,12.695,-48.340
1573889581.462,18.066,47.363,65.918,16.113,-82.031
1573889581.465,37.109,54.199,518.066,41.992,101.562
1573889581.469,41.992,47.363,310.547,38.574,161.133
1573889581.473,25.879,35.156,-131.836,14.648,9.766
1573889581.477,18.066,34.180,-206.543,14.160,-104.004
1573889581.481,25.391,30.273,33.203,33.691,14.648
1573889581.485,31.738,36.133,48.340,41.016,151.855
1573889581.489,24.414,47.363,-226.562,22.949,44.922
1573889581.493,11.230,43.457,-229.492,12.695,-112.793
1573889581.497,18.555,38.574,111.328,32.227,-37.109
1573889581.501,37.109,32.227,1.465,48.828,117.676
1573889581.505,32.227,27.832,-255.371,32.715,102.051
1573889581.508,18.066,32.715,-286.621,15.137,-50.293
1573889581.512,21.484,34.668,-178.223,29.297,-83.008
1573889581.516,33.691,38.086,191.895,50.293,93.750
1573889581.520,33.691,36.133,187.988,40.039,142.090
1573889581.524,22.949,34.668,-249.023,20.020,-30.762
1573889581.528,28.809,39.551,-363.281,29.297,-117.676
1573889581.532,49.805,43.457,61.035,55.176,26.855
1573889581.536,50.781,42.969,220.703,55.176,132.324
1573889581.540,36.621,40.039,-55.176,31.250,6.348
1573889581.544,30.762,36.133,-325.195,25.391,-124.512
1573889581.548,40.039,33.203,-224.609,41.504,-36.621
1573889581.551,46.875,30.273,204.590,49.316,131.348
1573889581.555,34.180,30.762,63.965,26.855,73.242
1573889581.559,23.438,34.668,-211.914,9.766,-94.238
1573889581.563,36.621,37.109,105.469,33.203,-47.852
1573889581.567,55.176,39.062,422.852,58.105,153.809
1573889581.571,47.852,39.551,59.082,45.898,113.281
1573889581.575,28.809,33.203,-627.930,20.996,-116.699
1573889581.579,31.738,32.227,-432.129,29.785,-126.465
1573889581.583,49.805,40.039,456.543,60.059,102.051
1573889581.587,53.711,41.016,344.727,56.152,127.930
1573889581.590,41.504,39.551,-153.320,32.227,-30.273
1573889581.594,35.156,34.180,87.402,32.715,-63.965
1573889581.598,41.504,27.344,576.172,51.270,73.242
1573889581.602,48.828,32.227,447.754,54.199,161.621
1573889581.606,40.039,41.992,-109.863,33.691,-3.418
1573889581.610,30.273,41.016,-82.520,20.508,-104.980
1573889581.614,41.016,37.598,437.988,35.156,26.855
1573889581.618,50.781,34.180,377.930,45.410,163.086
1573889581.622,41.016,33.203,-267.090,26.855,83.984
1573889581.626,30.273,35.156,-287.598,11.719,-58.594
1573889581.630,38.086,39.062,222.168,25.391,-41.016
1573889581.633,54.199,38.574,316.895,46.387,110.352
1573889581.637,50.293,34.668,-44.434,34.668,105.469
1573889581.641,32.227,41.016,-152.344,14.648,-33.203
1573889581.645,33.203,36.621,182.617,28.320,-48.340
1573889581.649,49.805,30.273,290.527,51.758,95.215
1573889581.653,52.246,36.133,-40.527,49.805,132.324
1573889581.657,34.180,36.133,-224.121,26.367,-34.180
1573889581.661,23.438,34.180,-89.844,18.555,-109.863
1573889581.665,29.297,34.180,148.926,37.598,26.855
1573889581.669,36.133,32.715,70.312,40.527,127.930
1573889581.673,26.855,31.738,-82.031,19.043,52.246
1573889581.676,23.438,37.598,-147.461,17.090,-78.613
1573889581.680,37.598,36.621,-33.203,42.969,-35.156
1573889581.684,48.340,35.645,233.398,54.199,145.508
1573889581.688,38.574,32.715,100.586,38.574,102.051
1573889581.692,27.344,26.367,-283.691,22.949,-95.703
1573889581.696,28.320,27.832,-424.316,27.832,-113.770
1573889581.700,34.668,33.691,42.480,40.527,108.398
1573889581.704,35.156,36.133,244.141,31.250,161.133
1573889581.708,20.996,27.832,-270.020,8.789,-44.434
1573889581.712,17.578,24.902,-314.941,9.766,-90.332
