timestamps,TP9,AF7,AF8,TP10,Right AUX
1573889266.223,-41.016,37.109,274.902,-22.949,52.734
1573889266.227,-55.664,32.715,234.863,-35.156,-88.867
1573889266.231,-45.410,33.691,550.293,-14.160,-37.109
1573889266.235,-23.438,34.668,635.254,10.254,131.836
1573889266.239,-32.227,33.691,243.652,-17.578,105.469
1573889266.243,-51.758,27.832,-77.148,-47.852,-85.938
1573889266.247,-45.410,26.367,-66.406,-34.668,-114.258
1573889266.251,-36.621,24.902,247.559,-12.207,42.480
1573889266.255,-44.434,18.555,363.770,-21.973,117.676
1573889266.258,-54.199,17.090,18.066,-44.434,-34.668
1573889266.262,-57.617,22.461,180.664,-37.109,-95.703
1573889266.266,-42.969,19.043,637.695,-11.719,46.875
1573889266.270,-30.762,10.254,511.719,-5.859,141.113
1573889266.274,-44.922,7.324,4.395,-28.809,11.230
1573889266.278,-52.246,12.207,-18.555,-31.250,-122.070
1573889266.282,-43.945,11.719,544.434,-4.883,22.461
1573889266.286,-28.809,0.488,656.738,11.719,186.523
1573889266.290,-24.414,-1.953,-70.801,-4.395,91.797
1573889266.294,-36.621,4.395,-612.793,-23.926,-129.883
1573889266.298,-27.344,12.695,4.883,0.000,-62.012
1573889266.301,-6.836,8.301,505.371,26.367,151.855
1573889266.305,-9.277,2.441,34.668,6.348,104.004
1573889266.309,-32.227,5.371,-310.547,-25.879,-88.379
1573889266.313,-30.273,13.184,137.695,-7.812,-88.379
1573889266.317,-10.742,13.184,474.609,20.996,90.820
1573889266.321,-14.160,4.395,111.328,7.324,133.301
1573889266.325,-29.785,3.906,-229.492,-20.020,-13.672
1573889266.329,-30.762,8.789,-16.113,-17.578,-99.609
1573889266.333,-12.207,9.277,323.730,11.230,44.434
1573889266.337,-6.348,6.836,9.766,7.324,142.090
1573889266.340,-33.203,-0.488,-505.371,-33.203,30.273
1573889266.344,-53.711,-2.930,-328.613,-51.270,-95.703
1573889266.348,-35.645,0.977,91.797,-16.602,-3.418
1573889266.352,-17.090,1.953,39.062,6.348,151.855
1573889266.356,-27.832,5.859,-230.957,-16.113,81.055
1573889266.360,-43.945,6.348,-239.746,-27.832,-84.961
1573889266.364,-27.832,-2.930,-3.906,-2.930,-53.711
1573889266.368,-5.371,-6.348,-139.160,15.625,96.680
1573889266.372,-6.836,-6.836,-363.770,1.953,96.680
1573889266.376,-19.043,-5.371,-375.000,-18.066,-46.387
1573889266.380,-16.602,2.441,-130.371,-5.371,-71.777
1573889266.383,-4.883,3.906,75.684,19.531,86.426
1573889266.387,-8.301,-4.883,-230.957,16.602,131.836
1573889266.391,-20.508,-9.277,-542.969,2.441,-37.109
1573889266.395,-20.996,-4.395,-549.316,2.930,-133.789
1573889266.399,-7.812,4.883,-341.797,19.531,-3.906
1573889266.403,2.441,15.625,-38.574,28.809,145.508
1573889266.407,-18.066,6.348,-390.137,1.465,50.293
1573889266.411,-42.969,-9.766,-556.152,-19.531,-113.770
1573889266.415,-35.156,-7.812,1.465,2.930,-19.531
1573889266.419,-13.184,-2.441,257.324,26.367,160.156
1573889266.423,-9.766,-1.465,-193.848,14.648,94.727
1573889266.426,-27.832,-1.953,-506.348,-6.836,-78.125
1573889266.430,-34.668,1.465,-162.598,1.953,-43.945
1573889266.434,-19.531,9.766,150.391,20.996,138.672
1573889266.438,-20.996,12.695,-228.516,6.348,126.953
1573889266.442,-41.016,10.254,-857.910,-22.949,-92.285
1573889266.446,-49.316,5.859,-406.738,-20.996,-103.027
1573889266.450,-32.715,7.324,375.977,2.441,91.309
1573889266.454,-20.508,8.301,58.105,2.441,129.395
1573889266.458,-34.668,6.348,-368.164,-21.973,-1.465
1573889266.462,-39.551,11.230,-134.766,-21.484,-77.637
1573889266.465,-19.043,16.113,240.234,10.254,34.180
1573889266.469,0.488,15.137,214.844,25.879,165.039
1573889266.473,-13.184,11.719,-242.676,-1.465,41.992
1573889266.477,-30.273,12.207,-370.605,-17.578,-104.492
1573889266.481,-9.766,22.949,152.832,14.160,2.930
1573889266.485,21.484,30.762,164.062,41.016,132.324
1573889266.489,11.230,22.461,-479.492,23.926,62.988
1573889266.493,-14.160,21.973,-337.891,1.953,-65.918
1573889266.497,-6.348,23.438,212.891,23.926,-47.363
1573889266.501,20.996,22.461,354.004,57.129,94.238
1573889266.505,20.508,20.020,29.785,43.945,114.258
1573889266.508,-2.441,15.137,-158.203,9.766,-15.625
1573889266.512,-1.465,20.020,43.945,22.461,-83.496
1573889266.516,14.160,18.555,252.930,45.898,38.574
1573889266.520,16.602,14.648,50.293,34.668,147.461
1573889266.524,-2.930,15.625,-406.250,4.883,12.695
1573889266.528,-7.324,19.043,-423.340,2.930,-124.512
1573889266.532,8.301,14.648,-179.688,26.367,-3.418
1573889266.536,5.859,15.137,-17.578,25.391,153.809
1573889266.540,-7.324,13.184,-104.980,2.441,76.172
1573889266.544,-17.578,7.324,-296.387,-9.766,-93.262
1573889266.548,-14.160,9.766,40.039,4.395,-33.203
1573889266.551,2.441,9.766,338.379,21.484,143.066
1573889266.555,5.371,15.137,44.434,9.277,133.301
1573889266.559,-6.348,16.602,-304.688,-6.348,-52.734
1573889266.563,-4.395,10.254,-142.578,7.324,-107.422
1573889266.567,13.184,7.812,260.254,31.738,78.613
1573889266.571,17.578,8.789,-60.547,29.785,131.348
1573889266.575,9.277,14.160,-792.969,12.695,-59.570
1573889266.579,-2.930,17.578,-747.070,5.859,-154.297
1573889266.583,3.418,12.207,21.973,28.320,13.672
1573889266.587,14.648,9.277,75.684,41.016,113.770
1573889266.590,-3.906,9.277,-422.852,9.766,1.465
1573889266.594,-8.789,17.090,-329.590,4.395,-104.004
1573889266.598,13.184,29.297,215.820,39.062,-4.883
1573889266.602,21.973,24.902,281.738,49.805,155.762
1573889266.606,2.930,9.277,-283.691,18.555,61.035
1573889266.610,-15.137,1.953,-496.582,-4.883,-124.023
1573889266.614,1.953,10.742,-17.578,22.949,-66.406
1573889266.618,30.762,20.020,113.281,56.152,114.258
1573889266.622,29.297,15.137,-602.539,36.621,86.426
1573889266.626,8.301,8.789,-804.688,5.371,-82.031
1573889266.630,5.371,13.184,-142.578,12.695,-87.402
1573889266.633,25.879,14.160,79.102,34.180,65.430
1573889266.637,28.320,9.766,-294.434,26.855,108.887
1573889266.641,5.859,9.766,-451.172,-2.930,-10.254
1573889266.645,3.418,14.648,-123.047,-1.953,-78.125
1573889266.649,27.344,20.020,163.574,29.297,29.785
1573889266.653,35.156,16.113,-7.812,35.645,130.371
1573889266.657,16.113,9.277,-311.523,10.742,43.457
1573889266.661,13.184,8.789,-226.562,7.324,-66.895
1573889266.665,29.785,9.277,20.508,36.621,-9.766
1573889266.669,33.203,11.719,-106.934,49.316,115.723
1573889266.673,19.531,11.719,-380.859,27.832,88.867
1573889266.676,3.906,7.812,-312.988,6.836,-62.012
1573889266.680,19.531,8.789,-233.887,30.762,-71.777
1573889266.684,31.250,11.719,-181.152,50.293,102.539
1573889266.688,17.090,17.578,-217.773,26.855,135.742
1573889266.692,0.000,14.160,-526.367,0.977,-44.922
1573889266.696,-1.465,5.859,-300.781,12.207,-100.098
1573889266.700,9.277,0.488,135.742,33.691,56.641
1573889266.704,14.160,-2.441,-3.418,25.879,122.070
1573889266.708,7.324,-0.488,-467.285,2.441,-27.344
1573889266.712,0.000,8.301,-445.801,0.000,-108.398
1573889266.715,14.648,14.648,-104.980,26.367,8.301
1573889266.719,27.832,19.043,25.391,40.527,144.043
1573889266.723,13.184,19.531,-318.848,16.602,55.664
1573889266.727,-5.371,4.395,-704.590,-3.418,-106.934
1573889266.731,4.395,-3.418,-204.102,21.973,-26.855
1573889266.735,24.414,1.465,202.637,50.781,132.324
1573889266.739,19.043,2.441,-199.707,27.344,114.258
1573889266.743,1.465,7.324,-452.637,4.883,-41.992
1573889266.747,0.977,13.672,-95.215,27.344,-51.270
1573889266.751,21.484,19.531,224.609,51.758,99.121
1573889266.755,26.855,19.531,-66.406,41.016,141.113
1573889266.758,14.648,18.555,-498.047,13.672,-11.230
1573889266.762,12.695,25.879,-362.793,17.578,-85.938
1573889266.766,20.020,21.973,184.570,42.480,101.074
1573889266.770,24.414,10.254,-178.711,38.574,144.043
1573889266.774,13.672,6.348,-855.469,9.277,-27.344
1573889266.778,7.812,14.648,-420.410,6.836,-106.445
1573889266.782,31.738,24.902,148.926,42.969,5.371
1573889266.786,41.016,25.879,104.492,51.758,149.902
1573889266.790,18.555,17.578,-276.855,15.625,65.430
1573889266.794,6.348,8.789,-295.410,2.441,-92.773
1573889266.798,19.043,8.789,77.637,29.785,-31.250
1573889266.801,37.598,5.859,122.559,49.805,139.160
1573889266.805,35.156,3.418,-342.773,32.227,106.934
1573889266.809,12.207,10.742,-654.297,3.418,-94.727
1573889266.813,14.160,25.391,-331.543,15.137,-97.168
1573889266.817,39.551,28.809,-222.656,39.551,61.523
1573889266.821,32.227,19.043,-356.934,21.973,107.422
1573889266.825,12.207,17.578,-309.082,1.465,-19.043
1573889266.829,15.625,18.555,-225.098,14.160,-120.117
1573889266.833,25.391,26.855,94.727,34.668,30.273
1573889266.837,38.086,28.809,154.785,38.574,161.621
1573889266.840,26.855,16.113,-237.793,16.113,26.855
1573889266.844,14.160,10.742,-300.293,8.789,-111.816
1573889266.848,33.203,15.137,30.762,41.016,-21.973
1573889266.852,42.969,20.020,57.617,55.176,140.625
1573889266.856,28.320,15.137,-382.324,30.762,75.684
1573889266.860,9.766,12.207,-802.734,9.277,-137.207
1573889266.864,7.812,14.160,-460.449,24.902,-78.613
1573889266.868,18.066,19.531,109.863,52.246,111.816
1573889266.872,22.949,18.066,-94.727,41.992,101.562
1573889266.876,2.441,16.602,-426.758,6.348,-59.570
1573889266.880,-0.977,21.484,-96.680,9.766,-84.961
1573889266.883,16.602,23.926,417.480,38.086,103.516
1573889266.887,22.949,18.066,154.785,34.668,143.066
1573889266.891,11.719,10.254,-341.797,6.836,-25.879
1573889266.895,9.277,20.508,-51.758,12.207,-80.566
1573889266.899,24.902,34.180,348.145,44.922,43.945
1573889266.903,34.180,35.645,104.980,51.758,123.535
1573889266.907,20.508,25.879,-529.297,19.043,5.859
1573889266.911,3.906,22.949,-305.176,4.395,-88.379
1573889266.915,18.555,29.785,432.129,29.785,1.465
1573889266.919,31.250,25.391,348.145,42.969,121.094
1573889266.923,17.578,21.484,-40.039,17.090,63.965
1573889266.926,6.348,24.902,10.254,-3.418,-87.891
1573889266.930,19.531,35.645,450.195,23.926,-69.336
1573889266.934,33.691,35.645,565.430,49.316,80.566
1573889266.938,25.391,26.855,223.633,32.715,104.492
1573889266.942,11.719,22.461,29.785,15.625,-44.922
1573889266.946,13.672,22.461,272.949,31.738,-64.941
1573889266.950,28.320,23.438,356.445,47.852,86.426
1573889266.954,27.832,24.902,-41.504,34.180,110.840
1573889266.958,12.207,30.273,-94.727,17.090,-6.836
1573889266.962,3.906,31.250,269.043,15.625,-81.543
1573889266.965,6.836,25.391,562.500,28.809,20.020
1573889266.969,17.090,22.949,444.336,40.039,151.855
1573889266.973,11.230,18.066,-23.438,20.508,37.598
1573889266.977,-5.371,19.531,-35.156,4.395,-108.887
1573889266.981,-0.488,28.809,381.836,27.344,-20.996
1573889266.985,11.230,24.414,488.281,40.527,127.930
1573889266.989,-2.930,14.160,185.547,13.672,102.051
1573889266.993,-13.672,8.789,-179.199,0.977,-77.637
1573889266.997,-7.324,10.254,-283.203,16.113,-105.469
1573889267.001,5.859,17.578,100.098,28.809,91.797
1573889267.005,11.230,21.484,194.824,25.391,140.137
1573889267.008,-6.836,18.066,-236.328,-0.488,-52.734
1573889267.012,-4.883,20.020,-50.293,13.184,-95.703
1573889267.016,16.113,14.648,477.051,43.945,80.566
1573889267.020,20.020,3.906,333.984,32.227,162.109
1573889267.024,9.277,2.930,-221.680,7.812,5.371
1573889267.028,5.371,1.953,-336.914,9.766,-121.582
1573889267.032,14.160,3.418,169.434,34.668,24.414
1573889267.036,26.367,2.441,358.398,40.527,182.129
1573889267.040,18.066,-2.441,-401.367,15.137,48.340
1573889267.044,5.371,2.930,-698.242,-1.465,-109.863
1573889267.048,16.602,14.648,72.266,19.531,-9.277
1573889267.051,30.273,13.672,331.543,38.574,135.742
1573889267.055,28.320,9.277,-225.586,24.414,91.797
1573889267.059,16.602,6.348,-618.652,5.859,-97.656
1573889267.063,13.184,8.789,-104.492,16.602,-66.406
1573889267.067,27.344,19.043,313.477,35.156,120.117
1573889267.071,38.086,22.949,-56.152,34.180,146.484
1573889267.075,19.531,24.902,-422.363,12.207,-19.043
1573889267.079,1.465,17.578,-150.879,9.277,-87.891
1573889267.083,16.602,9.766,99.609,39.062,35.645
1573889267.087,30.273,4.883,-276.855,47.363,113.281
1573889267.090,15.137,3.906,-778.320,13.184,-12.207
1573889267.094,-4.395,8.789,-725.098,0.000,-141.602
1573889267.098,-4.883,6.348,-190.918,22.949,-8.301
1573889267.102,6.348,6.836,-314.453,30.762,136.230
1573889267.106,-3.906,6.836,-716.309,9.277,32.227
1573889267.110,-19.043,9.277,-460.938,-2.930,-84.473
1573889267.114,-8.301,13.184,-85.449,17.578,-35.645
1573889267.118,12.695,11.719,41.016,40.039,121.094
1573889267.122,8.789,11.230,-213.379,24.414,105.469
1573889267.126,-3.906,13.184,-456.543,2.930,-75.195
1573889267.130,3.418,20.508,-194.336,13.184,-92.285
1573889267.133,19.531,21.973,15.625,37.109,77.148
1573889267.137,20.020,13.672,-148.926,32.227,171.387
1573889267.141,6.348,13.184,-501.953,6.836,-2.441
1573889267.145,5.371,22.461,-595.703,5.859,-136.230
1573889267.149,10.254,29.297,-231.445,25.879,20.020
1573889267.153,8.789,24.902,104.492,30.762,172.363
1573889267.157,2.930,18.555,-190.918,10.742,43.945
1573889267.161,-5.859,13.184,-297.363,-2.441,-97.168
1573889267.165,5.371,16.602,145.020,20.020,-7.324
1573889267.169,25.391,26.855,341.309,42.969,150.879
1573889267.173,17.578,20.020,-112.793,24.902,76.172
1573889267.176,5.859,19.043,-325.195,9.277,-82.031
1573889267.180,19.531,26.367,20.508,35.156,-47.363
1573889267.184,33.203,24.902,125.977,60.059,89.355
1573889267.188,28.320,28.320,-151.855,41.016,105.469
1573889267.192,17.578,31.738,-611.816,15.625,-61.523
1573889267.196,18.066,33.691,-356.445,25.879,-109.375
1573889267.200,21.484,32.715,228.027,44.922,59.082
1573889267.204,19.531,27.344,26.855,36.133,124.023
1573889267.208,9.277,20.996,-364.258,10.742,-16.113
1573889267.212,1.953,20.020,-110.840,13.184,-105.469
1573889267.215,15.137,22.461,389.160,46.875,40.039
1573889267.219,24.902,22.461,237.305,51.270,147.461
1573889267.223,11.719,20.020,-311.523,19.531,4.395
1573889267.227,-1.465,21.484,-462.402,6.348,-141.113
1573889267.231,9.277,26.367,28.809,25.879,-20.996
1573889267.235,29.297,25.879,45.898,41.016,123.535
1573889267.239,20.020,20.020,-625.000,22.461,35.156
1573889267.243,-6.348,13.184,-536.621,-2.441,-118.652
1573889267.247,-2.441,16.113,57.129,14.160,-71.777
1573889267.251,15.625,22.461,261.230,43.457,103.027
1573889267.255,17.090,20.020,-205.078,28.809,98.145
1573889267.258,-0.488,15.625,-401.855,-8.789,-35.645
1573889267.262,-3.906,26.367,-55.176,0.977,-83.984
1573889267.266,9.277,31.738,189.453,30.273,41.992
1573889267.270,12.695,24.902,13.184,22.461,142.578
1573889267.274,-3.418,20.508,-428.223,-2.930,18.066
1573889267.278,-15.625,18.066,-441.895,-7.324,-99.121
1573889267.282,-2.930,19.043,-10.742,19.531,21.973
1573889267.286,6.348,17.090,163.574,31.738,166.992
1573889267.290,-8.301,9.277,-160.156,6.836,67.871
1573889267.294,-9.277,11.719,-384.277,3.906,-109.375
1573889267.298,10.742,22.949,-306.641,37.598,-59.570
1573889267.301,18.066,24.902,-31.738,48.340,123.047
1573889267.305,2.930,20.996,-145.508,21.973,97.168
1573889267.309,-12.695,21.973,-492.188,4.395,-81.543
1573889267.313,-3.418,20.996,-263.672,26.367,-92.773
1573889267.317,12.695,22.461,187.012,45.898,77.148
1573889267.321,18.555,28.809,-166.016,36.621,113.770
1573889267.325,9.766,21.484,-645.996,18.066,-23.438
1573889267.329,-0.977,14.160,-273.438,19.043,-69.336
1573889267.333,14.160,21.973,277.344,46.875,82.031
1573889267.337,31.250,28.809,224.609,54.199,171.875
1573889267.340,28.320,29.297,-536.133,32.227,-8.789
1573889267.344,19.043,23.926,-787.109,22.461,-145.996
1573889267.348,26.855,23.438,-3.906,44.922,-3.906
1573889267.352,40.039,23.438,220.215,58.105,149.902
1573889267.356,26.855,21.484,-271.973,30.762,76.660
1573889267.360,15.137,33.203,-308.594,19.531,-62.012
1573889267.364,27.832,38.574,208.984,43.457,-13.672
1573889267.368,43.457,33.203,199.219,59.570,110.352
1573889267.372,39.062,38.574,-558.594,38.574,81.543
1573889267.376,15.137,43.457,-734.863,7.324,-69.824
1573889267.380,9.277,36.133,-29.297,14.160,-67.383
1573889267.383,19.043,29.785,229.004,35.645,89.355
1573889267.387,24.902,27.832,-82.520,33.203,156.738
1573889267.391,14.648,28.809,-312.012,11.230,13.672
1573889267.395,0.488,31.250,-93.750,3.906,-73.242
1573889267.399,15.625,32.227,198.730,33.203,57.617
1573889267.403,27.344,28.320,-94.238,46.875,106.934
1573889267.407,7.324,22.461,-492.188,20.508,-17.090
1573889267.411,-7.812,22.461,-309.082,12.207,-98.633
1573889267.415,3.906,20.996,-153.320,40.527,-26.367
1573889267.419,14.160,17.090,-281.738,53.223,106.934
1573889267.423,-0.977,20.020,-435.547,25.879,67.871
1573889267.426,-17.090,25.879,-526.367,2.930,-94.238
1573889267.430,-11.719,30.762,-227.539,18.555,-71.289
1573889267.434,4.883,24.414,-0.488,37.109,96.680
1573889267.438,0.977,19.043,-110.840,17.578,120.605
1573889267.442,-11.230,18.555,-400.879,-5.371,-60.059
1573889267.446,-6.836,20.996,-288.086,6.836,-125.488
1573889267.450,10.742,26.855,150.879,37.109,77.148
1573889267.454,15.137,27.344,122.559,36.133,181.152
1573889267.458,-0.977,26.367,-431.152,4.883,-33.203
1573889267.462,-9.766,30.273,-513.672,2.441,-136.719
1573889267.465,12.207,35.156,-82.031,37.598,37.109
1573889267.469,28.320,28.809,-20.020,41.992,135.742
1573889267.473,15.625,25.391,-407.715,13.672,23.438
1573889267.477,4.883,32.227,-720.215,-0.488,-119.141
1573889267.481,18.066,39.551,-374.512,20.508,-53.223
1573889267.485,29.785,39.551,67.383,38.086,130.371
1573889267.489,14.648,27.344,-247.070,13.672,96.191
1573889267.493,-5.371,20.020,-473.633,-10.742,-74.707
1573889267.497,6.348,30.762,31.738,12.207,-41.992
1573889267.501,34.180,38.086,357.910,43.945,134.277
1573889267.505,34.668,33.203,-42.969,31.738,139.160
1573889267.508,20.996,33.691,-542.480,9.277,-38.574
1573889267.512,25.391,38.574,-372.070,26.855,-93.262
1573889267.516,46.387,42.480,56.152,57.129,48.340
1573889267.520,48.828,40.527,-214.355,47.363,130.859
1573889267.524,28.809,34.668,-713.867,15.625,12.695
1573889267.528,14.648,35.645,-283.203,13.184,-81.543
1573889267.532,31.738,42.969,291.504,47.852,37.598
1573889267.536,52.734,40.039,178.711,62.012,190.918
1573889267.540,36.133,35.156,-299.805,31.738,75.195
1573889267.544,11.719,35.156,-232.910,15.137,-76.172
1573889267.548,17.578,27.832,209.473,38.574,5.371
1573889267.551,27.832,14.160,271.484,55.664,157.227
1573889267.555,19.531,14.160,-198.242,35.156,119.141
1573889267.559,4.883,21.484,-503.906,13.184,-61.523
1573889267.563,2.930,19.531,-139.160,20.020,-69.824
1573889267.567,18.555,18.555,-120.117,35.156,67.383
1573889267.571,21.973,21.484,-334.961,22.949,107.910
1573889267.575,4.395,27.832,-218.750,-0.488,-36.621
1573889267.579,-2.930,27.832,-54.199,7.324,-133.789
1573889267.583,9.277,26.855,307.129,32.227,27.832
1573889267.587,8.789,32.227,374.023,22.949,150.879
1573889267.590,-4.395,30.273,-16.113,-4.883,5.371
1573889267.594,-0.488,31.250,-109.375,1.465,-125.488
1573889267.598,16.113,27.832,325.684,29.785,-9.277
1573889267.602,25.879,25.391,243.164,37.598,99.121
1573889267.606,10.742,23.926,-161.133,11.719,35.645
1573889267.610,2.930,27.832,-257.812,0.488,-99.121
1573889267.614,17.090,33.691,-44.922,26.855,-71.289
1573889267.618,26.855,28.809,450.195,48.340,119.141
1573889267.622,25.879,20.020,236.328,30.762,91.309
1573889267.626,16.602,18.066,-132.812,8.301,-87.402
1573889267.630,13.672,26.855,216.797,21.484,-89.355
1573889267.633,27.832,32.227,698.730,42.480,98.633
1573889267.637,25.879,29.297,468.262,33.203,158.203
1573889267.641,2.441,22.461,-11.719,1.953,-9.766
1573889267.645,0.977,22.949,230.957,5.859,-72.266
1573889267.649,15.625,29.297,509.766,37.109,39.062
1573889267.653,22.461,23.926,242.188,38.574,141.113
1573889267.657,12.695,17.090,-425.293,9.277,3.906
1573889267.661,-7.324,17.090,-350.586,-2.441,-134.766
1573889267.665,1.465,22.949,497.070,26.367,9.277
1573889267.669,22.949,27.832,453.613,46.875,131.836
1573889267.673,14.160,18.555,-100.098,22.949,51.270
1573889267.676,-3.418,17.578,-62.012,1.465,-75.195
1573889267.680,12.207,22.949,341.309,27.344,-54.199
1573889267.684,36.621,28.809,439.453,53.711,118.164
1573889267.688,31.250,26.367,43.945,31.738,117.188
1573889267.692,10.742,17.578,-296.387,6.348,-72.266
1573889267.696,13.672,22.461,-131.348,16.113,-97.168
1573889267.700,38.086,27.344,4.395,45.898,70.312
1573889267.704,36.621,21.484,-333.008,42.969,126.953
1573889267.708,5.371,17.090,-534.668,0.977,-20.020
1573889267.712,0.488,21.484,-202.148,-0.488,-102.051
1573889267.715,25.391,23.438,162.109,38.086,10.254
1573889267.719,40.527,20.996,153.320,49.316,155.762
1573889267.723,26.855,23.438,-104.980,20.996,68.848
1573889267.727,8.301,22.461,-191.895,6.836,-98.633
1573889267.731,12.207,20.020,133.301,33.691,-13.184
1573889267.735,33.203,29.785,262.695,55.664,148.438
1573889267.739,25.391,32.227,-113.281,33.691,86.426
1573889267.743,-9.277,22.949,-441.406,1.465,-79.102
1573889267.747,-4.883,19.531,-500.488,12.207,-85.449
1573889267.751,9.766,18.066,-215.332,35.645,96.191
1573889267.755,6.348,24.902,-117.188,22.461,149.902
1573889267.758,-4.883,33.691,-480.469,2.441,-32.715
1573889267.762,-4.883,22.949,-402.832,14.648,-89.355
1573889267.766,9.766,24.414,33.203,40.527,74.219
1573889267.770,15.137,33.691,-9.277,40.039,160.156
1573889267.774,3.418,28.809,-479.980,17.578,16.113
1573889267.778,-8.789,29.297,-456.543,14.648,-105.957
1573889267.782,-1.953,28.320,66.406,34.180,29.785
1573889267.786,12.695,21.973,108.887,41.504,164.551
1573889267.790,10.742,21.484,-585.449,24.902,46.875
1573889267.794,-0.488,22.949,-825.684,7.812,-104.492
1573889267.798,5.859,21.484,-149.902,25.879,-24.902
1573889267.801,27.832,23.926,147.949,51.758,140.137
1573889267.805,24.902,17.578,-420.898,34.668,80.078
1573889267.809,13.184,9.277,-715.332,12.695,-101.074
1573889267.813,21.484,13.672,-122.070,30.762,-69.824
1573889267.817,32.715,14.648,178.711,49.805,91.797
1573889267.821,41.504,8.789,-265.625,44.434,114.746
1573889267.825,31.250,8.789,-553.223,28.809,-30.762
1573889267.829,29.297,14.648,-186.035,40.039,-98.145
1573889267.833,51.758,18.555,197.266,74.219,53.711
1573889267.837,56.641,26.367,-76.660,70.312,136.719
1573889267.840,29.297,29.297,-574.707,30.762,-0.977
1573889267.844,12.207,28.320,-360.352,19.043,-93.750
1573889267.848,30.762,31.250,132.324,48.828,0.000
1573889267.852,43.945,30.762,-146.484,60.547,121.094
1573889267.856,15.625,27.832,-405.273,22.949,88.867
1573889267.860,-7.812,31.738,-166.016,7.324,-67.383
1573889267.864,-1.465,30.762,75.195,29.785,-58.594
1573889267.868,8.301,22.949,161.133,42.480,104.492
1573889267.872,4.395,23.438,-5.859,21.484,112.305
1573889267.876,-11.719,29.297,-271.973,-5.371,-60.059
1573889267.880,-13.184,28.320,-122.070,6.836,-86.426
1573889267.883,12.695,25.879,140.137,38.086,78.613
1573889267.887,17.090,21.973,-161.621,31.250,120.117
1573889267.891,-1.953,23.926,-363.281,7.324,-10.254
1573889267.895,-3.906,20.996,-312.500,12.207,-110.840
1573889267.899,9.277,12.207,-164.551,33.203,3.418
1573889267.903,22.461,21.484,-3.418,43.945,138.184
1573889267.907,12.695,30.273,-222.168,22.949,43.457
1573889267.911,3.418,34.668,-223.633,4.883,-93.750
1573889267.915,12.695,35.645,221.680,27.344,5.859
1573889267.919,21.484,33.203,408.691,43.457,170.898
1573889267.923,15.625,29.297,-81.543,29.297,78.125
1573889267.926,0.488,22.461,-366.699,13.184,-102.051
1573889267.930,3.418,21.973,-138.672,29.297,-75.195
1573889267.934,19.531,21.973,41.504,52.246,117.188
1573889267.938,17.090,15.625,-275.879,35.156,117.188
1573889267.942,-1.953,12.695,-814.453,7.324,-87.402
1573889267.946,0.000,25.391,-416.504,17.578,-104.980
1573889267.950,17.578,24.902,262.207,49.805,70.801
1573889267.954,24.902,11.230,38.086,51.270,152.344
1573889267.958,13.672,12.695,-350.098,25.879,22.949
1573889267.962,6.348,25.391,-120.605,24.414,-88.867
1573889267.965,22.949,31.250,306.152,51.758,33.203
1573889267.969,26.855,25.391,84.473,47.363,129.395
1573889267.973,0.977,23.438,-386.230,9.277,18.555
1573889267.977,-10.742,27.832,-407.227,3.418,-96.191
1573889267.981,-0.488,26.367,-25.391,25.879,-23.926
1573889267.985,10.742,24.414,-21.484,33.691,129.883
1573889267.989,11.719,28.320,-660.645,14.160,77.148
1573889267.993,2.441,32.227,-683.105,-1.953,-103.027
1573889267.997,6.348,33.691,-104.004,16.113,-90.332
1573889268.001,19.531,25.879,130.371,37.598,92.285
1573889268.005,17.578,22.949,-159.180,23.926,119.629
1573889268.008,8.301,26.367,-357.422,7.812,-45.898
1573889268.012,11.719,22.461,-114.746,21.973,-96.680
1573889268.016,26.367,19.531,174.316,43.945,69.824
1573889268.020,33.691,23.438,-31.250,44.434,121.094
1573889268.024,15.625,28.320,-526.855,14.648,-34.668
1573889268.028,0.000,26.855,-437.012,6.836,-104.492
1573889268.032,9.766,17.090,-253.418,25.879,-8.789
1573889268.036,17.090,16.602,-199.219,31.250,140.137
1573889268.040,2.930,24.902,-236.328,7.812,64.453
1573889268.044,-9.277,27.832,-328.613,-7.812,-90.820
1573889268.048,-0.977,22.461,-49.805,14.160,-25.879
1573889268.051,10.742,24.414,212.891,29.785,142.090
1573889268.055,8.301,25.391,-73.242,12.695,98.633
1573889268.059,-4.395,18.555,-379.395,-6.836,-70.312
1573889268.063,3.906,20.020,-106.934,9.277,-74.707
1573889268.067,20.996,20.020,166.504,30.762,58.594
1573889268.071,16.113,17.090,-169.922,21.973,103.516
1573889268.075,-3.418,17.578,-746.582,-5.371,-58.594
1573889268.079,-7.812,20.996,-661.621,-3.906,-135.742
1573889268.083,5.371,23.438,26.367,26.367,35.645
1573889268.087,16.602,20.508,109.863,35.156,144.531
1573889268.090,7.812,18.555,-331.543,15.625,21.484
1573889268.094,8.789,23.438,-314.453,17.578,-113.281
1573889268.098,30.762,31.250,182.129,51.270,-10.742
1573889268.102,40.527,28.809,156.250,62.500,142.578
1573889268.106,25.879,26.855,-363.770,36.133,64.453
1573889268.110,16.113,27.344,-400.391,21.973,-109.375
1573889268.114,29.785,25.391,29.297,41.992,-51.270
1573889268.118,37.109,20.020,25.879,58.594,102.051
1573889268.122,29.785,14.648,-699.707,36.621,37.598
1573889268.126,15.625,24.414,-810.547,10.742,-96.191
1573889268.130,9.766,37.109,-27.344,20.996,-56.152
1573889268.133,31.250,38.574,282.715,45.410,103.027
1573889268.137,36.133,31.738,-86.914,36.621,133.789
1573889268.141,10.742,27.344,-327.148,8.301,-15.625
1573889268.145,5.371,26.855,-61.035,12.207,-92.773
1573889268.149,25.879,28.320,244.629,40.527,53.223
1573889268.153,26.367,31.738,122.070,34.180,166.016
1573889268.157,3.906,26.855,-246.094,-2.441,42.480
1573889268.161,-6.348,25.879,-223.633,-3.906,-80.566
1573889268.165,8.789,25.879,-81.055,24.414,-20.996
1573889268.169,18.555,22.949,-252.930,30.273,97.168
1573889268.173,0.977,20.508,-328.125,-0.488,68.848
1573889268.176,-12.695,19.531,-289.062,-16.602,-82.520
1573889268.180,-1.465,21.973,-43.945,8.301,-42.969
1573889268.184,9.277,20.508,188.965,26.367,157.715
1573889268.188,5.859,17.090,15.137,7.324,149.902
1573889268.192,-5.371,11.719,-311.523,-13.672,-48.828
1573889268.196,-6.836,13.184,-91.309,0.000,-66.406
1573889268.200,6.836,14.648,190.430,23.926,73.730
1573889268.204,15.137,14.160,-41.016,21.484,103.516
1573889268.208,12.207,20.996,-444.336,8.789,-45.410
1573889268.212,15.137,27.344,-442.383,18.066,-141.113
1573889268.215,23.438,22.461,-141.113,42.969,-16.113
1573889268.219,27.832,13.184,-154.297,46.387,116.211
1573889268.223,13.672,9.277,-479.980,19.531,30.273
1573889268.227,-3.906,13.184,-632.812,0.977,-100.586
1573889268.231,-0.488,20.020,-9.766,17.090,20.508
1573889268.235,11.719,15.137,416.504,32.715,160.645
1573889268.239,3.418,14.648,-54.199,13.672,83.984
1573889268.243,-10.254,25.391,-250.000,-6.348,-77.148
1573889268.247,-2.930,19.043,242.188,11.719,-57.617
1573889268.251,16.602,11.719,544.434,36.621,121.582
1573889268.255,20.020,18.066,169.434,24.902,137.207
1573889268.258,0.977,16.602,-260.254,2.441,-36.133
1573889268.262,0.000,19.531,-102.539,15.625,-98.145
1573889268.266,21.484,31.738,326.172,45.898,47.363
1573889268.270,28.320,24.902,66.406,43.945,125.488
1573889268.274,7.324,10.742,-497.070,14.648,-22.949
1573889268.278,-1.465,14.648,-88.379,9.277,-123.535
1573889268.282,20.508,27.344,593.262,36.621,34.668
1573889268.286,40.039,27.344,474.609,48.828,151.367
1573889268.290,22.949,22.461,-9.277,23.926,20.996
1573889268.294,4.883,30.273,84.961,4.883,-106.934
1573889268.298,20.996,35.156,512.695,31.738,-21.484
1573889268.301,45.410,23.438,449.219,61.035,102.051
1573889268.305,41.992,19.043,-69.824,46.387,49.316
1573889268.309,28.809,24.414,-294.434,28.809,-106.934
1573889268.313,30.273,25.879,98.633,41.016,-87.402
1573889268.317,43.945,23.926,168.457,52.734,70.801
1573889268.321,36.133,25.879,-51.758,36.133,94.727
1573889268.325,16.113,24.902,-55.664,9.277,-41.504
1573889268.329,12.207,23.926,168.457,6.836,-67.871
1573889268.333,21.973,28.809,552.734,28.320,87.891
1573889268.337,23.926,26.367,477.051,32.227,151.855
1573889268.340,4.395,24.414,137.695,3.418,26.855
1573889268.344,-3.418,21.484,60.547,0.488,-108.887
1573889268.348,15.137,26.855,369.141,31.250,-7.812
1573889268.352,26.367,28.320,337.402,39.062,150.879
1573889268.356,8.301,23.926,-160.645,11.230,44.922
1573889268.360,-8.301,20.996,-409.668,-6.348,-134.277
1573889268.364,-3.418,21.973,-101.074,11.719,-56.641
1573889268.368,8.301,24.902,310.059,31.250,127.930
1573889268.372,9.277,26.367,54.688,20.996,98.633
1573889268.376,-7.324,21.973,-447.266,-1.465,-71.777
1573889268.380,-0.977,17.578,-213.867,18.555,-62.500
1573889268.383,19.531,16.602,285.156,51.270,99.609
1573889268.387,17.578,21.484,-74.707,36.621,117.188
1573889268.391,5.859,23.438,-446.289,7.324,-48.340
1573889268.395,-1.953,22.949,-163.086,12.207,-118.164
1573889268.399,24.414,28.320,255.859,45.898,65.430
1573889268.403,42.969,33.691,18.066,54.688,152.832
1573889268.407,24.414,24.414,-697.754,27.832,-10.254
1573889268.411,20.508,20.996,-614.258,26.367,-119.629
1573889268.415,30.273,37.109,179.199,47.363,13.184
1573889268.419,31.738,37.598,226.074,45.410,177.734
1573889268.423,13.672,27.832,-301.758,16.113,87.891
1573889268.426,-3.906,30.762,-411.133,-2.441,-106.934
1573889268.430,12.207,41.504,56.152,24.902,-44.434
1573889268.434,36.133,39.062,150.879,52.734,125.000
1573889268.438,30.273,20.020,-308.594,37.598,95.703
1573889268.442,13.184,18.555,-587.891,17.090,-64.941
1573889268.446,4.883,34.668,-357.910,13.184,-74.707
1573889268.450,13.672,31.250,-248.047,24.902,70.312
1573889268.454,18.066,20.508,-635.254,21.973,102.539
1573889268.458,-1.465,19.531,-683.105,-7.324,-29.785
1573889268.462,-8.789,28.320,-292.969,-12.695,-104.980
1573889268.465,21.484,38.574,24.414,23.926,14.160
1573889268.469,32.227,31.250,-30.273,34.180,140.625
1573889268.473,6.836,20.996,-275.391,6.348,56.641
1573889268.477,0.000,17.090,-276.367,-3.418,-82.520
1573889268.481,10.742,18.555,31.738,16.113,-6.836
1573889268.485,30.273,27.344,106.445,40.039,138.672
1573889268.489,33.691,31.738,-194.336,39.551,86.914
1573889268.493,12.207,23.926,-448.730,21.484,-81.055
1573889268.497,4.883,14.160,-475.098,24.414,-78.613
1573889268.501,25.391,20.996,-279.785,49.316,76.660
1573889268.505,28.320,26.367,-179.199,44.434,109.863
1573889268.508,6.348,11.230,-498.535,14.648,-84.961
1573889268.512,11.719,4.883,-322.266,26.855,-126.953
1573889268.516,31.738,16.602,285.156,55.176,91.797
1573889268.520,22.461,21.484,198.242,38.574,159.180
1573889268.524,10.254,19.043,-297.363,12.207,-2.930
1573889268.528,7.324,20.996,-205.078,13.672,-88.867
1573889268.532,18.066,23.438,399.902,37.598,78.613
1573889268.536,37.598,20.020,330.078,52.734,177.734
1573889268.540,30.762,20.020,-515.625,24.902,11.719
1573889268.544,8.789,20.996,-792.480,3.418,-144.531
1573889268.548,7.324,24.902,-68.848,25.879,-49.316
1573889268.551,25.391,27.344,328.125,43.457,132.812
1573889268.555,21.484,25.391,-133.789,23.438,86.426
1573889268.559,-0.977,22.461,-383.789,-2.441,-93.262
1573889268.563,3.418,25.391,114.746,7.812,-66.895
1573889268.567,21.484,26.855,381.836,31.250,96.191
1573889268.571,26.367,24.414,-33.691,32.715,108.887
1573889268.575,10.254,23.438,-331.543,15.137,-40.039
1573889268.579,7.324,17.578,30.273,17.578,-77.637
1573889268.583,32.227,16.602,421.875,47.363,88.867
1573889268.587,42.969,16.602,99.121,53.711,156.738
1573889268.590,35.156,22.949,-495.605,21.973,-5.371
1573889268.594,31.250,28.320,-297.363,13.184,-102.051
1573889268.598,46.387,30.273,220.703,45.898,10.742
1573889268.602,59.570,31.738,-106.934,55.176,134.766
1573889268.606,39.062,24.902,-441.895,23.438,69.336
1573889268.610,22.949,20.508,-351.074,12.695,-107.910
1573889268.614,33.691,19.043,-131.348,34.668,-53.223
1573889268.618,42.480,24.902,115.723,45.898,136.719
1573889268.622,27.832,25.879,-112.305,21.484,89.844
1573889268.626,8.301,25.879,-290.527,0.977,-75.195
1573889268.630,14.160,32.715,-18.066,16.602,-72.754
1573889268.633,29.297,30.273,126.953,41.016,89.844
1573889268.637,18.066,21.973,-216.797,25.879,123.535
1573889268.641,-5.371,20.508,-491.699,-5.859,-40.527
1573889268.645,-3.906,25.391,-399.902,-1.953,-116.699
1573889268.649,11.230,26.367,-214.355,19.531,18.066
1573889268.653,12.695,27.832,-51.758,22.949,127.930
1573889268.657,1.953,30.762,-266.602,-4.883,18.555
1573889268.661,-12.207,27.832,-311.035,-19.043,-104.980
1573889268.665,0.488,21.973,91.309,5.859,-2.441
1573889268.669,28.809,26.367,231.445,31.250,179.199
1573889268.673,26.367,28.809,-203.613,15.137,88.379
1573889268.676,4.395,29.297,-400.879,-8.789,-101.074
1573889268.680,8.301,24.902,-54.199,7.812,-31.738
1573889268.684,29.297,20.508,96.680,32.227,138.672
1573889268.688,24.414,23.926,-346.680,14.160,97.656
1573889268.692,8.301,19.531,-644.043,-12.695,-86.426
1573889268.696,12.207,20.020,-193.848,6.836,-104.492
1573889268.700,28.809,20.996,305.664,39.062,84.961
1573889268.704,29.785,14.648,-13.672,29.785,127.930
1573889268.708,18.555,15.625,-832.031,5.371,-96.680
1573889268.712,8.789,20.996,-552.734,11.230,-154.785
1573889268.715,20.508,22.461,174.316,42.969,17.578
1573889268.719,30.273,20.996,22.949,51.758,119.141
1573889268.723,4.395,17.578,-495.117,20.996,0.000
1573889268.727,-10.742,17.578,-556.152,13.672,-143.066
1573889268.731,2.930,28.320,-97.168,44.434,-38.086
1573889268.735,18.066,33.691,-95.215,57.617,132.324
1573889268.739,6.348,22.949,-630.859,28.320,61.523
1573889268.743,-21.484,19.043,-477.539,-0.488,-91.797
1573889268.747,-15.625,19.531,7.812,20.020,-61.035
1573889268.751,4.883,22.461,145.996,44.434,113.770
1573889268.755,5.371,29.297,-60.059,31.738,131.836
1573889268.758,-14.160,29.297,-291.504,3.418,-58.105
1573889268.762,-22.949,29.785,-67.871,3.418,-102.051
1573889268.766,-0.488,31.738,218.262,32.715,67.383
1573889268.770,15.137,26.855,-11.719,32.227,112.793
1573889268.774,7.324,24.902,-465.820,7.812,-26.367
1573889268.778,4.395,26.367,-391.113,2.441,-103.516
1573889268.782,18.066,25.391,-237.793,18.555,-6.836
1573889268.786,38.574,31.738,-229.980,30.273,115.234
1573889268.790,42.480,36.133,-236.816,17.090,32.715
1573889268.794,23.438,34.180,-307.617,-1.465,-118.164
1573889268.798,28.809,38.574,62.988,20.020,-13.184
1573889268.801,45.898,37.598,319.336,43.945,155.762
1573889268.805,38.574,31.250,-4.395,22.461,99.121
1573889268.809,26.855,36.621,-283.691,3.906,-73.242
1573889268.813,26.855,47.363,20.508,27.344,-58.594
1573889268.817,46.387,43.945,384.277,54.688,125.977
1573889268.821,52.734,36.133,-78.613,51.270,114.746
1573889268.825,31.250,34.180,-767.578,23.926,-86.426
1573889268.829,22.461,31.738,-696.777,20.508,-145.508
1573889268.833,37.598,37.109,10.254,43.457,39.062
1573889268.837,50.293,40.527,65.918,50.781,146.484
1573889268.840,29.297,32.227,-445.801,22.461,3.418
1573889268.844,9.277,30.273,-362.305,8.789,-133.789
1573889268.848,24.414,34.180,198.730,35.645,-2.930
1573889268.852,42.969,27.344,263.184,47.852,159.668
1573889268.856,30.762,17.090,-255.859,26.855,54.688
1573889268.860,12.695,21.484,-343.262,10.742,-105.469
1573889268.864,25.391,32.715,177.734,36.133,-25.879
1573889268.868,44.922,32.227,261.230,57.617,147.461
1573889268.872,34.180,31.250,-464.844,32.227,101.074
1573889268.876,4.883,32.227,-683.105,1.465,-81.543
1573889268.880,6.348,32.715,107.910,18.555,-41.504
1573889268.883,23.926,34.668,406.250,44.434,110.840
1573889268.887,12.695,24.902,0.000,26.367,116.211
1573889268.891,-6.836,18.066,-185.059,-0.977,-17.578
1573889268.895,-10.254,24.414,82.031,4.883,-62.012
1573889268.899,5.371,29.297,312.012,31.250,44.434
1573889268.903,16.602,34.180,144.531,35.645,112.793
1573889268.907,-6.836,36.133,-115.723,4.395,14.648
1573889268.911,-22.461,33.203,45.410,-14.160,-98.145
1573889268.915,1.953,22.461,267.578,13.184,2.441
1573889268.919,18.555,14.160,-93.750,24.414,117.676
1573889268.923,-1.465,17.090,-362.793,-3.418,11.230
1573889268.926,-13.184,25.391,-125.000,-10.254,-129.395
1573889268.930,8.301,24.414,181.641,20.020,-77.637
1573889268.934,27.832,22.949,375.000,41.992,104.492
1573889268.938,22.461,28.809,224.609,25.879,94.238
1573889268.942,2.441,26.855,-66.895,2.930,-95.215
1573889268.946,-0.977,27.344,189.941,17.090,-103.516
1573889268.950,23.926,33.691,484.375,51.758,78.613
1573889268.954,32.227,27.832,289.551,53.223,144.043
1573889268.958,6.836,21.484,-83.496,19.531,-26.367
1573889268.962,-2.441,21.484,-121.094,13.184,-128.906
1573889268.965,26.367,26.855,275.391,48.340,35.645
1573889268.969,43.457,34.668,358.398,55.664,141.113
1573889268.973,27.344,31.250,-18.555,22.461,4.883
1573889268.977,14.160,21.973,-289.551,8.301,-143.066
1573889268.981,16.602,25.879,219.238,25.391,-24.414
1573889268.985,33.691,39.062,590.332,44.922,157.227
1573889268.989,32.227,42.480,126.465,31.250,84.473
1573889268.993,3.906,35.156,-116.699,5.859,-88.867
1573889268.997,2.930,25.879,307.129,16.602,-52.734
1573889269.001,25.391,21.484,519.531,42.480,110.840
1573889269.005,21.973,23.438,136.719,26.855,136.719
1573889269.008,3.418,26.367,-264.648,2.441,-20.020
1573889269.012,7.812,30.762,-149.414,17.578,-99.609
1573889269.016,19.531,32.227,240.234,36.133,71.289
1573889269.020,18.555,30.762,-81.055,24.414,133.301
1573889269.024,5.371,31.738,-663.574,-2.441,-34.668
1573889269.028,-3.418,36.133,-217.773,-1.465,-93.262
1573889269.032,10.254,36.133,363.770,28.320,44.434
1573889269.036,24.414,31.738,217.773,41.016,162.598
1573889269.040,12.695,27.832,-174.316,12.695,65.918
1573889269.044,-5.371,28.809,-165.527,-3.906,-100.586
1573889269.048,6.348,32.715,200.684,24.902,-24.902
1573889269.051,28.320,34.180,239.746,49.805,139.648
1573889269.055,21.484,30.762,-288.086,32.715,72.754
1573889269.059,9.277,28.809,-564.941,10.254,-95.215
1573889269.063,20.508,30.273,-213.379,29.297,-62.012
1573889269.067,41.504,24.902,-235.840,57.129,79.102
1573889269.071,42.480,30.273,-408.203,46.387,127.441
1573889269.075,22.461,36.621,-296.875,23.926,-8.301
1573889269.079,15.625,24.902,-160.645,26.855,-87.891
1573889269.083,31.250,27.832,172.363,48.828,100.098
1573889269.087,37.598,33.203,77.148,48.340,162.109
1573889269.090,14.160,21.973,-328.613,13.184,13.184
1573889269.094,4.883,16.602,-291.504,8.301,-71.289
1573889269.098,26.367,19.531,30.762,37.109,23.438
1573889269.102,35.645,20.020,-54.688,43.945,145.996
1573889269.106,25.391,23.438,-572.266,19.043,45.410
1573889269.110,13.184,30.273,-679.199,2.930,-108.398
1573889269.114,18.066,41.016,-119.141,21.484,-6.836
1573889269.118,34.180,49.805,237.793,41.504,171.387
1573889269.122,30.273,36.133,-151.855,26.367,121.582
1573889269.126,16.113,22.461,-664.062,3.906,-68.848
1573889269.130,20.020,29.297,-486.816,18.066,-79.590
1573889269.133,31.738,38.086,102.539,45.410,94.727
1573889269.137,26.855,40.527,-13.672,35.156,144.531
1573889269.141,4.883,40.039,-372.070,2.441,5.371
1573889269.145,0.488,40.039,-93.262,5.859,-52.246
1573889269.149,16.602,39.062,248.047,36.621,79.102
1573889269.153,23.926,32.227,-70.312,40.527,136.719
1573889269.157,12.207,25.391,-751.465,12.695,-17.090
1573889269.161,-1.465,26.367,-597.168,4.395,-114.258
1573889269.165,13.672,27.832,222.168,39.062,9.766
1573889269.169,39.551,29.297,121.582,61.035,110.840
1573889269.173,25.391,31.738,-351.562,30.762,37.598
1573889269.176,6.348,29.785,-330.078,7.812,-98.145
1573889269.180,15.137,26.367,31.250,24.414,-57.129
1573889269.184,30.762,25.391,232.910,44.434,117.188
1573889269.188,23.438,19.531,-152.832,27.344,78.613
1573889269.192,0.977,15.625,-351.562,-1.953,-94.727
1573889269.196,-0.977,22.461,-13.184,8.301,-80.078
1573889269.200,11.230,26.367,83.984,31.250,86.426
1573889269.204,11.230,22.949,-305.176,18.555,127.930
1573889269.208,-5.859,20.996,-360.352,-2.930,-15.137
1573889269.212,-7.812,20.020,-19.043,5.371,-104.004
1573889269.215,2.930,21.484,256.348,24.902,28.809
1573889269.219,10.742,24.414,131.836,26.855,133.301
1573889269.223,-0.977,24.414,-146.484,1.465,28.809
1573889269.227,-12.207,30.273,-107.910,-8.301,-93.262
1573889269.231,1.465,38.086,182.129,17.090,-12.695
1573889269.235,16.113,36.621,168.945,33.691,141.602
1573889269.239,2.930,32.227,-173.828,11.719,74.219
1573889269.243,-11.230,28.320,-375.977,-0.977,-104.004
1573889269.247,-4.395,24.414,-396.973,24.902,-83.984
1573889269.251,13.672,26.367,-208.008,44.922,87.891
1573889269.255,16.602,27.344,-73.730,33.691,117.676
1573889269.258,0.488,21.484,-295.898,15.625,-47.363
1573889269.262,4.395,18.066,-153.809,28.320,-98.145
1573889269.266,22.949,16.113,297.363,56.641,83.008
1573889269.270,23.926,17.090,164.551,53.711,151.367
1573889269.274,12.695,20.508,-331.055,28.809,-15.625
1573889269.278,8.789,23.438,-306.152,28.320,-128.418
1573889269.282,24.414,27.832,159.180,53.711,2.930
1573889269.286,27.832,18.066,180.664,52.246,141.602
1573889269.290,13.184,10.742,-446.289,19.531,19.531
1573889269.294,2.441,14.648,-629.883,5.859,-105.957
1573889269.298,0.488,15.137,-71.777,21.973,0.488
1573889269.301,13.184,17.578,211.914,36.621,139.648
1573889269.305,11.719,16.602,-410.645,16.602,57.617
1573889269.309,-4.395,12.207,-851.074,-8.789,-119.629
1573889269.313,-14.648,18.066,-146.973,3.418,-60.547
1573889269.317,-1.953,19.043,229.004,20.508,96.191
1573889269.321,-1.465,8.789,-201.172,4.395,96.680
1573889269.325,-22.949,8.789,-472.656,-25.879,-48.340
1573889269.329,-21.973,15.625,-125.977,-21.973,-93.262
1573889269.333,-0.488,16.602,239.258,7.812,72.266
1573889269.337,7.324,16.602,-31.250,13.184,169.922
1573889269.340,0.488,23.438,-544.434,-5.371,12.695
1573889269.344,-6.348,27.344,-507.812,-10.742,-133.301
1573889269.348,2.441,23.926,-177.734,17.578,-31.738
1573889269.352,14.648,23.926,-413.086,35.156,97.656
1573889269.356,4.883,28.320,-652.344,12.207,25.879
1573889269.360,-10.254,35.645,-338.379,-1.953,-111.816
1573889269.364,3.906,42.969,0.488,26.855,-53.711
1573889269.368,19.043,32.715,59.570,44.434,110.352
1573889269.372,3.418,22.949,-206.055,16.113,75.195
1573889269.376,-11.719,20.508,-324.707,-1.465,-75.195
1573889269.380,-3.906,20.996,-28.320,18.066,-55.664
1573889269.383,19.043,30.762,109.375,45.898,107.910
1573889269.387,22.949,35.645,-266.113,37.598,118.164
1573889269.391,6.348,34.668,-496.094,14.648,-46.387
1573889269.395,4.883,36.133,-342.773,21.484,-105.469
1573889269.399,24.414,31.250,-149.414,43.945,39.062
1573889269.403,27.344,27.344,-16.113,42.969,164.551
1573889269.407,12.207,27.344,-297.852,19.043,38.086
1573889269.411,10.254,31.250,-251.953,17.578,-87.891
1573889269.415,27.344,26.855,208.984,42.480,21.973
1573889269.419,43.457,20.020,262.207,49.316,139.160
1573889269.423,34.668,19.531,-185.547,26.367,52.246
1573889269.426,20.508,21.484,-360.840,8.301,-104.492
1573889269.430,31.250,22.949,-101.562,26.367,-62.012
1573889269.434,40.039,25.391,43.457,45.410,104.004
1573889269.438,33.691,30.762,-162.598,28.809,100.586
1573889269.442,27.344,31.738,-678.711,11.230,-88.867
1573889269.446,16.602,27.344,-392.090,17.578,-102.051
1573889269.450,25.391,25.391,281.250,43.457,93.750
1573889269.454,30.762,23.438,-13.672,40.039,128.906
1573889269.458,13.184,22.949,-468.750,10.254,-18.066
1573889269.462,8.301,29.785,-217.773,16.113,-82.031
1573889269.465,22.949,34.180,242.188,43.945,35.645
1573889269.469,32.715,31.250,69.336,41.992,125.000
1573889269.473,13.184,18.066,-346.680,11.230,16.602
1573889269.477,-1.465,16.113,-354.004,0.977,-108.398
1573889269.481,6.348,23.926,33.691,22.949,-0.488
1573889269.485,17.578,27.344,13.184,36.133,148.438
1573889269.489,6.836,29.785,-639.160,7.812,29.297
1573889269.493,-18.555,30.762,-540.527,-19.043,-125.977
1573889269.497,-9.766,30.273,135.254,3.418,-46.875
1573889269.501,7.812,23.926,336.426,27.832,125.977
1573889269.505,5.371,23.438,-43.945,9.766,93.750
1573889269.508,-9.277,24.902,-217.773,-15.625,-72.266
1573889269.512,-4.883,30.273,155.273,-3.418,-76.660
1573889269.516,20.996,37.109,316.406,26.367,55.176
1573889269.520,26.367,32.227,-30.273,24.414,81.543
1573889269.524,7.812,22.461,-287.598,-1.465,-25.879
1573889269.528,6.836,21.973,-109.863,2.441,-90.820
1573889269.532,26.367,23.438,80.078,30.762,24.902
1573889269.536,36.133,23.926,54.199,37.598,129.883
1573889269.540,26.855,23.926,70.312,16.113,52.734
1573889269.544,14.160,22.461,32.227,10.254,-99.609
1573889269.548,30.762,19.043,352.051,51.758,-18.555
1573889269.551,49.316,19.531,670.898,72.266,185.547
1573889269.555,36.133,22.461,334.473,45.410,120.605
1573889269.559,15.625,19.043,-4.395,23.438,-81.055
1573889269.563,11.230,23.926,328.125,27.832,-48.340
1573889269.567,31.250,30.273,731.934,55.176,145.996
1573889269.571,36.621,23.926,290.039,54.199,115.723
1573889269.575,10.254,24.902,-369.141,15.137,-90.332
1573889269.579,1.465,28.320,-265.137,10.254,-136.719
1573889269.583,15.137,29.297,437.500,42.969,55.664
1573889269.587,17.578,28.320,499.023,40.039,142.090
1573889269.590,7.324,21.973,12.207,10.742,-8.301
1573889269.594,-3.418,15.137,147.461,8.789,-87.402
1573889269.598,5.371,14.160,637.695,33.203,36.621
1573889269.602,20.996,21.484,571.777,40.527,157.715
1573889269.606,11.719,20.508,34.180,14.160,47.363
1573889269.610,0.977,17.578,-63.965,-0.488,-104.492
1573889269.614,10.742,19.043,434.082,22.949,-12.695
1573889269.618,23.926,17.578,419.922,39.062,132.812
1573889269.622,22.461,14.648,-397.949,20.996,58.105
1573889269.626,5.859,15.137,-578.613,-2.930,-101.074
1573889269.630,5.859,20.996,78.125,12.207,-72.266
1573889269.633,30.273,24.902,271.484,43.457,97.168
1573889269.637,37.598,26.367,-41.504,35.645,115.234
1573889269.641,18.555,25.879,-221.191,10.254,-38.574
1573889269.645,17.578,26.367,143.066,15.137,-64.941
1573889269.649,35.645,31.738,399.902,40.527,67.383
1573889269.653,41.016,32.227,179.688,41.992,158.203
1573889269.657,28.809,26.367,-211.426,15.137,5.371
1573889269.661,15.625,20.020,-183.105,4.883,-139.160
1573889269.665,27.344,20.996,-18.066,29.785,-21.484
1573889269.669,40.527,26.367,-287.598,42.969,93.750
1573889269.673,24.414,32.227,-397.949,17.090,33.691
1573889269.676,9.766,37.109,-185.059,2.441,-83.984
1573889269.680,20.508,32.715,39.551,21.973,-54.688
1573889269.684,32.715,32.715,56.641,36.621,106.445
1573889269.688,25.879,32.715,-272.461,23.926,74.707
1573889269.692,7.324,26.367,-414.551,1.953,-79.102
1573889269.696,2.930,21.484,-52.246,12.695,-54.688
1573889269.700,18.555,24.414,188.965,40.527,92.285
1573889269.704,27.832,24.414,-50.781,33.691,122.070
1573889269.708,20.508,29.785,-416.992,15.137,-33.691
1573889269.712,12.695,38.574,-408.691,24.902,-117.188
1573889269.715,21.484,31.738,-147.461,50.781,31.250
1573889269.719,32.227,26.367,-187.988,56.152,138.672
1573889269.723,20.020,25.391,-469.238,31.738,31.250
1573889269.727,2.441,20.508,-702.637,18.066,-111.328
1573889269.731,12.207,28.809,-233.887,43.457,1.953
1573889269.735,24.902,34.668,186.035,61.035,164.062
1573889269.739,6.348,22.461,-324.707,27.832,58.594
1573889269.743,-5.371,21.484,-625.977,10.742,-105.469
1573889269.747,7.324,26.367,-156.738,38.086,-62.012
1573889269.751,24.902,29.297,251.465,54.199,128.418
1573889269.755,28.320,31.250,-111.816,41.504,126.465
1573889269.758,7.324,27.832,-544.434,13.672,-58.105
1573889269.762,-0.977,27.344,-292.480,10.742,-82.520
1573889269.766,18.066,27.344,188.477,31.738,76.660
1573889269.770,20.508,23.438,-152.832,23.926,110.840
1573889269.774,4.395,23.926,-792.969,-3.906,-57.129
1573889269.778,0.000,27.832,-337.402,-4.395,-117.188
1573889269.782,6.348,31.738,304.199,19.043,36.133
1573889269.786,8.301,34.668,151.367,17.578,137.695
1573889269.790,0.000,34.180,-249.512,-9.277,34.180
1573889269.794,-12.207,31.250,-146.484,-11.719,-102.051
1573889269.798,-1.465,30.273,190.430,19.043,-31.738
1573889269.801,15.625,28.320,109.863,33.203,120.117
1573889269.805,12.207,28.809,-342.285,15.137,63.965
1573889269.809,2.441,35.156,-448.242,-0.488,-85.449
1573889269.813,9.277,40.039,-54.688,22.949,-79.590
1573889269.817,30.273,32.715,-30.273,50.781,79.102
1573889269.821,28.809,29.297,-228.027,34.180,123.047
1573889269.825,17.578,33.691,-190.918,17.578,-47.852
1573889269.829,37.598,40.039,57.617,51.758,-76.172
1573889269.833,44.922,38.086,371.582,70.801,103.027
1573889269.837,33.691,34.668,266.113,50.781,166.992
1573889269.840,26.367,32.227,-113.281,30.273,7.324
1573889269.844,5.859,28.809,-204.590,16.602,-127.930
1573889269.848,5.859,37.109,118.652,36.621,-5.371
1573889269.852,34.668,35.645,77.637,54.199,135.254
1573889269.856,25.879,22.949,-373.535,26.367,45.410
1573889269.860,-1.953,22.461,-585.449,1.953,-112.305
1573889269.864,10.254,31.250,-313.965,22.461,-42.969
1573889269.868,25.391,32.227,197.266,37.598,155.273
1573889269.872,19.043,33.691,2.930,17.090,105.469
1573889269.876,5.859,31.738,-375.488,-4.395,-100.098
1573889269.880,9.277,29.297,-29.297,10.742,-79.590
1573889269.883,31.250,33.203,370.605,34.668,105.957
1573889269.887,29.297,31.738,59.082,20.020,120.605
1573889269.891,9.277,33.203,-384.277,-8.301,-48.340
1573889269.895,8.789,34.668,-173.340,0.488,-107.422
1573889269.899,20.996,26.855,159.180,25.391,63.477
1573889269.903,23.438,20.508,-73.730,22.949,153.809
1573889269.907,15.137,20.508,-739.746,-3.418,-30.762
1573889269.911,0.977,22.461,-702.148,-5.371,-134.766
1573889269.915,16.602,33.691,52.246,29.785,20.020
1573889269.919,34.668,38.086,155.762,43.457,158.203
1573889269.923,14.648,32.227,-286.621,11.230,64.453
1573889269.926,0.000,33.691,-269.531,-5.371,-83.496
1573889269.930,13.184,30.762,148.438,20.996,-39.551
1573889269.934,26.855,24.902,208.984,40.527,126.465
1573889269.938,21.973,24.414,-180.664,20.508,109.375
1573889269.942,8.789,25.391,-371.094,-0.488,-71.777
1573889269.946,16.602,33.691,-211.914,20.996,-108.887
1573889269.950,33.203,39.551,-217.773,43.457,32.715
1573889269.954,34.180,36.133,-652.344,32.715,53.223
1573889269.958,15.137,33.203,-686.035,11.719,-74.219
1573889269.962,7.324,33.203,-207.031,10.254,-112.305
1573889269.965,20.020,29.297,152.832,36.133,50.293
1573889269.969,26.855,31.250,-53.711,41.992,147.949
1573889269.973,17.090,40.039,-328.125,14.160,33.691
1573889269.977,4.883,36.133,-156.738,8.789,-79.102
1573889269.981,15.137,28.809,163.574,34.668,12.695
1573889269.985,33.203,29.785,230.469,45.410,175.293
1573889269.989,18.555,30.273,-110.352,17.090,96.680
1573889269.993,6.348,31.250,-414.062,1.953,-97.168
1573889269.997,14.160,29.785,-488.770,19.043,-98.633
1573889270.001,15.137,28.809,-247.559,31.250,89.844
1573889270.005,12.695,25.391,-138.672,19.531,123.047
1573889270.008,4.883,20.020,-435.547,1.953,-71.777
1573889270.012,4.395,23.438,-325.684,14.648,-108.887
1573889270.016,23.438,31.250,97.168,44.922,67.871
1573889270.020,34.668,33.203,29.297,42.480,126.465
1573889270.024,23.438,34.180,-395.508,16.113,-20.020
1573889270.028,20.508,33.203,-332.031,19.043,-104.492
1573889270.032,34.180,29.297,167.480,41.504,33.691
1573889270.036,37.598,24.902,253.906,40.527,171.387
1573889270.040,22.461,17.578,-433.594,19.531,31.250
1573889270.044,5.859,18.555,-784.180,10.742,-131.348
1573889270.048,15.137,31.250,-52.246,30.273,-11.719
1573889270.051,32.227,29.297,276.855,45.410,135.742
1573889270.055,23.438,20.508,-207.520,24.902,69.824
1573889270.059,9.766,28.320,-392.578,7.324,-81.543
1573889270.063,14.160,33.203,106.934,23.438,-39.551
1573889270.067,34.668,33.203,353.516,44.434,127.441
1573889270.071,28.320,28.320,-62.988,29.297,130.371
1573889270.075,6.348,19.531,-370.117,1.465,-35.156
1573889270.079,4.883,22.461,-67.383,6.836,-82.031
1573889270.083,24.414,27.832,161.621,34.668,70.801
1573889270.087,29.785,22.949,-186.523,36.133,143.066
1573889270.090,11.230,21.973,-608.887,7.324,-11.719
1573889270.094,5.371,28.320,-360.840,1.465,-117.676
1573889270.098,30.273,32.227,149.902,36.133,19.043
1573889270.102,42.969,28.320,-174.805,46.387,122.070
1573889270.106,26.367,25.879,-571.777,18.066,5.859
1573889270.110,19.531,28.809,-328.125,10.254,-126.465
1573889270.114,24.902,28.320,129.883,33.203,-14.648
1573889270.118,38.086,26.855,243.164,50.781,141.113
1573889270.122,29.785,28.320,-99.121,30.762,63.965
1573889270.126,8.301,29.297,-223.145,5.371,-97.168
1573889270.130,15.137,25.391,102.539,23.438,-78.125
1573889270.133,29.785,29.785,280.762,47.852,103.027
1573889270.137,24.902,32.227,-14.160,30.762,127.930
1573889270.141,5.371,24.414,-335.449,3.418,-60.059
1573889270.145,4.395,23.926,-255.371,9.277,-129.883
1573889270.149,25.391,27.832,-3.418,35.645,16.113
1573889270.153,26.855,33.203,196.777,34.668,128.418
1573889270.157,13.672,37.598,72.754,11.230,22.949
1573889270.161,3.906,36.133,99.121,7.812,-93.750
1573889270.165,14.160,28.809,474.609,31.738,1.953
1573889270.169,21.484,23.438,562.500,40.527,137.207
1573889270.173,10.254,26.367,148.438,17.578,48.340
1573889270.176,-2.930,26.855,-12.207,4.395,-108.887
1573889270.180,1.465,26.367,279.297,20.508,-58.105
1573889270.184,20.020,28.809,345.703,40.527,95.215
1573889270.188,20.996,35.156,20.508,29.785,69.824
1573889270.192,11.230,39.551,-389.160,6.348,-102.539
1573889270.196,15.137,37.109,-124.512,22.461,-107.422
1573889270.200,27.344,30.762,583.984,47.363,99.121
1573889270.204,30.273,24.902,410.156,37.109,149.414
1573889270.208,14.648,26.367,-41.016,13.184,-27.344
1573889270.212,7.324,32.227,246.582,11.719,-88.379
1573889270.215,22.949,34.180,677.734,35.156,66.406
1573889270.219,25.879,28.809,465.820,37.598,154.785
1573889270.223,14.160,25.391,-110.840,11.230,-2.441
1573889270.227,9.277,30.273,-189.453,5.859,-125.000
1573889270.231,19.531,32.227,229.492,29.785,-9.766
1573889270.235,39.062,31.250,172.363,47.363,119.141
1573889270.239,24.414,27.832,-439.941,23.438,35.156
1573889270.243,4.395,26.855,-297.363,2.930,-98.633
1573889270.247,18.555,28.320,290.039,22.949,-44.922
1573889270.251,32.227,27.832,399.902,42.969,144.043
1573889270.255,14.160,25.879,23.438,24.414,129.883
1573889270.258,-8.301,22.461,-158.203,-1.465,-57.129
1573889270.262,-6.836,22.461,163.086,19.043,-61.523
1573889270.266,5.371,18.555,360.352,41.992,92.773
1573889270.270,3.906,14.160,48.828,30.762,123.047
1573889270.274,-14.648,9.766,-375.000,3.418,-27.344
1573889270.278,-16.602,6.348,-339.355,2.441,-106.934
1573889270.282,0.488,11.719,-113.281,28.809,14.648
1573889270.286,12.207,16.602,-93.262,34.180,129.395
1573889270.290,2.441,18.066,-160.645,12.207,48.828
1573889270.294,-5.371,24.414,-183.594,8.301,-96.191
1573889270.298,11.230,24.902,-27.832,32.227,-23.926
1573889270.301,28.809,20.508,158.203,42.969,144.043
1573889270.305,21.484,17.578,-63.477,20.020,92.773
1573889270.309,1.953,17.578,-384.766,0.000,-75.684
1573889270.313,10.254,24.902,-47.852,22.461,-34.668
1573889270.317,28.320,19.531,301.758,45.898,133.301
1573889270.321,19.531,13.184,-155.762,29.785,118.652
1573889270.325,3.906,15.137,-736.816,2.930,-65.430
1573889270.329,4.883,15.625,-656.738,9.766,-120.117
1573889270.333,21.484,20.508,-13.672,37.109,72.266
1573889270.337,29.297,25.391,-2.930,36.621,141.113
1573889270.340,17.578,27.832,-485.840,9.766,-11.719
1573889270.344,3.418,24.902,-332.031,3.418,-88.379
1573889270.348,9.277,22.461,208.008,30.273,46.875
1573889270.352,19.531,19.043,164.551,39.062,160.645
1573889270.356,9.277,17.578,-360.840,19.043,37.598
1573889270.360,0.000,19.531,-388.184,10.254,-102.539
1573889270.364,12.695,22.949,8.301,32.715,-29.785
1573889270.368,28.320,26.367,-11.230,50.293,128.906
1573889270.372,21.973,26.367,-569.336,25.879,78.125
1573889270.376,6.348,29.297,-633.789,3.906,-84.473
1573889270.380,12.695,28.320,-11.230,20.996,-68.359
1573889270.383,33.203,22.461,235.840,43.457,100.586
1573889270.387,34.180,20.020,-139.648,33.203,135.254
1573889270.391,16.113,26.855,-362.793,5.371,-32.715
1573889270.395,16.113,33.691,16.113,16.113,-77.637
1573889270.399,34.668,36.133,328.125,42.480,85.449
1573889270.403,32.715,30.762,109.863,37.598,161.621
1573889270.407,12.695,23.438,-273.926,14.648,-10.254
1573889270.411,4.883,22.949,-155.762,11.230,-124.512
1573889270.415,19.043,25.391,27.344,41.504,1.465
1573889270.419,30.762,31.738,-124.512,48.340,165.527
1573889270.423,20.996,36.621,-310.547,17.578,77.148
1573889270.426,0.977,37.598,-328.613,5.371,-128.906
1573889270.430,0.977,38.574,53.711,25.879,-64.941
1573889270.434,16.113,36.621,172.363,44.434,120.605
1573889270.438,12.207,30.762,-82.520,23.926,102.051
1573889270.442,-0.488,29.785,-234.375,2.441,-79.590
1573889270.446,-0.488,36.621,6.348,17.578,-89.844
1573889270.450,15.137,41.016,334.473,41.504,103.516
1573889270.454,14.648,36.133,137.695,31.250,133.301
1573889270.458,-4.395,33.203,-333.496,6.348,-76.660
1573889270.462,-4.883,36.621,-317.383,13.672,-144.043
1573889270.465,11.230,36.133,0.977,41.016,35.156
1573889270.469,14.160,31.250,-81.543,39.551,113.281
1573889270.473,6.836,37.598,-397.949,14.160,-22.461
1573889270.477,0.488,45.410,-583.496,11.230,-124.023
1573889270.481,5.371,41.504,-105.957,28.320,9.766
1573889270.485,17.578,36.133,278.809,35.645,152.344
1573889270.489,10.254,32.227,-254.395,16.602,36.133
1573889270.493,-2.930,29.785,-540.527,0.977,-150.879
1573889270.497,0.488,33.203,39.062,22.461,-53.711
1573889270.501,18.066,41.016,348.633,46.387,129.883
1573889270.505,19.043,39.551,-193.359,30.273,78.125
1573889270.508,1.953,36.621,-656.250,9.277,-95.703
1573889270.512,7.324,41.016,-310.059,24.414,-80.566
1573889270.516,20.020,33.691,167.969,42.480,107.422
1573889270.520,21.484,25.391,-206.055,33.691,127.930
1573889270.524,9.766,26.367,-812.012,8.789,-49.316
1573889270.528,0.000,33.203,-314.941,4.883,-89.844
1573889270.532,19.531,37.109,268.066,34.180,48.828
1573889270.536,31.250,34.180,11.230,41.504,133.789
1573889270.540,10.742,35.156,-408.203,13.184,22.461
1573889270.544,0.488,35.645,-238.770,4.395,-90.332
1573889270.548,16.602,33.691,126.953,29.297,-19.043
1573889270.551,33.203,35.645,74.707,44.434,116.699
1573889270.555,20.508,26.855,-414.551,21.973,57.617
1573889270.559,-1.465,22.461,-642.578,1.465,-111.816
1573889270.563,12.695,37.109,-209.961,26.855,-70.801
1573889270.567,36.133,44.434,-206.543,53.711,79.102
1573889270.571,31.738,37.598,-564.941,36.133,67.383
1573889270.575,15.625,35.156,-433.105,15.625,-62.012
1573889270.579,12.207,42.480,-164.551,32.715,-97.656
1573889270.583,27.832,44.434,33.691,59.082,41.016
1573889270.587,30.762,41.504,18.066,53.711,137.207
1573889270.590,15.625,41.992,-309.570,29.785,5.859
1573889270.594,9.277,39.062,-418.457,25.879,-117.676
1573889270.598,24.902,43.457,26.367,49.316,20.508
1573889270.602,36.621,49.805,19.043,59.570,161.621
1573889270.606,20.996,35.156,-392.578,29.785,52.734
1573889270.610,8.301,22.949,-516.113,12.695,-109.863
1573889270.614,15.625,28.809,-335.449,32.715,-38.574
1573889270.618,26.367,34.668,24.414,44.434,141.113
1573889270.622,14.648,32.227,-114.746,17.578,110.352
1573889270.626,2.930,31.738,-422.363,-1.953,-71.289
1573889270.630,15.625,34.180,-104.004,26.855,-53.711
1573889270.633,25.879,36.621,258.301,45.410,113.770
1573889270.637,20.996,35.645,-82.031,22.461,111.328
1573889270.641,1.465,29.785,-467.773,-5.859,-54.199
1573889270.645,0.488,31.738,-314.453,1.953,-108.398
1573889270.649,20.996,36.133,-44.922,26.855,47.852
1573889270.653,22.461,32.715,-270.508,22.461,117.188
1573889270.657,5.371,26.855,-871.582,-5.859,-56.641
1573889270.661,1.465,29.297,-718.262,-4.883,-154.297
1573889270.665,22.461,34.668,74.707,27.832,6.348
1573889270.669,30.762,37.109,124.023,40.039,150.879
1573889270.673,12.695,37.598,-360.352,14.160,51.270
1573889270.676,-0.488,32.715,-315.430,0.488,-89.355
1573889270.680,11.230,29.785,155.273,23.926,-16.113
1573889270.684,29.297,34.668,207.520,41.016,143.066
1573889270.688,19.531,31.738,-208.984,20.020,106.445
1573889270.692,-0.488,27.832,-353.516,-3.906,-65.918
1573889270.696,15.137,25.879,-120.605,23.438,-73.730
1573889270.700,33.203,28.809,-74.219,44.434,90.332
1573889270.704,31.250,33.691,-603.027,18.066,77.148
1573889270.708,11.719,32.715,-703.125,-9.766,-70.801
1573889270.712,8.301,34.180,-76.660,3.418,-59.570
1573889270.715,34.668,35.156,245.605,36.133,74.707
1573889270.719,41.016,37.598,104.980,30.273,167.969
1573889270.723,18.555,43.945,-179.688,-7.812,36.621
1573889270.727,6.836,43.457,-167.969,-16.113,-113.770
1573889270.731,23.926,41.504,175.293,15.625,-3.906
1573889270.735,41.016,38.574,270.996,34.180,156.250
1573889270.739,22.949,27.832,8.301,5.859,86.426
1573889270.743,-0.488,20.020,-176.758,-13.184,-85.938
1573889270.747,16.602,20.020,-180.176,15.625,-69.336
1573889270.751,33.203,23.438,23.438,33.203,102.539
1573889270.755,23.926,26.367,143.555,18.555,116.699
1573889270.758,13.672,25.391,-102.051,0.977,-77.637
1573889270.762,18.066,24.414,115.723,6.348,-80.078
1573889270.766,39.062,33.691,549.316,35.156,91.309
1573889270.770,41.992,34.668,442.383,36.133,137.695
1573889270.774,22.461,21.484,95.703,8.301,15.137
1573889270.778,13.672,16.602,166.504,4.883,-77.148
1573889270.782,30.762,26.367,607.422,31.738,46.875
1573889270.786,43.457,27.832,528.809,35.156,128.418
1573889270.790,22.461,14.648,-133.301,4.395,-1.465
1573889270.794,3.418,7.812,-383.789,-4.395,-127.441
1573889270.798,16.113,17.090,238.770,22.949,-35.645
1573889270.801,29.785,24.414,571.289,33.203,132.324
1573889270.805,20.020,30.273,137.207,7.324,74.219
1573889270.809,2.441,27.832,-67.383,-8.301,-106.934
1573889270.813,8.789,22.461,445.312,8.789,-53.711
1573889270.817,30.762,25.391,604.004,29.785,122.559
1573889270.821,27.832,20.508,78.125,13.184,94.727
1573889270.825,9.277,18.066,-98.633,-12.695,-51.758
1573889270.829,23.926,26.367,301.758,2.930,-67.871
1573889270.833,44.434,32.715,580.566,28.809,80.078
1573889270.837,40.527,28.320,213.867,21.484,138.184
1573889270.840,18.066,20.508,-344.727,-6.836,-36.621
1573889270.844,13.184,23.926,-179.199,-3.906,-131.348
1573889270.848,33.691,25.879,335.449,30.273,9.277
1573889270.852,41.016,15.137,-12.695,36.133,119.629
1573889270.856,24.414,11.230,-537.598,7.812,2.441
1573889270.860,11.230,13.184,-203.125,2.441,-112.305
1573889270.864,24.902,18.555,298.828,30.762,-3.418
1573889270.868,47.363,22.461,285.156,51.270,129.883
1573889270.872,39.551,20.508,-60.547,33.203,62.012
1573889270.876,20.508,20.508,-329.590,11.230,-127.930
1573889270.880,26.367,23.438,-88.379,27.832,-107.910
1573889270.883,38.574,27.344,132.812,47.363,95.215
1573889270.887,31.738,28.320,-170.410,36.621,132.324
1573889270.891,5.859,17.090,-400.391,6.348,-44.922
1573889270.895,-7.324,7.812,-246.582,5.371,-103.027
1573889270.899,6.836,11.719,-136.719,25.879,60.059
1573889270.903,17.090,19.531,-80.078,23.438,140.625
1573889270.907,14.160,25.879,-199.219,10.742,5.371
1573889270.911,12.207,24.414,-171.875,14.648,-94.727
1573889270.915,19.531,21.973,217.773,29.297,32.715
1573889270.919,22.461,17.578,286.621,28.809,159.180
1573889270.923,14.648,9.766,-212.891,5.859,38.086
1573889270.926,16.113,12.207,-360.840,2.930,-93.262
1573889270.930,31.250,21.484,-74.707,29.785,-28.320
1573889270.934,45.410,22.949,-75.195,42.480,105.957
1573889270.938,36.133,18.066,-447.754,20.508,79.590
1573889270.942,16.602,15.137,-920.898,-4.883,-112.305
1573889270.946,16.113,21.973,-487.793,5.371,-73.242
1573889270.950,39.551,27.832,256.348,35.156,140.625
1573889270.954,58.105,24.414,-58.594,39.062,137.207
1573889270.958,42.480,24.902,-514.160,10.742,-39.551
1573889270.962,40.039,29.297,-170.410,16.113,-85.449
1573889270.965,53.711,26.367,294.434,47.852,74.707
1573889270.969,51.758,21.973,81.543,43.945,169.922
1573889270.973,35.156,20.020,-298.828,16.113,49.316
1573889270.977,20.996,21.973,-347.656,6.348,-85.449
1573889270.981,30.762,28.809,-1.465,25.879,11.719
1573889270.985,42.480,37.598,16.113,35.645,156.738
1573889270.989,33.203,37.109,-643.555,10.742,38.574
1573889270.993,10.742,30.273,-478.027,-5.371,-97.656
1573889270.997,15.137,26.367,210.449,15.137,-11.719
1573889271.001,35.156,26.855,280.762,36.133,136.230
1573889271.005,32.227,32.227,-131.348,20.508,97.168
1573889271.008,7.324,32.227,-286.621,-9.277,-78.613
1573889271.012,2.930,27.832,58.594,1.465,-78.125
1573889271.016,31.738,26.855,301.270,35.645,95.703
1573889271.020,32.715,33.691,120.117,23.438,163.086
1573889271.024,16.602,38.574,-296.387,-1.465,-8.789
1573889271.028,14.648,32.715,-314.941,9.277,-126.953
1573889271.032,27.832,23.438,-188.477,31.250,1.953
1573889271.036,34.668,20.508,-195.801,31.738,131.348
1573889271.040,30.762,24.902,-172.852,11.230,29.297
1573889271.044,23.438,31.738,-255.371,4.883,-120.117
1573889271.048,33.691,37.109,28.320,32.227,-29.785
1573889271.051,53.711,39.551,253.418,48.340,122.559
1573889271.055,41.504,28.320,-38.086,25.391,62.500
1573889271.059,23.926,19.043,-230.957,7.812,-82.520
1573889271.063,30.273,22.461,153.809,22.949,-16.602
1573889271.067,45.898,25.391,402.344,41.504,153.809
1573889271.071,42.480,20.996,-105.469,31.738,113.281
1573889271.075,35.156,23.438,-639.648,16.113,-85.449
1573889271.079,37.109,34.180,-570.801,20.020,-135.254
1573889271.083,41.016,42.969,49.805,32.715,57.617
1573889271.087,41.504,38.086,120.605,30.273,135.254
1573889271.090,29.297,32.715,-345.703,6.836,-24.902
1573889271.094,20.996,39.062,-170.898,8.301,-93.750
1573889271.098,31.738,33.203,321.289,34.668,56.152
1573889271.102,40.039,29.297,132.324,36.133,141.602
1573889271.106,20.996,25.879,-331.055,0.488,23.926
1573889271.110,-0.488,22.461,-287.109,-15.137,-95.215
1573889271.114,10.742,30.762,216.309,14.648,8.789
1573889271.118,29.785,33.203,192.383,33.691,149.414
1573889271.122,21.973,30.762,-606.934,7.812,58.594
1573889271.126,4.883,34.668,-770.508,-11.230,-93.750
1573889271.130,14.160,43.457,27.832,10.742,-39.062
1573889271.133,40.039,41.016,232.910,41.016,101.562
1573889271.137,48.828,34.180,-285.645,37.598,72.754
1573889271.141,24.902,27.344,-531.738,8.301,-94.238
1573889271.145,13.672,31.738,-114.258,14.160,-97.656
1573889271.149,41.992,36.133,202.637,47.852,78.613
1573889271.153,52.246,29.785,-41.016,44.922,157.715
1573889271.157,36.621,32.715,-421.875,13.672,20.020
1573889271.161,27.344,35.156,-307.129,7.324,-104.492
1573889271.165,41.504,33.691,-103.516,35.645,-12.695
1573889271.169,45.410,33.203,-433.105,36.621,106.934
1573889271.173,26.855,32.715,-530.762,2.930,52.246
1573889271.176,20.020,35.645,-316.895,-3.906,-85.938
1573889271.180,30.762,41.504,-42.969,25.879,-40.039
1573889271.184,39.062,38.086,75.684,42.969,126.953
1573889271.188,24.414,28.809,-168.945,18.555,99.609
1573889271.192,2.930,31.738,-370.117,-3.906,-73.730
1573889271.196,13.184,31.250,-183.105,18.555,-100.586
1573889271.200,31.738,25.879,97.168,41.504,83.496
1573889271.204,28.320,29.785,-37.598,28.320,136.719
1573889271.208,15.137,30.273,-389.160,8.301,-39.551
1573889271.212,14.160,31.738,-320.801,11.719,-101.074
1573889271.215,29.785,30.273,-49.805,35.156,57.129
1573889271.219,31.250,22.949,-130.859,32.227,170.410
1573889271.223,19.531,25.879,-503.418,5.371,21.484
1573889271.227,19.043,25.391,-681.152,-1.465,-113.281
1573889271.231,28.809,23.438,-237.793,18.555,13.184
1573889271.235,35.156,32.227,104.004,27.832,139.160
1573889271.239,28.320,37.109,-324.707,10.254,43.457
1573889271.243,12.695,29.297,-496.094,-5.859,-112.793
1573889271.247,15.625,21.973,49.805,11.719,-28.809
1573889271.251,34.180,20.996,282.715,37.109,137.695
1573889271.255,30.762,20.996,-187.012,24.414,97.656
1573889271.258,14.648,21.484,-569.824,-3.906,-68.359
1573889271.262,12.207,21.484,-322.266,8.301,-83.984
1573889271.266,34.668,27.344,132.324,38.574,102.539
1573889271.270,47.852,31.738,-155.273,37.109,156.250
1573889271.274,29.785,28.320,-684.082,8.301,-11.719
1573889271.278,16.602,31.250,-274.414,0.488,-75.195
1573889271.282,34.668,35.156,261.719,26.855,66.406
1573889271.286,41.504,31.738,57.129,31.250,145.020
1573889271.290,16.602,28.320,-467.773,-1.465,-20.996
1573889271.294,1.953,28.320,-309.570,-10.742,-126.953
1573889271.298,18.555,28.320,160.156,17.578,-6.836
1573889271.301,30.762,27.344,122.070,30.273,131.348
1573889271.305,21.973,27.344,-340.332,7.812,79.102
1573889271.309,7.812,23.926,-461.914,-5.859,-74.219
1573889271.313,15.625,14.648,30.762,16.602,-35.645
1573889271.317,40.527,14.160,-116.211,44.434,89.844
1573889271.321,38.574,19.043,-545.898,28.809,67.383
1573889271.325,22.461,25.391,-498.047,3.906,-80.078
1573889271.329,21.484,27.344,-319.336,17.578,-102.051
1573889271.333,36.621,24.902,17.090,40.039,56.152
1573889271.337,37.598,20.020,-17.578,27.344,104.492
1573889271.340,21.484,20.996,-233.887,1.465,-25.879
1573889271.344,19.531,26.855,-95.703,7.812,-106.934
1573889271.348,32.715,24.902,300.781,33.691,27.832
1573889271.352,36.133,13.672,228.027,34.668,152.344
1573889271.356,21.973,16.602,-145.020,6.836,39.551
1573889271.360,12.207,17.578,-153.320,-7.324,-96.191
1573889271.364,23.438,11.230,13.184,14.160,-29.297
1573889271.368,33.691,15.137,285.645,32.227,111.816
1573889271.372,28.809,16.602,144.531,14.160,61.035
1573889271.376,11.719,16.602,-74.219,-1.953,-104.980
1573889271.380,20.508,20.508,340.332,17.090,-57.617
1573889271.383,44.922,19.531,669.434,41.992,130.371
1573889271.387,41.992,17.090,276.367,32.715,93.750
1573889271.391,24.414,17.090,-4.395,10.254,-57.129
1573889271.395,28.320,25.391,363.770,24.414,-62.012
1573889271.399,48.340,34.668,588.379,53.223,70.801
1573889271.403,47.363,38.574,254.395,41.992,119.141
1573889271.407,26.855,29.785,-397.461,2.930,-62.012
1573889271.411,20.020,21.973,-296.387,2.441,-150.391
1573889271.415,31.250,20.020,551.270,31.250,25.879
1573889271.419,36.133,18.066,470.703,31.738,125.488
1573889271.423,20.996,16.602,-100.098,8.789,-0.488
1573889271.426,2.930,17.578,14.160,-3.418,-111.328
1573889271.430,20.020,26.367,508.301,25.391,-27.832
1573889271.434,41.992,31.738,549.805,47.852,126.953
1573889271.438,32.227,23.438,-13.184,26.855,62.988
1573889271.442,18.555,20.996,-252.930,6.836,-106.445
1573889271.446,19.043,21.484,104.492,17.578,-95.703
1573889271.450,34.180,18.066,181.152,37.598,70.801
1573889271.454,37.109,17.090,-247.070,25.879,109.863
1573889271.458,22.461,19.531,-268.555,4.395,-21.484
1573889271.462,26.367,29.785,162.598,21.973,-87.891
1573889271.465,40.527,33.691,437.988,42.480,62.500
1573889271.469,37.598,27.832,240.234,28.809,140.625
1573889271.473,19.531,29.297,-115.234,2.441,-11.230
1573889271.477,10.254,24.902,-34.668,-0.488,-110.352
1573889271.481,29.785,19.531,326.660,36.621,27.832
1573889271.485,45.898,26.367,338.867,48.340,171.387
1573889271.489,35.156,27.832,-147.461,23.926,57.129
1573889271.493,20.508,20.996,-431.152,11.230,-116.211
1573889271.497,27.344,17.578,-409.668,25.879,-80.078
1573889271.501,52.734,24.902,-200.195,50.781,111.816
1573889271.505,48.828,29.785,-62.988,40.039,123.535
1573889271.508,24.414,26.367,-296.875,14.648,-75.195
1573889271.512,24.414,26.855,-142.090,28.320,-92.285
1573889271.516,43.945,26.367,286.133,51.270,109.863
1573889271.520,39.551,20.020,105.957,33.691,136.719
1573889271.524,13.672,20.996,-365.723,5.371,-40.039
1573889271.528,7.324,27.832,-185.547,10.742,-77.637
1573889271.532,19.531,30.762,265.137,31.738,72.266
1573889271.536,32.227,33.203,127.441,36.133,138.672
1573889271.540,20.996,32.227,-525.391,11.230,4.883
1573889271.544,4.883,31.738,-703.613,-5.371,-117.188
1573889271.548,10.742,34.180,14.160,16.113,19.531
1573889271.551,27.832,34.668,104.980,34.668,152.832
1573889271.555,21.973,31.250,-534.668,12.695,65.918
1573889271.559,-1.953,26.855,-585.449,-12.695,-76.172
1573889271.563,-0.488,29.785,-5.371,4.883,-37.598
1573889271.567,16.602,34.180,187.012,22.461,111.328
1573889271.571,16.602,32.227,-281.738,6.348,75.195
1573889271.575,-2.441,21.973,-506.348,-16.602,-73.242
1573889271.579,-9.766,20.996,-69.824,-11.230,-62.988
1573889271.583,20.508,27.344,265.137,23.438,98.145
1573889271.587,35.156,22.461,-159.180,25.391,133.789
1573889271.590,21.973,23.438,-651.367,0.488,-44.434
1573889271.594,20.996,23.438,-244.629,7.812,-93.750
1573889271.598,42.969,21.973,288.574,38.086,66.895
1573889271.602,59.082,20.996,-101.074,42.969,138.184
1573889271.606,36.621,19.531,-561.523,13.672,0.000
1573889271.610,18.066,23.438,-361.328,4.395,-117.188
1573889271.614,33.203,31.250,63.965,31.738,-3.906
1573889271.618,52.246,26.855,141.602,45.898,127.930
1573889271.622,40.527,17.578,-169.434,22.949,59.570
1573889271.626,14.648,17.090,-250.000,2.441,-94.727
1573889271.630,10.254,16.113,-26.855,19.043,-93.262
1573889271.633,24.902,14.648,73.242,35.645,91.797
1573889271.637,20.020,14.160,-232.910,15.625,114.746
1573889271.641,-4.395,20.508,-397.949,-9.766,-50.293
1573889271.645,0.977,28.809,-170.898,3.906,-83.496
1573889271.649,22.461,28.320,-66.406,29.785,57.617
1573889271.653,21.973,17.090,25.391,29.785,149.902
1573889271.657,9.766,9.766,-175.293,12.207,-6.348
1573889271.661,0.000,10.742,-160.156,9.277,-104.004
1573889271.665,6.836,10.742,225.098,28.809,56.641
1573889271.669,17.578,13.672,180.176,39.551,147.461
1573889271.673,13.184,19.043,-201.172,20.020,28.809
1573889271.676,1.465,22.461,-273.926,2.441,-98.633
1573889271.680,17.090,21.973,-21.973,25.879,-39.551
1573889271.684,43.945,20.996,-11.719,43.457,105.957
1573889271.688,31.738,20.996,-292.480,20.996,72.754
1573889271.692,20.508,27.832,-707.031,6.836,-113.770
1573889271.696,28.809,31.738,-474.609,20.996,-116.699
1573889271.700,42.969,27.344,145.020,40.039,86.914
1573889271.704,45.898,26.367,-112.305,28.320,115.723
1573889271.708,25.879,22.949,-480.469,2.441,-68.359
1573889271.712,17.578,18.555,-93.262,9.766,-96.191
1573889271.715,35.156,21.484,382.812,37.598,75.684
1573889271.719,46.387,22.461,104.492,37.109,142.578
1573889271.723,30.273,24.414,-479.492,5.371,-22.949
1573889271.727,15.625,30.273,-483.887,2.441,-141.602
1573889271.731,25.391,29.785,-50.293,32.227,-11.230
1573889271.735,37.598,15.625,-109.863,35.156,125.000
1573889271.739,20.508,9.277,-682.617,6.348,28.809
1573889271.743,0.000,19.043,-545.898,-3.906,-116.699
1573889271.747,14.648,27.832,142.090,23.438,-14.648
1573889271.751,34.180,30.762,203.613,41.992,133.301
1573889271.755,25.879,32.715,-233.887,25.391,83.496
1573889271.758,4.395,27.344,-325.684,0.488,-62.988
1573889271.762,3.418,20.508,12.695,11.719,-61.523
1573889271.766,24.902,20.996,155.762,42.969,79.590
1573889271.770,29.785,22.461,-145.020,37.109,103.027
1573889271.774,15.137,26.855,-492.188,14.648,-41.992
1573889271.778,15.137,27.832,-380.859,25.391,-110.352
1573889271.782,37.598,25.879,-246.094,51.758,26.855
1573889271.786,47.363,20.508,-417.480,46.387,101.074
1573889271.790,32.227,18.066,-384.277,25.879,8.789
1573889271.794,25.391,24.414,-230.469,31.250,-86.426
1573889271.798,44.434,28.809,97.656,65.918,23.926
1573889271.801,62.500,35.645,191.895,78.125,159.668
1573889271.805,41.992,31.250,-158.691,42.969,74.219
1573889271.809,17.578,24.414,-286.621,21.484,-57.129
1573889271.813,29.297,26.855,7.324,40.527,-28.320
1573889271.817,53.223,28.809,185.547,60.059,106.934
1573889271.821,43.945,27.344,-228.516,37.598,93.262
1573889271.825,20.020,24.414,-711.914,8.301,-81.543
1573889271.829,20.020,21.973,-547.363,15.137,-94.238
1573889271.833,38.574,20.020,44.922,38.086,97.656
1573889271.837,41.016,18.066,-67.383,34.668,138.672
1573889271.840,22.461,17.578,-472.656,5.371,-5.859
1573889271.844,20.996,20.020,-236.328,7.324,-81.055
1573889271.848,33.203,20.508,228.027,30.273,45.898
1573889271.852,36.621,21.484,123.047,26.367,138.184
1573889271.856,19.043,18.066,-338.379,-3.418,27.344
1573889271.860,3.906,18.555,-310.547,-10.254,-94.727
1573889271.864,16.602,18.555,181.152,15.625,0.977
1573889271.868,29.297,16.113,157.715,31.738,156.250
1573889271.872,24.414,13.672,-630.371,9.277,54.199
1573889271.876,4.883,11.719,-790.039,-14.160,-111.328
1573889271.880,7.324,15.137,-23.438,5.371,-47.363
1573889271.883,35.156,20.020,261.719,36.133,125.977
1573889271.887,37.109,24.414,-109.863,24.414,125.977
1573889271.891,15.625,21.484,-373.535,-1.953,-33.203
1573889271.895,13.672,18.555,-115.723,10.742,-66.895
1573889271.899,37.109,19.043,150.391,41.016,67.871
1573889271.903,45.898,23.438,-123.535,40.039,117.188
1573889271.907,33.691,26.855,-415.527,10.254,-31.738
1573889271.911,30.762,24.902,-197.754,9.277,-97.656
1573889271.915,41.992,20.996,-65.918,31.738,10.742
1573889271.919,39.062,15.137,-276.367,24.902,120.117
1573889271.923,21.484,18.555,-314.453,1.465,66.406
1573889271.926,12.695,8.301,-187.988,-3.906,-83.008
1573889271.930,25.879,-2.930,0.488,16.113,-26.855
1573889271.934,45.410,10.254,54.199,28.809,143.066
1573889271.938,34.180,14.648,-141.602,6.348,94.238
1573889271.942,17.090,8.301,-291.016,-8.789,-79.590
1573889271.946,24.414,6.348,27.832,9.766,-42.969
1573889271.950,44.922,11.230,166.504,35.156,108.887
1573889271.954,48.340,14.160,-83.008,26.855,104.980
1573889271.958,31.250,7.812,-276.367,1.953,-61.035
1573889271.962,25.391,11.719,-78.125,14.160,-92.285
1573889271.965,41.504,19.043,224.609,41.016,71.289
1573889271.969,50.293,16.602,146.484,34.180,118.164
1573889271.973,26.855,9.277,-103.027,5.859,-22.949
1573889271.977,15.137,7.324,-289.551,2.441,-127.930
1573889271.981,32.715,14.160,169.434,31.250,23.438
1573889271.985,43.457,14.648,569.824,42.969,169.922
1573889271.989,26.367,4.883,45.410,14.160,22.949
1573889271.993,16.113,1.953,-33.691,1.953,-92.773
1573889271.997,26.855,10.254,588.867,26.855,16.113
1573889272.001,41.016,17.578,794.922,42.969,160.156
1573889272.005,40.527,6.836,311.035,27.344,111.328
1573889272.008,25.879,1.465,-180.664,11.230,-94.238
1573889272.012,26.367,16.602,153.809,19.531,-80.078
1573889272.016,36.621,25.391,740.723,34.668,132.812
1573889272.020,40.039,27.832,340.820,24.902,145.508
1573889272.024,18.555,23.926,-333.008,-3.906,-54.199
1573889272.028,-0.977,15.625,85.938,-8.789,-104.980
1573889272.032,15.137,15.137,636.719,18.066,57.129
1573889272.036,25.391,12.207,377.930,19.043,142.578
1573889272.040,9.766,11.230,-73.730,-6.348,6.836
1573889272.044,1.953,15.625,85.938,-9.766,-102.539
1573889272.048,19.531,20.508,508.789,20.508,9.766
1573889272.051,42.969,25.879,405.273,41.504,133.789
1573889272.055,36.133,20.996,-89.844,15.137,59.570
1573889272.059,16.113,12.695,-289.551,0.977,-101.074
1573889272.063,26.855,9.766,65.430,33.203,-50.781
1573889272.067,46.387,9.277,32.227,55.176,104.492
1573889272.071,37.109,10.254,-222.168,35.156,115.723
1573889272.075,17.578,10.742,-97.168,13.184,-43.457
1573889272.079,24.414,14.648,94.727,26.367,-97.168
1573889272.083,44.434,15.625,358.398,50.293,100.586
1573889272.087,42.480,12.207,173.340,44.434,131.836
1573889272.090,25.391,8.301,-210.938,21.484,-56.641
1573889272.094,25.391,3.906,-97.656,22.461,-104.004
1573889272.098,38.086,6.348,287.109,45.898,66.895
1573889272.102,38.574,1.465,46.387,43.945,145.020
1573889272.106,20.508,-2.441,-397.461,7.324,27.832
1573889272.110,15.625,2.930,-382.812,4.395,-87.402
1573889272.114,34.180,9.766,-150.879,33.691,9.277
1573889272.118,39.062,14.160,83.984,34.668,167.969
1573889272.122,20.020,11.719,-282.715,8.301,81.055
1573889272.126,-0.488,12.207,-426.758,-19.043,-66.406
1573889272.130,4.883,12.207,39.062,-1.465,-24.414
1573889272.133,26.367,10.742,317.871,26.855,130.859
1573889272.137,23.438,11.719,-32.715,10.254,120.605
1573889272.141,4.883,12.207,-350.098,-15.137,-23.438
1573889272.145,3.906,12.207,-114.258,-3.418,-64.453
1573889272.149,22.461,19.531,65.918,25.391,68.848
1573889272.153,24.414,23.926,-267.090,19.531,133.301
1573889272.157,-0.488,11.719,-846.680,-18.066,-48.340
1573889272.161,-10.254,10.742,-699.219,-20.996,-138.184
1573889272.165,10.742,19.043,91.797,18.555,47.852
1573889272.169,22.461,16.602,106.445,29.297,161.133
1573889272.173,17.090,14.160,-486.816,2.441,20.020
1573889272.176,6.836,17.090,-509.766,-6.836,-114.746
1573889272.180,14.160,17.578,102.051,21.484,0.488
1573889272.184,38.574,18.066,238.770,45.410,168.945
1573889272.188,34.180,22.461,-300.293,23.438,64.453
1573889272.192,18.066,21.973,-481.445,-1.465,-131.836
1573889272.196,28.320,19.043,-137.695,21.973,-80.078
1573889272.200,47.363,22.461,-20.508,39.062,110.352
1573889272.204,54.199,31.250,-476.074,30.762,102.539
1573889272.208,35.645,29.297,-516.602,12.207,-52.246
1573889272.212,23.438,26.367,-23.926,14.648,-95.703
1573889272.215,39.551,34.668,224.609,40.039,50.781
1573889272.219,37.598,27.832,2.441,29.785,111.328
1573889272.223,22.461,19.531,-261.719,2.441,-25.391
1573889272.227,24.902,20.020,-37.109,7.324,-87.891
1573889272.231,34.180,20.020,261.719,32.227,36.621
1573889272.235,33.203,21.484,229.492,30.762,172.363
1573889272.239,19.043,17.090,-34.180,3.418,78.125
1573889272.243,6.348,17.090,-213.867,-3.418,-94.727
1573889272.247,13.184,15.137,-207.520,11.719,-48.340
1573889272.251,27.832,7.812,-202.637,23.438,88.379
1573889272.255,18.066,7.324,-168.945,11.230,68.848
1573889272.258,2.441,13.672,-232.422,-5.859,-79.102
1573889272.262,6.836,20.508,14.160,12.695,-73.730
1573889272.266,16.602,16.602,375.977,32.227,113.281
1573889272.270,20.020,15.137,202.637,20.996,145.020
1573889272.274,15.625,20.020,-274.414,2.441,-55.664
1573889272.278,11.719,20.020,-160.156,6.836,-119.141
1573889272.282,12.695,15.625,363.281,28.320,70.312
1573889272.286,23.926,15.137,240.234,29.785,146.484
1573889272.290,17.578,12.695,-413.086,6.836,-19.531
1573889272.294,3.418,10.254,-531.738,1.953,-134.277
1573889272.298,18.555,16.113,58.105,26.855,-5.371
1573889272.301,40.527,28.320,259.766,43.457,130.371
1573889272.305,33.691,30.762,-380.859,21.973,16.602
1573889272.309,15.137,17.578,-712.891,2.930,-145.020
1573889272.313,12.207,20.020,17.090,19.043,-31.250
1573889272.317,30.273,29.297,407.227,40.039,166.016
1573889272.321,31.250,23.926,-19.043,26.855,134.277
1573889272.325,13.672,21.973,-314.453,4.883,-49.805
1573889272.329,17.090,23.926,66.406,19.043,-58.105
1573889272.333,35.156,23.926,324.707,47.363,115.234
1573889272.337,41.016,22.461,-249.512,43.945,111.816
1573889272.340,22.949,20.996,-622.559,11.719,-61.035
1573889272.344,14.160,21.973,-263.672,11.230,-97.168
1573889272.348,37.109,22.461,142.090,44.922,49.805
1573889272.352,43.945,21.973,-214.844,43.945,117.676
1573889272.356,21.973,25.391,-575.195,8.789,18.066
1573889272.360,13.184,31.250,-234.863,0.977,-84.961
1573889272.364,25.879,30.762,140.137,26.367,10.254
1573889272.368,36.621,25.391,102.539,40.527,137.695
1573889272.372,33.203,22.461,-317.383,21.973,32.715
1573889272.376,30.762,21.484,-375.488,9.277,-105.469
1573889272.380,38.574,29.785,3.906,29.785,-34.668
1573889272.383,54.199,38.086,37.598,55.176,118.164
1573889272.387,44.922,38.086,-384.766,33.691,92.773
1573889272.391,24.902,33.203,-480.469,2.930,-63.477
1573889272.395,34.180,26.367,-243.164,15.625,-80.566
1573889272.399,52.734,24.902,-235.352,40.039,54.199
1573889272.403,48.828,23.926,-357.422,34.668,111.816
1573889272.407,30.762,27.832,-461.914,3.418,-9.277
1573889272.411,28.320,34.180,-215.332,0.488,-70.801
1573889272.415,42.969,33.691,186.523,28.320,59.570
1573889272.419,47.363,32.227,201.172,36.621,162.109
1573889272.423,25.391,24.414,-239.258,9.766,28.809
1573889272.426,2.930,11.230,-383.789,-6.348,-120.605
1573889272.430,20.020,8.789,-50.781,25.879,-12.695
1573889272.434,38.086,13.672,9.766,45.410,149.902
1573889272.438,28.320,20.996,-334.961,22.949,80.566
1573889272.442,13.184,20.508,-742.676,4.883,-107.910
1573889272.446,19.531,24.902,-370.117,21.484,-61.035
1573889272.450,44.434,32.715,170.898,43.945,80.566
1573889272.454,44.922,26.855,-145.996,23.438,87.402
1573889272.458,22.461,23.438,-500.000,-5.859,-29.785
1573889272.462,19.043,30.273,-168.945,4.395,-75.684
1573889272.465,43.945,33.691,296.875,35.645,70.801
1573889272.469,57.617,25.391,-15.625,39.551,118.652
1573889272.473,39.551,20.020,-425.781,8.301,-15.625
1573889272.477,29.297,28.320,-332.520,0.000,-108.398
1573889272.481,37.598,34.180,32.715,24.902,26.367
1573889272.485,44.434,30.762,-47.852,30.273,145.020
1573889272.489,31.250,31.738,-709.473,4.395,2.441
1573889272.493,11.719,42.480,-504.883,-17.578,-106.445
1573889272.497,20.508,41.016,125.000,-0.488,-25.391
1573889272.501,38.574,33.203,209.961,21.484,145.508
1573889272.505,28.809,31.250,-195.312,1.953,89.355
1573889272.508,-0.977,26.855,-296.875,-30.762,-77.148
1573889272.512,-0.977,25.391,46.387,-16.113,-62.988
1573889272.516,26.367,29.297,117.188,18.066,79.590
1573889272.520,26.855,26.855,-153.809,13.672,110.840
1573889272.524,1.465,21.973,-520.996,-11.719,-51.270
1573889272.528,-0.488,26.855,-324.707,-3.906,-91.797
1573889272.532,25.879,33.203,-125.488,32.227,58.105
1573889272.536,36.621,28.809,-349.121,33.691,128.418
1573889272.540,24.902,30.762,-371.582,13.672,-1.953
1573889272.544,28.320,40.039,-337.891,19.531,-133.301
1573889272.548,43.945,38.574,-48.828,42.480,-13.184
1573889272.551,49.316,34.668,166.016,51.758,157.227
1573889272.555,41.016,28.320,-134.277,30.762,68.848
1573889272.559,28.320,23.926,-320.312,11.230,-88.379
1573889272.563,30.762,31.250,13.672,26.855,-26.367
1573889272.567,47.363,36.133,344.238,43.945,169.922
1573889272.571,44.922,26.855,-20.020,27.344,146.484
1573889272.575,23.438,17.578,-532.227,4.395,-58.105
1573889272.579,13.672,16.113,-467.773,9.277,-102.539
1573889272.583,23.438,15.137,100.098,30.273,73.242
1573889272.587,25.391,13.184,205.566,25.391,143.555
1573889272.590,7.812,11.719,-211.914,3.906,-36.133
1573889272.594,2.441,22.461,-27.832,6.836,-107.422
1573889272.598,9.277,31.738,560.059,23.438,67.383
1573889272.602,13.672,24.414,478.027,19.043,145.996
1573889272.606,-3.418,10.742,-18.066,-10.742,9.766
1573889272.610,-15.137,11.230,1.465,-16.602,-117.676
1573889272.614,3.906,23.926,527.832,10.254,-0.488
1573889272.618,20.996,31.250,498.535,24.414,138.184
1573889272.622,11.719,26.855,-292.480,0.977,18.555
1573889272.626,-0.977,26.367,-419.922,-18.066,-112.793
1573889272.630,15.625,36.133,330.566,11.230,-28.320
1573889272.633,35.645,35.645,594.238,34.180,122.559
1573889272.637,37.109,31.738,161.133,22.461,86.914
1573889272.641,22.949,28.320,1.465,1.465,-64.941
1573889272.645,26.367,27.832,411.621,15.625,-67.383
1573889272.649,45.410,25.391,635.742,45.898,90.820
1573889272.653,50.781,23.438,290.039,40.039,124.023
1573889272.657,31.250,25.879,-33.203,18.066,-38.086
1573889272.661,24.902,27.832,170.898,28.320,-120.605
1573889272.665,39.062,25.879,312.988,50.781,9.766
1573889272.669,40.527,20.996,55.176,44.434,132.324
1573889272.673,29.297,20.996,-104.980,20.508,28.320
1573889272.676,21.973,25.879,51.270,19.531,-107.910
1573889272.680,35.645,32.715,287.109,43.457,-20.996
1573889272.684,52.246,34.668,222.656,52.734,143.555
1573889272.688,37.598,33.203,37.598,31.738,103.516
1573889272.692,19.043,36.133,-16.113,10.254,-62.988
1573889272.696,25.879,34.180,231.934,27.344,-49.316
1573889272.700,41.016,25.879,409.668,43.945,125.977
1573889272.704,32.715,26.367,155.273,21.484,138.184
1573889272.708,13.672,32.227,-173.828,-4.395,-52.246
1573889272.712,13.184,27.344,-122.070,3.906,-105.469
1573889272.715,28.320,26.855,104.492,26.855,78.125
1573889272.719,32.227,27.832,-10.254,17.578,133.789
1573889272.723,7.812,20.996,-356.934,-13.184,-40.039
1573889272.727,-3.906,22.461,-532.227,-15.137,-126.465
1573889272.731,15.137,36.621,-217.773,15.625,-7.324
1573889272.735,26.855,39.062,103.027,29.785,122.070
1573889272.739,13.672,27.344,-310.547,7.812,16.113
1573889272.743,-0.488,26.367,-471.191,0.488,-128.418
1573889272.747,9.766,24.414,80.078,30.273,-23.438
1573889272.751,34.668,23.926,308.594,52.734,141.113
1573889272.755,32.715,22.461,-231.445,31.250,63.965
1573889272.758,14.648,21.973,-689.453,11.719,-134.766
1573889272.762,17.090,25.879,-436.035,26.367,-123.535
1573889272.766,30.273,29.297,6.348,42.480,90.332
1573889272.770,32.715,27.832,-336.426,32.715,96.680
1573889272.774,11.719,25.391,-760.254,0.488,-75.684
1573889272.778,11.230,34.180,-260.742,6.836,-83.496
1573889272.782,40.039,38.086,253.906,41.504,80.078
1573889272.786,50.293,29.297,-153.809,39.062,134.766
1573889272.790,30.762,24.414,-678.711,7.324,-7.812
1573889272.794,17.578,26.855,-330.566,-0.977,-96.191
1573889272.798,33.691,30.762,45.410,25.391,15.625
1573889272.801,39.062,31.738,-18.066,30.762,145.508
1573889272.805,23.926,29.297,-505.371,1.953,26.855
1573889272.809,8.301,26.367,-650.391,-7.812,-125.488
1573889272.813,16.602,27.344,-129.883,14.648,-33.203
1573889272.817,32.227,26.367,-219.238,32.227,95.215
1573889272.821,27.344,29.785,-645.508,17.578,43.457
1573889272.825,6.836,35.156,-374.512,-4.883,-68.359
1573889272.829,11.230,34.180,46.875,11.230,-45.898
1573889272.833,33.203,30.273,259.277,41.016,120.117
1573889272.837,33.203,23.926,76.660,28.809,147.461
1573889272.840,12.695,24.902,-181.152,-6.348,-9.766
1573889272.844,15.625,34.180,-22.949,6.348,-66.895
1573889272.848,43.457,35.156,292.969,41.992,72.266
1573889272.852,44.434,26.855,147.949,38.574,171.875
1573889272.856,29.297,25.391,-312.988,15.137,35.645
1573889272.860,25.879,28.320,-446.777,9.766,-112.793
1573889272.864,36.621,31.250,-240.234,30.273,-23.926
1573889272.868,41.504,37.109,86.914,40.527,139.648
1573889272.872,29.297,38.574,-65.430,10.742,64.941
1573889272.876,17.090,36.621,-266.113,-6.348,-95.703
1573889272.880,21.484,30.762,138.184,13.184,-27.832
1573889272.883,30.273,27.344,409.668,31.250,126.465
1573889272.887,22.949,23.926,39.062,14.160,97.656
1573889272.891,3.906,20.996,-337.891,-11.719,-83.496
1573889272.895,1.465,29.297,4.395,-3.418,-70.312
1573889272.899,23.926,28.320,299.805,25.879,106.445
1573889272.903,31.250,21.484,-106.445,22.949,113.770
1573889272.907,12.695,16.602,-740.234,-13.184,-60.059
1573889272.911,9.766,19.043,-609.863,-11.230,-117.676
1573889272.915,26.367,25.879,230.469,29.785,66.406
1573889272.919,33.203,21.484,227.051,37.109,165.527
1573889272.923,21.484,24.902,-326.172,14.648,18.066
1573889272.926,17.090,36.133,-242.188,6.836,-101.074
1573889272.930,38.574,33.691,296.387,34.180,15.625
1573889272.934,59.570,25.879,261.719,59.082,147.461
1573889272.938,47.852,20.508,-266.113,37.598,61.035
1573889272.942,30.762,25.879,-308.594,17.090,-77.637
1573889272.946,38.086,31.738,35.645,39.551,-25.879
1573889272.950,49.805,29.785,12.695,60.059,128.906
1573889272.954,40.039,29.785,-504.395,33.203,107.910
1573889272.958,16.113,25.391,-571.289,-3.906,-56.152
1573889272.962,13.672,25.391,5.371,8.789,-59.082
1573889272.965,37.109,27.344,202.148,37.109,83.008
1573889272.969,41.504,25.879,-131.836,32.227,132.324
1573889272.973,15.137,28.809,-343.262,2.930,-7.324
1573889272.977,3.906,35.156,-112.793,2.930,-85.449
1573889272.981,20.508,37.109,213.379,28.320,50.781
1573889272.985,33.691,31.250,78.613,32.715,142.578
1573889272.989,24.902,26.855,-291.016,12.207,25.391
1573889272.993,4.395,32.715,-374.023,-1.465,-96.680
1573889272.997,16.113,37.598,-315.430,19.043,-22.461
1573889273.001,28.809,39.551,-206.543,30.273,145.996
1573889273.005,5.859,34.180,-137.695,1.465,128.906
1573889273.008,-4.395,28.809,-313.477,-10.742,-62.500
1573889273.012,7.324,28.809,-86.426,12.207,-47.852
1573889273.016,20.996,23.926,211.426,33.203,114.258
1573889273.020,19.531,18.555,-39.551,20.996,118.652
1573889273.024,8.301,13.184,-508.301,-2.930,-55.176
1573889273.028,13.184,17.090,-392.578,7.324,-125.488
1573889273.032,30.762,31.738,191.895,35.645,72.266
1573889273.036,38.086,31.250,143.555,34.180,152.344
1573889273.040,24.902,20.020,-526.367,5.371,-26.855
1573889273.044,15.625,20.508,-785.645,2.441,-145.508
1573889273.048,27.832,33.203,-177.246,31.250,-16.602
1573889273.051,36.621,39.062,141.602,43.945,137.695
1573889273.055,20.508,29.297,-356.445,26.855,28.320
1573889273.059,0.000,29.785,-483.398,10.742,-125.000
1573889273.063,2.930,34.180,74.219,24.414,-36.621
1573889273.067,14.648,29.785,271.484,39.551,132.324
1573889273.071,4.395,23.926,-210.449,16.113,85.449
1573889273.075,-17.578,18.066,-385.742,-16.602,-55.176
1573889273.079,-10.742,20.020,-4.883,-5.859,-38.574
1573889273.083,17.090,27.832,100.586,21.484,83.008
1573889273.087,19.043,26.855,-340.820,8.789,83.008
1573889273.090,0.977,24.902,-685.547,-20.508,-69.824
1573889273.094,3.418,31.250,-278.809,-14.160,-114.258
1573889273.098,27.832,37.598,185.547,16.602,43.457
1573889273.102,40.527,34.668,-230.469,23.438,117.188
1573889273.106,20.996,28.809,-639.648,-4.395,-12.695
1573889273.110,10.742,35.645,-279.297,-6.836,-113.770
1573889273.114,29.297,34.180,155.762,24.902,18.066
1573889273.118,41.016,27.344,112.793,36.621,149.902
1573889273.122,35.156,28.809,-207.520,13.672,67.383
1573889273.126,16.602,31.738,-224.121,-3.906,-75.195
1573889273.130,23.438,33.203,37.598,22.461,-42.969
1573889273.133,50.781,27.344,11.719,49.805,102.539
1573889273.137,48.828,33.691,-437.988,30.273,62.012
1573889273.141,21.973,43.945,-625.977,-2.441,-101.074
1573889273.145,11.719,35.156,-336.426,1.953,-101.074
1573889273.149,24.414,25.879,-167.480,25.391,71.289
1573889273.153,24.902,23.926,-175.293,19.043,129.395
1573889273.157,10.254,25.391,-288.086,-4.883,-13.672
1573889273.161,4.395,30.762,-165.527,-3.906,-75.684
1573889273.165,18.066,32.227,169.922,22.461,47.852
1573889273.169,24.902,28.809,72.754,24.414,110.840
1573889273.173,7.812,31.250,-314.941,0.000,-3.906
1573889273.176,-10.742,29.297,-370.117,-9.277,-126.953
1573889273.180,1.465,20.020,-95.215,15.625,-33.203
1573889273.184,18.066,19.043,-66.895,34.668,118.164
1573889273.188,8.789,20.508,-368.164,14.160,54.199
1573889273.192,0.488,20.996,-727.539,-0.977,-118.652
1573889273.196,10.254,28.320,-323.730,14.648,-50.293
1573889273.200,30.273,33.691,337.891,32.715,139.160
1573889273.204,35.645,31.250,-12.207,21.973,105.469
1573889273.208,25.879,31.738,-387.695,-1.465,-68.848
1573889273.212,21.484,32.715,15.625,2.930,-88.379
1573889273.215,39.551,31.738,517.090,34.180,99.121
1573889273.219,49.805,30.273,264.648,37.109,152.832
1573889273.223,30.273,34.668,-122.070,8.789,2.930
1573889273.227,20.996,33.203,25.391,5.859,-72.266
1573889273.231,37.598,37.598,444.824,32.227,69.336
1573889273.235,54.199,41.992,267.090,41.992,132.812
1573889273.239,46.875,33.691,-423.828,13.672,-22.949
1573889273.243,32.715,36.133,-145.508,4.395,-112.305
1573889273.247,39.551,40.527,618.164,27.344,18.066
1573889273.251,53.711,43.457,607.910,38.574,157.227
1573889273.255,50.293,44.434,173.828,21.484,79.590
1573889273.258,30.273,37.598,78.125,4.395,-108.398
1573889273.262,32.227,33.203,445.312,21.484,-71.777
1573889273.266,55.176,35.156,610.840,47.363,108.398
1573889273.270,50.781,37.109,281.738,30.273,111.816
1573889273.274,21.973,33.203,-85.449,-2.441,-47.363
1573889273.278,17.578,30.273,99.609,2.441,-94.727
1573889273.282,38.574,31.250,301.758,32.227,72.754
1573889273.286,44.922,27.832,44.434,33.203,133.789
1573889273.290,26.855,26.367,-30.762,0.977,-13.184
1573889273.294,12.695,27.832,143.555,-2.930,-90.820
1573889273.298,22.949,33.203,491.211,25.879,48.340
1573889273.301,35.645,34.668,484.375,32.715,148.438
1573889273.305,28.809,26.855,11.719,10.254,29.785
1573889273.309,15.625,28.320,-237.305,-1.953,-110.840
1573889273.313,21.484,27.344,199.707,18.555,-25.391
1573889273.317,34.180,26.855,514.648,34.668,153.809
1573889273.321,26.367,22.949,68.359,17.090,107.422
1573889273.325,19.531,15.625,-410.156,11.230,-91.797
1573889273.329,21.484,15.625,-269.531,26.855,-84.473
1573889273.333,34.180,18.066,231.445,43.945,104.004
1573889273.337,37.109,14.648,217.773,34.668,140.137
1573889273.340,19.043,15.137,-220.703,6.348,-30.273
1573889273.344,19.531,26.855,-113.770,14.648,-108.398
1573889273.348,37.109,30.762,396.973,44.922,69.336
1573889273.352,42.480,24.414,279.297,44.922,160.645
1573889273.356,27.832,24.902,-254.883,19.043,6.836
1573889273.360,11.230,30.762,-247.559,9.277,-94.238
1573889273.364,22.461,31.250,153.809,30.273,19.043
1573889273.368,37.109,30.762,74.219,45.898,146.484
1573889273.372,17.578,22.949,-449.707,21.484,44.434
1573889273.376,-2.930,19.531,-431.152,-0.488,-104.492
1573889273.380,8.301,25.879,136.230,18.066,-24.414
1573889273.383,27.832,31.250,332.031,40.527,139.648
1573889273.387,30.762,28.320,-450.684,25.391,68.848
1573889273.391,14.648,35.156,-812.988,2.441,-108.887
1573889273.395,22.461,46.875,-103.516,23.926,-69.824
1573889273.399,51.758,36.621,163.574,46.875,90.332
1573889273.403,56.152,33.691,-271.973,34.180,96.680
1573889273.407,36.133,39.551,-557.617,9.277,-60.059
1573889273.411,21.484,37.598,-212.402,6.348,-91.309
1573889273.415,43.945,36.133,-31.738,35.645,47.852
1573889273.419,52.734,34.668,-553.223,31.738,111.816
1573889273.423,27.344,37.598,-750.000,-2.441,-0.488
1573889273.426,18.555,46.387,-358.398,-4.395,-99.121
1573889273.430,31.250,50.293,42.969,20.996,12.695
1573889273.434,41.992,40.039,42.969,29.785,147.949
1573889273.438,30.273,29.297,-237.305,12.207,83.008
1573889273.442,14.160,27.832,-312.500,-0.488,-72.266
1573889273.446,19.043,28.320,-65.918,18.555,-49.316
1573889273.450,42.969,29.785,144.531,46.387,129.395
1573889273.454,33.203,27.832,-81.543,25.391,122.070
1573889273.458,-2.441,19.531,-406.250,-13.672,-79.590
1573889273.462,0.977,24.414,-266.602,0.977,-96.191
1573889273.465,21.484,31.250,16.113,34.180,81.055
1573889273.469,21.484,22.461,-34.180,27.344,134.277
1573889273.473,0.488,19.043,-297.363,-3.906,-9.766
1573889273.477,-6.348,23.438,-488.281,-6.836,-106.934
1573889273.481,7.324,27.344,-153.320,16.602,24.902
1573889273.485,12.695,29.785,175.293,16.602,151.367
1573889273.489,8.789,31.738,-254.883,-0.977,20.508
1573889273.493,5.859,26.367,-349.121,-4.395,-114.258
1573889273.497,12.207,22.949,189.941,12.207,-8.789
1573889273.501,34.668,22.949,388.184,33.691,156.738
1573889273.505,40.527,23.438,-114.746,17.578,77.148
1573889273.508,19.531,26.855,-472.168,-13.672,-103.516
1573889273.512,23.926,30.273,-161.133,0.488,-68.848
1573889273.516,43.457,34.180,204.590,24.414,109.863
1573889273.520,43.457,29.785,-100.586,11.230,114.258
1573889273.524,30.273,20.508,-710.938,-13.672,-92.285
1573889273.528,30.762,22.949,-250.977,-2.930,-112.305
1573889273.532,57.129,32.715,328.125,39.062,84.473
1573889273.536,64.453,32.227,18.555,40.527,145.020
1573889273.540,41.992,25.391,-383.789,7.812,-34.668
1573889273.544,32.715,29.297,-116.699,7.812,-110.352
1573889273.548,44.922,35.645,381.348,32.227,51.270
1573889273.551,51.270,28.809,229.492,39.551,147.461
1573889273.555,35.645,22.949,-355.469,13.672,29.785
1573889273.559,13.672,24.902,-427.734,-0.977,-84.473
1573889273.563,24.414,23.438,27.832,29.785,-21.484
1573889273.567,41.504,24.414,-138.184,46.387,97.656
1573889273.571,36.621,29.785,-529.785,26.855,76.172
1573889273.575,23.438,31.250,-310.059,16.113,-68.359
1573889273.579,20.508,30.762,58.594,30.273,-55.664
1573889273.583,39.551,33.691,263.184,54.199,117.188
1573889273.587,43.945,35.645,14.648,47.852,136.230
1573889273.590,24.414,32.715,-390.137,21.973,-46.387
1573889273.594,23.926,29.785,-236.328,29.785,-115.723
1573889273.598,37.598,33.691,130.371,54.199,53.711
1573889273.602,39.062,33.691,-134.277,48.340,117.676
1573889273.606,27.832,30.762,-572.754,23.438,-37.598
1573889273.610,21.484,36.621,-468.262,21.484,-130.859
1573889273.614,32.227,37.109,-218.262,41.016,-7.324
1573889273.618,37.109,33.203,14.648,41.016,151.855
1573889273.622,20.020,34.668,-145.020,15.625,67.871
1573889273.626,8.301,33.203,-385.254,1.953,-112.305
1573889273.630,20.996,32.715,-66.895,26.367,-62.500
1573889273.633,40.527,38.574,234.375,51.270,112.793
1573889273.637,36.621,36.621,-116.211,33.203,81.543
1573889273.641,21.973,33.203,-412.598,6.836,-79.102
1573889273.645,27.344,32.715,-155.762,21.484,-77.637
1573889273.649,45.410,28.320,125.488,48.828,112.793
1573889273.653,42.480,27.344,-216.309,33.691,124.023
1573889273.657,24.414,18.555,-879.395,2.930,-99.609
1573889273.661,26.855,18.066,-665.039,4.395,-141.113
1573889273.665,43.457,27.344,164.551,30.762,63.477
1573889273.669,51.758,30.273,110.352,36.133,142.090
1573889273.673,45.898,41.016,-397.949,13.672,5.371
1573889273.676,39.062,43.457,-261.719,10.742,-103.516
1573889273.680,49.805,35.645,212.891,35.645,-2.930
1573889273.684,56.641,31.250,177.734,46.875,144.531
1573889273.688,34.668,29.297,-311.523,21.973,56.152
1573889273.692,14.648,28.320,-433.105,5.371,-124.023
1573889273.696,20.996,26.367,-87.891,23.438,-53.711
1573889273.700,36.621,23.926,-97.656,42.480,106.445
1573889273.704,34.180,25.391,-624.512,27.344,79.590
1573889273.708,16.113,31.738,-589.844,0.000,-55.176
1573889273.712,20.996,36.133,-21.973,17.090,-70.312
1573889273.715,39.551,33.691,250.977,47.363,104.980
1573889273.719,42.969,26.855,-44.434,38.086,138.672
1573889273.723,27.344,23.438,-300.293,8.301,-10.254
1573889273.727,17.090,28.320,-99.609,10.742,-83.984
1573889273.731,27.832,37.109,191.895,36.133,51.758
1573889273.735,41.016,41.992,156.738,40.527,183.105
1573889273.739,29.297,41.992,-230.957,13.184,38.086
1573889273.743,14.160,37.598,-342.285,0.977,-99.121
1573889273.747,24.414,33.203,-288.574,23.438,-25.391
1573889273.751,36.621,36.621,-262.695,32.715,116.699
1573889273.755,29.297,36.621,-208.008,14.160,92.285
1573889273.758,22.949,36.133,-363.281,4.395,-70.312
1573889273.762,31.738,38.574,-144.531,27.344,-57.617
1573889273.766,49.805,37.598,191.406,46.387,98.633
1573889273.770,53.223,40.527,-17.578,28.320,103.027
1573889273.774,42.480,45.410,-394.043,10.742,-72.266
1573889273.778,44.434,43.457,-193.359,26.367,-97.168
1573889273.782,57.129,41.504,259.766,48.828,79.102
1573889273.786,61.523,39.062,62.500,42.480,116.211
1573889273.790,46.387,39.551,-518.555,15.625,-20.996
1573889273.794,35.645,34.668,-650.879,6.836,-95.215
1573889273.798,49.805,30.273,-46.387,27.832,35.645
1573889273.801,60.547,33.203,164.551,41.504,146.973
1573889273.805,48.340,33.691,-376.953,20.996,8.789
1573889273.809,33.203,36.621,-504.395,10.742,-128.906
1573889273.813,37.109,37.109,-32.715,32.227,-33.203
1573889273.817,52.246,38.574,76.660,41.016,107.910
1573889273.821,44.922,33.691,-267.090,15.625,69.824
1573889273.825,20.508,22.949,-406.250,-6.836,-88.867
1573889273.829,20.996,23.926,-0.488,5.371,-77.637
1573889273.833,44.922,29.297,325.684,32.715,108.887
1573889273.837,42.969,29.297,-97.656,22.949,124.023
1573889273.840,15.137,29.785,-549.316,-9.766,-66.895
1573889273.844,12.207,37.598,-98.633,2.441,-91.309
1573889273.848,28.809,39.062,523.438,32.715,113.770
1573889273.852,32.715,25.391,-4.883,23.926,141.113
1573889273.856,15.625,19.531,-584.961,0.000,-44.434
1573889273.860,8.301,25.391,-116.699,0.488,-131.348
1573889273.864,26.367,25.879,360.352,28.809,3.418
1573889273.868,35.156,30.273,347.168,43.945,147.461
1573889273.872,25.391,38.086,-12.695,22.461,52.734
1573889273.876,18.066,36.621,37.109,14.160,-81.543
1573889273.880,26.855,29.785,446.777,36.621,-16.602
1573889273.883,50.293,33.203,415.527,58.105,121.582
1573889273.887,53.223,35.156,17.090,42.480,89.355
1573889273.891,35.156,33.691,-26.855,19.531,-75.684
1573889273.895,42.969,41.504,259.277,37.598,-88.379
1573889273.899,65.430,44.922,224.609,61.523,53.711
1573889273.903,56.152,35.645,163.086,46.387,100.098
1573889273.907,32.715,28.320,89.844,12.695,-33.203
1573889273.911,31.250,29.297,177.734,17.090,-105.957
1573889273.915,46.875,32.715,504.883,48.828,38.086
1573889273.919,51.270,33.691,538.086,47.852,159.668
1573889273.923,36.133,39.062,126.953,18.066,8.301
1573889273.926,24.902,40.527,-35.156,14.160,-128.906
1573889273.930,33.203,30.762,226.074,32.715,-6.836
1573889273.934,40.527,23.438,275.391,38.086,142.578
1573889273.938,26.367,19.531,-75.195,12.695,50.781
1573889273.942,16.602,21.484,-398.438,-6.836,-115.234
1573889273.946,23.926,25.879,-113.770,13.184,-68.848
1573889273.950,36.133,31.250,483.887,32.227,135.254
1573889273.954,32.715,32.227,185.547,19.043,115.234
1573889273.958,10.254,27.832,-270.020,-2.441,-91.797
1573889273.962,6.348,28.809,98.633,6.836,-86.914
1573889273.965,28.320,35.645,549.316,33.691,114.746
1573889273.969,33.203,33.203,213.867,32.715,146.973
1573889273.973,16.113,22.461,-260.742,10.742,-30.273
1573889273.977,15.625,18.555,-182.617,13.672,-105.957
1573889273.981,33.203,24.902,155.273,41.504,53.711
1573889273.985,42.969,33.203,-45.898,45.898,140.137
1573889273.989,32.715,34.180,-722.168,20.020,-25.879
1573889273.993,17.578,29.297,-427.734,10.742,-108.398
1573889273.997,24.414,28.809,290.039,30.273,10.742
1573889274.001,41.016,35.645,230.469,44.922,129.883
1573889274.005,38.086,34.668,-219.238,26.367,57.129
1573889274.008,23.438,29.297,-245.117,6.348,-97.656
1573889274.012,31.738,33.203,151.855,23.926,-55.176
1573889274.016,47.363,36.621,291.992,41.016,114.746
1573889274.020,37.598,28.809,-93.262,21.484,121.094
1573889274.024,17.090,23.438,-497.559,-5.371,-62.500
1573889274.028,13.672,26.367,-289.551,2.441,-95.215
1573889274.032,31.738,28.809,-174.316,20.020,66.406
1573889274.036,30.762,31.738,-423.828,12.207,115.234
1573889274.040,8.789,30.273,-526.367,-12.207,-25.391
1573889274.044,1.953,30.762,-465.820,-13.672,-122.070
1573889274.048,17.578,37.598,-75.195,15.625,15.137
1573889274.051,30.273,37.109,46.387,22.461,149.902
1573889274.055,15.137,27.832,-286.133,-4.395,32.715
1573889274.059,-1.465,22.461,-446.289,-15.625,-125.000
1573889274.063,12.207,28.809,-85.449,12.207,-28.809
1573889274.067,31.250,37.109,160.645,31.738,137.207
1573889274.071,25.879,36.621,-323.730,15.137,60.547
1573889274.075,9.277,28.320,-714.355,-4.395,-109.863
1573889274.079,23.438,31.738,-518.555,17.578,-90.820
1573889274.083,44.922,38.574,31.250,46.875,116.211
1573889274.087,44.922,41.016,48.828,38.574,136.719
1573889274.090,28.809,48.340,-357.422,13.672,-47.852
1573889274.094,24.902,46.387,-182.129,20.020,-104.492
1573889274.098,44.922,39.062,258.301,52.246,79.102
1573889274.102,50.293,36.133,175.781,49.805,167.969
1573889274.106,33.691,31.738,-257.812,16.113,-0.488
1573889274.110,21.973,32.227,-166.016,6.836,-90.332
1573889274.114,37.109,42.480,383.301,34.668,61.035
1573889274.118,48.340,46.387,288.574,45.410,173.340
1573889274.122,32.227,34.668,-561.523,12.207,20.020
1573889274.126,17.578,30.762,-704.590,-4.395,-131.348
1573889274.130,27.344,37.109,89.844,23.438,-38.086
1573889274.133,42.969,35.156,334.961,45.898,125.000
1573889274.137,36.621,30.273,-85.938,33.691,94.727
1573889274.141,20.508,30.762,-205.078,14.648,-62.500
1573889274.145,23.926,36.621,192.383,25.391,-70.801
1573889274.149,39.062,39.062,351.562,44.434,70.801
1573889274.153,36.621,31.250,-61.035,32.227,102.539
1573889274.157,19.043,29.785,-375.000,7.812,-43.945
1573889274.161,13.672,32.715,36.621,15.625,-77.637
1573889274.165,35.645,28.809,260.254,48.828,62.500
1573889274.169,47.363,26.367,-289.551,48.340,106.445
1573889274.173,27.344,33.691,-462.402,20.508,1.953
1573889274.176,19.531,40.039,-68.848,23.438,-88.867
1573889274.180,36.621,33.691,224.609,53.223,3.418
1573889274.184,49.805,27.344,183.594,62.500,134.277
1573889274.188,38.086,25.391,-84.473,34.180,63.965
1573889274.192,22.461,29.297,-152.832,15.137,-83.984
1573889274.196,40.527,39.062,140.137,41.992,-32.715
1573889274.200,66.895,43.457,268.066,65.430,128.418
1573889274.204,61.035,37.598,7.812,46.387,115.234
1573889274.208,40.039,34.180,-282.227,20.020,-72.754
1573889274.212,39.551,35.156,-209.473,34.180,-106.934
1573889274.215,52.734,32.715,-31.738,55.664,67.871
1573889274.219,51.270,32.715,-247.559,39.551,108.887
1573889274.223,29.785,38.574,-465.332,11.230,-36.621
1573889274.227,25.391,35.156,-473.633,9.277,-123.047
1573889274.231,33.203,33.203,-185.547,22.949,21.973
1573889274.235,37.109,38.574,83.984,23.926,165.039
1573889274.239,24.902,32.227,-272.949,0.000,27.344
1573889274.243,8.789,29.785,-387.207,-6.836,-111.328
1573889274.247,17.578,35.645,203.125,16.113,36.621
1573889274.251,29.785,34.180,341.309,27.344,166.992
1573889274.255,21.973,33.203,-224.609,4.883,62.988
1573889274.258,7.324,32.715,-543.945,-5.859,-88.867
1573889274.262,13.672,34.180,-245.117,17.090,-60.059
1573889274.266,29.297,32.715,44.434,35.645,108.398
1573889274.270,26.367,27.344,-407.227,25.391,85.449
1573889274.274,15.625,29.297,-851.562,5.859,-90.332
1573889274.278,21.484,41.504,-312.012,21.484,-97.168
1573889274.282,43.457,36.621,251.465,56.152,73.730
1573889274.286,54.688,22.949,12.207,56.152,143.555
1573889274.290,40.527,20.996,-444.824,27.832,-35.156
1573889274.294,33.203,27.832,-187.012,27.344,-106.445
1573889274.298,57.129,36.133,291.504,61.523,50.293
1573889274.301,70.312,35.645,107.422,63.477,145.996
1573889274.305,59.082,33.203,-427.246,27.832,31.250
1573889274.309,46.387,37.109,-505.371,16.113,-104.004
1573889274.313,53.223,44.922,-16.602,41.992,-5.859
1573889274.317,61.035,39.062,-141.113,54.199,119.629
1573889274.321,39.062,29.785,-645.020,19.531,44.434
1573889274.325,18.555,29.785,-540.527,3.906,-102.051
1573889274.329,23.438,35.156,-150.391,25.879,-79.102
1573889274.333,31.738,37.109,134.766,39.062,111.328
1573889274.337,22.461,35.645,-26.367,21.484,136.719
1573889274.340,2.930,35.156,-270.508,-7.324,-41.992
1573889274.344,0.488,37.109,-92.773,-0.977,-78.125
1573889274.348,19.531,34.668,193.848,24.902,68.848
1573889274.352,24.902,33.203,-59.570,23.926,126.465
1573889274.356,8.789,34.668,-443.848,2.441,8.301
1573889274.360,1.465,41.016,-378.418,6.348,-98.633
1573889274.364,18.066,41.504,-223.145,33.691,-3.418
1573889274.368,28.320,35.156,-38.574,35.645,142.090
1573889274.372,27.832,37.109,-174.805,20.996,52.734
1573889274.376,27.832,42.480,-303.223,22.461,-95.703
1573889274.380,29.785,39.062,-1.953,35.156,-18.066
1573889274.383,41.992,36.133,180.176,47.363,148.926
1573889274.387,39.062,31.250,-107.422,24.414,95.703
1573889274.391,17.090,25.391,-385.742,-4.395,-83.496
1573889274.395,31.250,26.367,-26.367,21.973,-46.875
1573889274.399,59.082,29.297,213.379,50.293,118.164
1573889274.403,48.828,30.762,-139.648,32.227,134.766
1573889274.407,29.297,25.879,-715.332,3.906,-48.340
1573889274.411,20.996,20.508,-565.430,4.395,-110.840
1573889274.415,35.645,23.926,226.562,29.785,81.543
1573889274.419,47.363,19.531,155.762,30.762,165.039
1573889274.423,23.926,13.184,-341.309,-2.930,22.461
1573889274.426,9.277,20.996,-238.770,-9.766,-93.262
1573889274.430,29.785,30.273,208.496,22.949,8.301
1573889274.434,41.504,25.391,166.016,31.250,151.367
1573889274.438,27.832,19.043,-389.160,6.348,37.109
1573889274.442,12.207,19.043,-516.113,-3.906,-139.648
1573889274.446,14.648,23.438,-135.254,14.648,-62.500
1573889274.450,38.086,26.855,-43.945,40.527,109.863
1573889274.454,41.016,27.344,-594.727,25.879,49.805
1573889274.458,14.160,28.809,-579.590,0.488,-95.215
1573889274.462,11.719,29.297,58.105,20.020,-75.195
1573889274.465,36.133,29.297,296.387,53.223,88.379
1573889274.469,41.504,26.367,58.105,45.898,136.230
1573889274.473,22.461,27.344,-168.457,16.113,-21.484
1573889274.477,16.113,31.250,93.262,16.113,-78.125
1573889274.481,38.574,33.691,351.562,45.410,55.176
1573889274.485,52.246,35.156,174.316,52.734,132.324
1573889274.489,37.109,31.738,-92.773,25.391,13.672
1573889274.493,35.156,30.273,-105.957,20.508,-104.004
1573889274.497,53.223,31.738,-24.902,47.852,-14.160
1573889274.501,58.594,27.344,-55.176,50.293,113.281
1573889274.505,50.781,28.809,-13.184,26.855,65.430
1573889274.508,45.898,36.133,-4.883,17.090,-88.379
1573889274.512,54.199,43.457,316.895,37.109,-34.180
1573889274.516,59.570,42.480,644.043,50.293,155.762
1573889274.520,54.199,38.574,363.281,35.645,110.352
1573889274.524,37.598,33.203,15.137,12.207,-62.988
1573889274.528,31.738,34.180,271.484,14.160,-52.734
1573889274.532,42.480,35.645,687.012,32.715,122.559
1573889274.536,38.574,26.855,500.488,19.531,153.809
1573889274.540,27.832,24.902,-106.445,0.000,-20.020
1573889274.544,16.602,22.949,-311.523,-2.441,-114.746
1573889274.548,20.996,22.461,242.188,20.020,22.461
1573889274.551,39.551,26.367,463.867,33.691,172.852
1573889274.555,33.203,21.973,-19.531,13.184,42.969
1573889274.559,26.367,26.367,-22.461,13.184,-95.215
1573889274.563,44.434,39.551,535.645,45.898,13.672
1573889274.567,59.082,32.227,673.340,60.547,170.898
1573889274.571,53.223,18.555,178.711,40.527,95.215
1573889274.575,41.504,18.555,-84.961,23.926,-91.797
1573889274.579,44.434,26.367,299.805,39.551,-63.477
1573889274.583,60.547,32.227,560.547,61.523,121.582
1573889274.587,58.105,35.645,67.383,42.480,121.582
1573889274.590,35.645,32.715,-387.207,13.672,-39.551
1573889274.594,29.297,29.297,14.160,19.531,-60.547
1573889274.598,39.062,27.832,422.363,41.016,76.660
1573889274.602,43.945,25.391,-65.430,34.180,123.535
1573889274.606,23.438,26.367,-547.852,0.977,-9.766
1573889274.610,14.160,36.621,-229.980,1.465,-116.699
1573889274.614,33.691,41.016,214.355,30.273,10.742
1573889274.618,44.434,36.133,199.219,30.762,163.086
1573889274.622,27.832,35.156,-204.590,-0.488,33.203
1573889274.626,8.789,37.109,-260.742,-15.137,-124.512
1573889274.630,18.555,40.039,60.547,12.695,-38.086
1573889274.633,37.598,40.527,53.223,34.180,122.070
1573889274.637,26.367,34.668,-341.309,10.742,80.078
1573889274.641,6.836,27.344,-399.902,-12.695,-80.078
1573889274.645,16.602,27.344,-115.234,6.348,-67.383
1573889274.649,36.621,27.344,-5.859,34.180,103.027
1573889274.653,38.574,30.273,-150.879,25.879,123.535
1573889274.657,21.973,37.109,-356.934,7.324,-44.434
1573889274.661,22.949,41.504,-312.988,17.578,-101.562
1573889274.665,46.387,40.527,-162.598,47.852,48.340
1573889274.669,49.316,36.133,-28.809,45.410,158.691
1573889274.673,33.203,28.320,-355.957,20.996,-1.953
1573889274.676,27.344,27.344,-375.488,22.461,-105.469
1573889274.680,38.574,30.273,-124.023,44.434,-4.883
1573889274.684,47.852,26.855,-200.195,48.340,117.676
1573889274.688,30.273,19.531,-468.750,16.602,45.410
1573889274.692,8.789,21.973,-689.453,-6.348,-99.121
1573889274.696,17.090,35.645,-368.164,15.137,-38.086
1573889274.700,37.109,41.992,92.773,38.086,103.027
1573889274.704,29.297,33.203,-233.398,16.113,65.918
1573889274.708,8.301,34.668,-551.758,-8.301,-99.121
1573889274.712,11.230,43.457,-121.582,5.371,-84.473
1573889274.715,30.273,40.039,312.500,30.762,102.539
1573889274.719,32.715,37.598,3.418,22.949,148.926
1573889274.723,9.277,39.551,-451.172,-10.742,-32.227
1573889274.727,-0.488,35.645,-371.094,-10.254,-131.836
1573889274.731,17.090,37.598,50.781,16.602,44.922
1573889274.735,25.391,39.551,-14.648,18.555,150.879
1573889274.739,8.301,31.738,-670.410,-10.742,-12.207
1573889274.743,1.465,41.504,-429.199,-14.160,-105.469
1573889274.747,15.137,50.293,296.387,20.508,30.273
1573889274.751,19.531,40.527,215.332,28.809,141.602
1573889274.755,10.254,34.180,-221.680,5.371,62.012
1573889274.758,3.418,35.645,-145.996,-1.465,-58.594
1573889274.762,18.066,34.180,260.742,26.855,-16.602
1573889274.766,41.992,38.574,328.125,45.898,129.883
1573889274.770,41.504,44.922,-37.109,30.762,101.562
1573889274.774,31.738,42.969,-404.297,14.648,-87.891
1573889274.778,40.039,38.574,-207.520,31.250,-93.262
1573889274.782,52.246,35.645,-99.121,52.734,58.105
1573889274.786,49.316,39.062,-352.539,38.086,98.145
1573889274.790,32.715,38.574,-261.230,12.207,-7.812
1573889274.794,37.109,38.086,-34.180,22.461,-93.750
1573889274.798,50.293,39.062,265.137,51.270,45.898
1573889274.801,47.852,36.133,270.020,42.969,168.457
1573889274.805,32.715,36.133,-63.965,15.625,37.598
1573889274.809,21.484,34.180,-202.148,11.230,-112.793
1573889274.813,31.738,36.621,128.418,33.691,2.441
1573889274.817,44.434,46.387,365.723,48.340,172.363
1573889274.821,33.691,39.062,-159.180,27.344,65.430
1573889274.825,15.625,25.879,-559.082,2.441,-102.051
1573889274.829,20.508,32.227,-338.867,17.090,-55.176
1573889274.833,35.645,38.086,73.730,39.551,138.184
1573889274.837,26.367,29.297,-37.109,24.902,138.184
1573889274.840,7.812,21.973,-400.391,0.488,-56.152
1573889274.844,15.625,24.902,-129.395,11.230,-82.031
1573889274.848,38.574,33.203,329.590,37.598,84.473
1573889274.852,47.363,36.133,167.969,37.598,146.484
1573889274.856,34.180,36.621,-323.730,12.207,-16.113
1573889274.860,28.320,35.645,-266.113,12.207,-117.676
1573889274.864,47.363,36.133,190.918,40.039,36.133
1573889274.868,56.641,32.227,18.555,46.875,143.555
1573889274.872,38.086,26.855,-689.453,17.578,16.113
1573889274.876,18.066,25.391,-714.355,-2.441,-107.422
1573889274.880,26.367,23.438,119.141,22.461,11.230
1573889274.883,43.945,29.297,334.961,42.969,156.250
1573889274.887,37.109,31.250,-248.535,23.926,73.242
1573889274.891,16.113,23.926,-581.543,1.465,-117.188
1573889274.895,20.996,25.879,-65.430,20.996,-73.242
1573889274.899,44.434,30.273,229.492,50.781,104.004
1573889274.903,41.016,27.344,-145.508,39.551,114.746
1573889274.907,20.020,24.902,-347.656,15.137,-24.902
1573889274.911,15.625,28.320,-47.363,23.926,-72.754
1573889274.915,31.250,32.715,73.242,50.293,57.617
1573889274.919,37.598,30.762,-452.148,45.898,113.770
1573889274.923,21.484,28.320,-670.898,14.160,-16.602
1573889274.926,13.184,35.645,-264.160,13.184,-99.609
1573889274.930,36.621,40.527,82.031,46.875,17.578
1573889274.934,53.711,40.039,94.727,58.105,162.598
1573889274.938,36.621,30.762,-236.816,30.273,45.898
1573889274.942,25.879,23.926,-390.625,18.066,-135.742
1573889274.946,40.039,32.715,-97.168,43.945,-50.781
1573889274.950,54.688,33.203,47.363,60.547,124.023
1573889274.954,43.945,30.762,-138.672,37.598,108.398
1573889274.958,25.879,32.715,-332.031,18.066,-67.871
1573889274.962,29.297,38.086,-240.723,33.691,-91.309
1573889274.965,41.016,35.645,-45.898,54.199,91.797
1573889274.969,40.527,29.297,-161.133,44.434,115.723
1573889274.973,30.273,28.320,-412.109,16.602,-54.199
1573889274.977,28.809,32.715,-410.645,19.531,-89.355
1573889274.981,43.945,42.480,-90.332,46.875,58.105
1573889274.985,54.199,47.363,-36.133,48.828,110.352
1573889274.989,34.668,41.992,-426.270,17.090,-12.695
1573889274.993,16.113,37.109,-414.062,3.906,-113.281
1573889274.997,23.438,33.691,105.469,27.344,11.230
1573889275.001,35.156,37.109,180.664,40.527,156.250
1573889275.005,28.809,40.039,-370.605,19.531,67.383
1573889275.008,7.324,36.621,-588.379,1.953,-96.191
1573889275.012,12.207,37.598,-258.789,21.484,-67.383
1573889275.016,34.180,40.527,140.137,42.480,123.047
1573889275.020,27.832,32.715,-213.867,26.855,89.355
1573889275.024,9.277,25.879,-774.902,1.465,-100.098
1573889275.028,14.160,30.273,-251.953,13.672,-85.938
1573889275.032,32.715,32.227,311.035,45.898,82.520
1573889275.036,41.992,36.133,7.812,47.852,127.930
1573889275.040,32.227,39.551,-386.719,23.438,-34.668
1573889275.044,23.926,37.598,-161.133,22.949,-117.188
1573889275.048,39.551,33.203,294.922,49.316,57.129
1573889275.051,47.852,28.809,172.852,49.805,177.734
1573889275.055,30.762,23.926,-424.316,15.625,27.344
1573889275.059,17.578,27.344,-552.734,4.395,-125.488
1573889275.063,34.668,40.527,-90.332,34.668,-10.742
1573889275.067,50.293,41.992,-192.871,47.363,131.836
1573889275.071,37.598,35.645,-593.262,19.531,47.363
1573889275.075,23.926,36.133,-352.539,0.488,-77.637
1573889275.079,29.297,40.039,11.230,21.973,-57.617
1573889275.083,41.992,37.598,172.852,43.457,96.680
1573889275.087,37.109,38.086,-17.578,30.762,108.887
1573889275.090,17.578,40.039,-231.934,8.301,-73.242
1573889275.094,16.113,35.645,-66.406,12.695,-100.586
1573889275.098,30.762,37.109,270.996,34.180,84.961
1573889275.102,33.203,38.086,34.180,32.227,136.719
1573889275.106,17.578,30.762,-369.629,9.766,-28.809
1573889275.110,12.695,26.855,-230.957,9.277,-124.023
1573889275.114,29.297,29.297,-69.824,31.738,14.160
1573889275.118,42.480,35.156,21.484,40.527,142.090
1573889275.122,26.855,37.598,4.395,18.066,55.176
1573889275.126,13.184,37.598,-46.387,8.301,-88.867
1573889275.130,30.762,39.551,354.004,41.504,8.789
1573889275.133,45.898,40.039,592.773,56.641,166.016
1573889275.137,42.480,37.598,206.055,38.086,89.844
1573889275.141,26.367,34.668,-32.715,23.438,-73.242
1573889275.145,27.344,41.992,350.586,37.598,-35.645
1573889275.149,48.828,40.039,566.895,57.129,128.906
1573889275.153,55.664,31.250,157.227,50.781,109.863
1573889275.157,45.410,26.367,-412.109,26.855,-84.961
1573889275.161,39.062,29.297,-204.590,21.484,-112.793
1573889275.165,52.734,35.645,578.613,46.875,83.984
1573889275.169,55.176,33.691,498.535,42.969,152.832
1573889275.173,40.039,31.738,-86.914,15.625,-6.348
1573889275.176,33.203,34.668,28.320,18.555,-102.539
1573889275.180,47.852,38.574,611.816,40.527,38.574
1573889275.184,56.641,36.133,541.504,45.410,166.016
1573889275.188,36.133,30.273,42.480,19.043,62.012
1573889275.192,30.273,32.227,49.805,9.766,-78.125
1573889275.196,50.293,40.039,338.867,46.387,-14.648
1573889275.200,50.781,38.574,278.320,53.223,137.695
1573889275.204,26.367,29.785,-350.098,19.043,60.059
1573889275.208,5.859,24.414,-448.242,-1.953,-107.910
1573889275.212,10.742,30.273,143.066,17.090,-86.914
1573889275.215,22.461,37.598,372.559,36.133,90.820
1573889275.219,19.531,35.645,70.801,21.484,118.652
1573889275.223,4.395,35.156,-134.766,0.000,-39.062
1573889275.227,4.883,35.645,38.574,9.277,-88.867
1573889275.231,24.414,32.227,194.824,36.133,41.016
1573889275.235,33.691,29.297,104.980,36.621,135.742
1573889275.239,26.855,28.809,-199.707,9.766,5.371
1573889275.243,12.695,29.297,-279.297,0.977,-119.141
1573889275.247,36.621,40.039,-222.168,35.156,-17.578
1573889275.251,60.059,39.551,-255.371,56.152,116.699
1573889275.255,33.691,31.738,-254.395,24.902,56.152
