timestamps,TP9,AF7,AF8,TP10,Right AUX
1573890395,164.062,6.348,-937.988,218.75,812.012
1573890395,66.406,7.324,-323.73,-7.324,-270.508
1573890395,28.32,10.254,-1000,-68.848,-817.383
1573890395,123.047,11.23,206.055,150.879,32.227
1573890395,173.34,5.859,-764.648,255.371,959.473
1573890395,84.961,7.812,107.91,53.711,73.242
1573890395,18.555,19.043,-1000,-85.938,-814.453
1573890395,81.055,13.184,-168.457,82.52,-285.645
1573890395,153.32,7.324,-770.508,243.652,881.836
1573890395,97.168,13.184,390.137,105.957,424.316
1573890395,6.836,10.742,-1000,-83.496,-671.875
1573890395,45.898,9.277,-413.086,17.578,-524.902
1573890395,142.578,17.578,-908.691,228.027,631.348
1573890395,121.094,21.484,809.57,169.922,694.824
1573890395,17.578,11.719,-696.289,-56.152,-415.039
1573890395,17.09,7.812,-906.25,-43.945,-721.191
1573890395,120.605,7.324,579.59,186.035,297.363
1573890395,134.766,2.93,-861.816,217.773,870.605
1573890395,25.391,6.348,-163.086,-8.301,-217.773
1573890395,-14.648,9.277,-1000,-78.125,-875
1573890395,71.777,7.324,-33.691,120.605,-41.016
1573890395,123.535,4.883,-760.254,230.957,968.75
1573890395,50.781,11.23,220.703,63.965,215.332
1573890395,-21.484,13.184,-1000,-88.379,-744.141
1573890395,37.598,10.742,-224.121,54.199,-348.145
1573890395,124.023,13.672,-780.762,231.934,834.473
1573890395,83.496,8.789,438.477,116.699,491.211
1573890395,-7.812,4.395,-1000,-84.961,-679.199
1573890395,21.973,10.742,-484.375,-6.348,-657.715
1573890395,113.77,16.602,-957.52,201.66,553.711
1573890395,103.027,21.973,851.562,165.039,721.191
1573890395,7.324,21.973,-648.926,-59.082,-468.262
1573890395,-11.719,13.672,-972.656,-83.008,-858.887
1573890395,87.402,13.184,485.84,141.602,190.43
1573890395,123.047,24.902,-838.867,205.078,899.902
1573890395,32.227,28.32,-123.535,-10.254,-118.652
1573890395,-17.09,26.855,-1000,-110.84,-847.656
1573890395,64.453,29.785,-58.594,86.426,-157.715
1573890395,130.371,32.715,-763.672,221.191,930.664
1573890395,61.035,37.598,248.047,47.363,263.184
1573890395,-19.531,34.18,-1000,-130.859,-787.598
1573890395,35.645,34.668,-321.289,3.906,-455.078
1573890395,127.441,39.062,-822.754,200.684,765.625
1573890395,87.891,34.668,514.16,105.957,564.941
1573890395,-8.789,36.621,-1000,-99.121,-534.668
1573890395,14.648,44.922,-663.574,-36.621,-635.254
1573890395,116.211,50.781,882.812,183.594,467.773
1573890395,100.586,38.086,922.852,161.133,766.602
1573890395,-2.441,20.996,-553.711,-71.289,-381.348
1573890395,-10.742,23.438,-1000,-100.098,-830.078
1573890395,88.379,41.992,279.297,124.023,129.395
1573890395,124.023,41.992,-802.246,194.336,935.059
1573890395,31.738,32.227,15.625,-14.648,-2.441
1573890395,-26.367,31.25,-1000,-123.047,-843.262
1573890395,56.152,27.832,-172.852,65.43,-260.254
1573890395,130.371,31.738,-777.832,207.52,910.156
1573890395,56.152,35.645,276.367,49.316,363.281
1573890395,-33.691,33.203,-1000,-131.348,-729.98
1573890395,19.043,40.039,-377.93,-8.301,-501.465
1573890395,115.234,29.297,-857.91,189.453,694.336
1573890395,91.309,13.184,583.496,111.816,635.254
1573890395,0,32.227,-965.332,-92.773,-471.191
1573890395,10.742,49.316,-768.555,-57.617,-656.25
1573890395,108.398,32.715,761.23,165.039,410.156
1573890395,114.258,21.484,988.281,169.922,809.082
1573890395,6.348,26.367,-456.055,-60.059,-277.832
1573890395,-21.484,19.043,-1000,-114.258,-861.816
1573890395,84.961,22.949,136.719,105.957,6.348
1573890395,120.117,24.902,-780.273,198.73,967.285
1573890395,15.625,20.996,80.566,-6.348,61.035
1573890395,-40.527,25.879,-1000,-137.695,-817.383
1573890395,41.992,23.926,-183.105,36.133,-272.949
1573890395,112.793,28.32,-775.391,198.73,874.512
1573890395,60.547,37.109,301.27,67.383,432.617
1573890395,-26.855,27.832,-1000,-113.77,-657.227
1573890395,6.836,21.973,-439.941,-19.043,-548.34
1573890395,103.027,30.273,-902.832,185.547,632.812
1573890395,86.914,39.551,638.184,133.301,667.48
1573890395,-18.066,39.062,-893.066,-97.656,-513.184
1573890395,-27.832,29.785,-896.484,-87.402,-799.805
1573890395,85.449,31.25,604.98,146.973,295.898
1573890395,107.422,36.621,-976.074,169.922,849.609
1573890395,-2.93,36.133,-390.625,-59.082,-229.492
1573890395,-32.227,34.18,-1000,-125.488,-838.867
1573890395,61.523,40.039,-0.488,80.566,-24.902
1573890395,114.258,50.293,-773.926,188.477,959.473
1573890395,40.039,41.504,174.316,8.301,179.199
1573890395,-40.039,30.762,-1000,-137.695,-755.859
1573890395,22.949,29.785,-238.77,17.09,-335.449
1573890395,109.863,39.551,-787.598,199.219,829.102
1573890395,55.664,43.457,373.535,78.125,498.047
1573890395,-44.434,39.062,-1000,-120.605,-603.027
1573890395,-18.066,35.645,-597.168,-43.457,-602.539
1573890395,80.078,22.949,929.688,157.715,538.574
1573890395,75.684,24.414,837.891,122.559,723.633
1573890395,-28.32,25.879,-697.266,-97.168,-385.742
1573890395,-35.645,22.949,-978.027,-97.168,-761.719
1573890395,62.5,37.109,462.891,131.836,232.422
1573890395,88.867,47.363,-834.961,181.641,887.695
1573890395,3.906,34.18,-99.609,-28.809,-102.051
1573890395,-51.27,26.367,-1000,-125.977,-813.477
1573890395,29.297,27.344,-72.754,61.035,-136.23
1573890395,98.145,29.785,-766.113,190.918,947.266
1573890395,20.508,29.785,204.59,20.508,268.066
1573890395,-57.617,18.555,-1000,-142.09,-741.211
1573890395,6.348,16.113,-271.973,3.906,-436.523
1573890395,85.449,25.879,-802.734,190.43,763.672
1573890395,41.504,22.949,477.051,83.496,536.621
1573890395,-45.898,23.926,-1000,-123.047,-589.355
1573890395,-17.578,33.203,-563.965,-56.641,-615.723
1573890395,86.426,30.762,978.516,167.969,501.465
1573890395,84.473,25.879,876.953,155.762,789.062
1573890395,-15.137,25.391,-602.539,-69.824,-288.574
1573890395,-22.949,20.508,-1000,-99.609,-765.137
1573890395,84.961,20.996,323.242,124.512,150.391
1573890395,124.512,29.297,-825.684,193.848,908.203
1573890395,38.574,34.18,-78.125,-11.719,-7.812
1573890395,-19.043,32.715,-1000,-119.629,-820.801
1573890395,55.664,32.715,-119.141,65.918,-235.84
1573890395,124.023,37.109,-771.973,202.148,920.898
1573890395,54.199,30.762,264.16,44.434,295.41
1573890395,-33.691,16.602,-1000,-120.605,-742.676
1573890395,15.137,18.555,-360.84,-7.324,-480.957
1573890395,107.422,31.25,-842.285,188.965,698.242
1573890395,79.59,40.527,527.344,113.77,595.215
1573890395,-20.02,41.504,-990.723,-103.027,-555.176
1573890395,-14.16,39.551,-822.266,-60.059,-714.355
1573890395,90.82,43.945,674.805,164.062,378.906
1573890395,102.051,44.922,-988.77,165.527,810.059
1573890395,-18.066,33.203,-419.922,-66.895,-276.367
1573890395,-51.27,22.949,-1000,-122.559,-812.012
1573890395,55.664,20.508,72.266,94.727,43.457
1573890395,98.145,21.484,-782.227,184.082,932.129
1573890395,7.812,22.949,110.352,-12.207,89.844
1573890395,-51.27,16.602,-1000,-137.695,-754.395
1573890395,24.902,21.484,-185.547,33.691,-250
1573890395,99.609,37.109,-775.879,187.012,877.93
1573890395,37.109,31.738,290.039,46.875,393.066
1573890395,-51.758,21.973,-1000,-140.137,-685.547
1573890395,-6.348,22.461,-463.379,-41.992,-485.84
1573890395,93.75,36.133,-911.621,160.645,664.062
1573890395,75.684,45.41,626.953,100.098,668.945
1573890395,-24.902,40.039,-928.223,-114.746,-457.031
1573890395,-24.414,33.203,-849.609,-93.75,-730.957
1573890395,77.637,33.203,629.395,132.812,329.102
1573890395,92.773,44.922,-911.621,160.645,858.887
1573890395,-10.254,34.668,-279.297,-60.547,-167.48
1573890395,-44.434,25.391,-1000,-129.395,-804.199
1573890395,55.664,39.062,43.457,75.195,-29.297
1573890395,115.723,47.363,-773.438,183.594,939.453
1573890395,32.227,42.48,124.023,1.953,129.395
1573890395,-41.504,37.109,-1000,-138.184,-784.668
1573890395,26.367,44.434,-216.309,15.137,-338.867
1573890395,112.305,50.293,-782.715,190.43,842.285
1573890395,59.57,37.598,316.895,64.453,491.699
1573890395,-37.598,29.297,-1000,-143.555,-613.77
1573890395,-1.953,37.598,-480.469,-53.223,-554.688
1573890395,102.051,32.227,-970.215,164.062,582.52
1573890395,88.867,33.203,814.941,121.582,716.309
1573890395,-19.043,34.668,-703.613,-101.074,-394.531
1573890395,-26.367,33.203,-943.848,-99.609,-783.203
1573890395,82.52,49.316,499.023,129.395,227.539
1573890395,108.887,54.199,-832.52,174.805,874.512
1573890395,12.207,41.016,-86.914,-41.016,-106.934
1573890395,-28.809,35.645,-1000,-119.141,-802.734
1573890395,64.941,45.41,-29.297,82.031,-134.766
1573890395,127.441,43.457,-754.883,206.055,925.293
1573890395,44.434,33.691,233.887,27.344,232.91
1573890395,-26.855,33.203,-1000,-130.371,-740.723
1573890395,39.062,37.598,-266.113,13.672,-395.508
1573890395,130.859,41.992,-807.617,192.871,780.762
1573890395,95.215,46.875,541.992,87.891,544.922
1573890395,0.977,54.688,-1000,-117.188,-583.496
1573890395,25.391,55.664,-551.758,-51.27,-615.723
1573890395,123.047,55.176,972.656,161.133,506.348
1573890395,118.164,50.781,974.121,138.184,765.625
1573890395,17.578,41.992,-456.543,-75.684,-333.008
1573890395,4.883,42.969,-1000,-96.191,-788.086
1573890395,103.027,54.688,359.375,116.211,154.785
1573890395,135.742,59.57,-768.066,179.688,921.387
1573890395,36.133,47.363,64.941,-32.227,-1.953
1573890395,-26.855,37.109,-1000,-143.555,-778.809
1573890395,59.082,31.25,-102.051,42.48,-190.43
1573890395,129.395,30.762,-754.883,183.105,921.387
1573890395,53.711,36.133,291.504,29.785,328.613
1573890395,-36.133,29.297,-1000,-139.648,-691.895
1573890395,12.695,34.18,-335.938,-19.043,-443.359
1573890395,108.398,42.48,-825.195,176.758,720.703
1573890395,76.172,37.109,542.48,95.215,569.824
1573890395,-25.391,45.41,-1000,-121.094,-561.035
1573890395,-17.578,51.27,-637.695,-77.637,-661.621
1573890395,79.59,41.992,875,144.043,423.34
1573890395,87.891,48.34,-981.934,140.137,817.871
1573890395,-12.695,36.133,-387.207,-86.426,-241.699
1573890395,-46.387,16.113,-1000,-126.465,-763.672
1573890395,48.34,31.738,264.648,90.332,96.191
1573890395,94.238,45.898,-771.484,176.758,917.48
1573890395,8.301,45.41,75.684,-13.184,41.992
1573890395,-48.34,31.738,-1000,-137.207,-749.512
1573890395,25.391,13.672,-173.828,26.855,-240.234
1573890395,100.586,25.391,-770.996,182.617,887.207
1573890395,45.41,38.574,316.895,43.945,351.562
1573890396,-48.828,25.879,-1000,-148.438,-717.773
1573890396,1.465,25.879,-388.672,-36.621,-479.98
1573890396,108.398,32.715,-872.559,174.316,651.367
1573890396,80.566,23.438,654.297,109.863,614.746
1573890396,-17.578,21.973,-866.211,-107.91,-512.695
1573890396,-8.301,26.367,-888.184,-83.008,-706.055
1573890396,91.309,28.32,595.215,138.184,347.168
1573890396,103.516,29.297,-930.176,161.621,827.637
1573890396,-0.488,28.32,-304.199,-54.688,-181.641
1573890396,-30.762,27.344,-1000,-120.117,-780.762
1573890396,64.453,28.809,-22.949,83.496,-49.316
1573890396,110.352,38.574,-778.32,186.035,929.199
1573890396,29.297,42.48,139.648,1.465,120.605
1573890396,-42.48,40.527,-1000,-139.16,-790.039
1573890396,21.973,27.832,-221.191,15.137,-347.656
1573890396,107.422,25.391,-785.156,184.082,806.641
1573890396,66.895,38.574,382.812,73.73,464.355
1573890396,-27.832,41.504,-1000,-115.234,-652.344
1573890396,-6.348,36.133,-531.25,-36.133,-604.492
1573890396,88.379,41.016,-968.75,174.316,565.43
1573890396,72.754,45.41,720.215,131.348,709.473
1573890396,-28.809,35.156,-831.543,-92.285,-429.199
1573890396,-33.691,39.062,-913.086,-90.82,-763.184
1573890396,62.5,43.945,558.105,133.301,282.715
1573890396,86.426,42.48,-893.555,175.293,880.859
1573890396,-7.324,36.621,-231.934,-41.992,-156.25
1573890396,-48.34,28.809,-1000,-133.301,-825.684
1573890396,44.922,39.062,-69.336,63.965,-104.98
1573890396,103.516,44.922,-776.367,187.012,921.387
1573890396,35.156,38.574,202.148,23.438,192.871
1573890396,-36.621,38.574,-1000,-135.742,-791.992
1573890396,21.973,43.945,-305.664,-4.395,-413.574
1573890396,108.398,40.039,-810.059,180.176,788.086
1573890396,68.848,33.691,370.117,75.195,496.582
1573890396,-22.949,38.086,-1000,-125,-633.789
1573890396,-5.371,39.551,-561.523,-56.152,-626.465
1573890396,95.215,38.086,946.777,155.762,502.441
1573890396,90.82,40.039,901.367,128.418,768.555
1573890396,-14.16,39.062,-595.215,-92.773,-374.023
1573890396,-20.996,34.18,-1000,-104.004,-808.105
1573890396,96.191,48.828,400.879,128.418,208.008
1573890396,128.418,52.734,-811.035,193.359,902.344
1573890396,19.043,36.621,-22.461,-30.762,-20.508
1573890396,-35.645,32.227,-1000,-137.207,-710.938
1573890396,44.922,27.832,-134.766,54.199,-135.742
1573890396,112.793,33.203,-772.461,191.895,906.25
1573890396,47.852,40.039,258.301,39.062,288.574
1573890396,-38.574,27.832,-1000,-127.93,-717.773
1573890396,10.742,23.438,-410.645,-7.324,-474.121
1573890396,104.004,39.551,-877.93,182.617,690.43
1573890396,67.383,43.457,558.594,103.516,585.938
1573890396,-37.109,35.645,-1000,-108.398,-547.363
1573890396,-25.391,30.273,-692.383,-68.359,-655.273
1573890396,75.195,35.645,840.332,148.926,448.242
1573890396,76.66,37.109,965.332,146.973,791.016
1573890396,-26.855,32.227,-494.629,-69.336,-276.367
1573890396,-46.387,33.691,-1000,-112.793,-774.902
1573890396,57.129,35.645,229.98,103.516,106.445
1573890396,103.516,32.715,-780.273,190.43,932.617
1573890396,16.602,33.691,78.125,-4.395,58.594
1573890396,-38.086,31.738,-1000,-122.559,-758.301
1573890396,40.039,28.809,-158.691,47.852,-255.371
1573890396,122.07,42.48,-768.066,203.125,878.418
1573890396,63.965,49.316,278.809,64.941,382.812
1573890396,-31.738,37.598,-1000,-125.977,-693.848
1573890396,8.789,34.668,-385.254,-24.902,-515.137
1573890396,104.98,35.645,-861.328,179.199,656.25
1573890396,84.473,23.926,577.148,118.164,635.742
1573890396,-16.602,25.391,-949.707,-99.609,-478.516
1573890396,-8.789,43.945,-830.566,-76.66,-717.773
1573890396,96.191,41.992,673.34,149.902,324.707
1573890396,105.469,21.973,-999.512,164.551,809.082
1573890396,-1.953,24.902,-422.852,-65.43,-243.652
1573890396,-31.25,39.551,-1000,-118.652,-775.879
1573890396,62.5,47.852,68.848,93.75,15.625
1573890396,103.027,49.316,-771.973,183.105,927.734
1573890396,13.672,36.133,140.137,-5.371,114.258
1573890396,-59.57,14.16,-1000,-144.043,-772.949
1573890396,13.672,19.043,-215.332,20.508,-320.312
1573890396,98.145,25.879,-780.762,191.895,828.125
1573890396,45.898,24.414,331.543,61.523,451.172
1573890396,-42.969,28.809,-1000,-129.395,-628.418
1573890396,-4.883,34.668,-566.406,-37.109,-578.125
1573890396,95.215,36.133,979.492,167.969,566.406
1573890396,76.172,36.621,719.238,120.117,698.242
1573890396,-29.785,31.25,-831.055,-99.121,-445.801
1573890396,-35.645,21.973,-936.035,-97.168,-727.539
1573890396,61.523,24.414,500.977,125.977,295.41
1573890396,85.938,26.367,-858.887,168.457,884.277
1573890396,-8.301,21.484,-155.273,-36.133,-97.168
1573890396,-46.387,22.949,-1000,-120.117,-809.082
1573890396,45.41,34.18,-50.781,75.195,-102.051
1573890396,104.98,33.691,-769.043,192.383,939.941
1573890396,25.391,20.996,186.035,14.16,216.309
1573890396,-45.898,22.949,-1000,-129.395,-768.555
1573890396,19.531,26.367,-263.672,7.812,-395.02
1573890396,106.934,34.668,-796.875,180.664,803.223
1573890396,63.477,33.203,410.645,82.52,506.836
1573890396,-35.645,22.949,-1000,-122.559,-617.676
1573890396,-2.441,33.691,-612.305,-49.316,-614.258
1573890396,93.262,36.621,951.172,169.434,510.742
1573890396,83.496,20.508,789.551,133.789,725.586
1573890396,-12.207,17.578,-729.98,-88.867,-348.145
1573890396,-31.738,22.461,-1000,-104.492,-736.328
1573890396,66.406,23.926,336.914,115.723,193.359
1573890396,106.445,31.738,-851.562,182.129,900.391
1573890396,12.695,32.227,-116.699,-28.809,-51.27
1573890396,-38.574,21.484,-1000,-130.859,-780.273
1573890396,51.27,24.414,-99.609,67.383,-145.02
1573890396,113.77,29.785,-773.926,201.172,910.645
1573890396,33.203,23.438,196.289,32.715,263.672
1573890396,-44.922,23.438,-1000,-137.207,-734.863
1573890396,13.184,20.996,-315.43,-9.277,-416.504
1573890396,99.609,30.762,-825.684,181.152,747.07
1573890396,59.57,43.457,492.188,90.332,576.172
1573890396,-40.527,32.227,-1000,-121.094,-505.371
1573890396,-23.926,23.438,-683.105,-74.707,-615.234
1573890396,75.684,24.902,843.262,143.066,447.266
1573890396,75.684,27.344,955.078,132.812,775.391
1573890396,-25.391,32.715,-490.234,-88.867,-288.574
1573890396,-43.945,29.297,-1000,-120.605,-760.254
1573890396,53.223,28.809,169.922,92.773,115.723
1573890396,91.797,34.18,-800.293,161.621,915.039
1573890396,5.371,32.227,28.809,-36.133,7.812
1573890396,-59.082,30.762,-1000,-149.902,-774.414
1573890396,24.414,30.762,-151.367,37.109,-232.91
1573890396,106.445,33.203,-772.949,189.453,896.484
1573890396,35.156,34.668,267.578,29.297,367.676
1573890396,-48.34,38.574,-1000,-145.996,-711.426
1573890396,6.348,42.969,-433.105,-31.25,-506.836
1573890396,95.703,43.457,-903.32,163.574,669.922
1573890396,68.359,38.574,642.09,96.68,623.535
1573890396,-29.785,32.715,-935.059,-108.887,-497.07
1573890396,-18.066,31.25,-742.188,-71.289,-661.133
1573890396,90.82,29.785,765.137,145.02,388.184
1573890396,104.492,27.832,-930.664,162.109,818.848
1573890396,4.883,27.832,-300.293,-53.223,-241.211
1573890396,-36.133,29.297,-1000,-125,-837.891
1573890396,53.223,29.297,165.527,83.496,-4.395
1573890396,103.516,25.391,-760.742,187.988,952.148
1573890396,20.02,19.043,120.117,-3.906,79.59
1573890396,-39.062,20.508,-1000,-132.324,-851.562
1573890396,31.738,25.879,-187.012,34.18,-348.633
1573890396,114.746,41.992,-771.484,199.219,847.656
1573890396,60.547,39.551,326.172,63.965,416.992
1573890396,-34.18,30.273,-1000,-134.766,-673.34
1573890396,6.348,26.367,-386.23,-32.227,-528.809
1573890396,112.793,24.414,-895.996,184.57,619.629
1573890396,94.727,25.391,775.391,129.883,645.508
1573890396,-15.137,11.23,-746.582,-96.68,-477.051
1573890396,-20.996,3.418,-874.023,-86.426,-759.277
1573890396,87.891,16.113,603.516,140.625,272.949
1573890396,107.91,28.809,-845.215,166.016,870.605
1573890396,3.906,23.926,-124.023,-59.082,-137.695
1573890396,-41.992,12.207,-1000,-129.395,-790.527
1573890396,43.457,16.113,41.992,76.66,-71.777
1573890396,106.445,22.949,-757.324,191.895,935.547
1573890396,27.832,9.277,174.316,9.766,166.016
1573890396,-49.805,1.465,-1000,-142.578,-787.598
1573890396,17.09,14.648,-260.254,7.812,-366.699
1573890396,105.469,37.598,-798.828,181.152,813.965
1573890396,54.688,37.598,438.477,67.871,481.934
1573890396,-48.828,23.438,-1000,-131.836,-653.32
1573890396,-19.531,28.809,-565.43,-59.082,-622.07
1573890396,85.938,36.621,969.727,157.227,528.809
1573890396,81.055,35.156,889.16,126.953,750.977
1573890396,-19.531,30.273,-600.098,-93.262,-351.074
1573890396,-23.926,30.762,-1000,-98.633,-762.695
1573890396,84.961,41.992,375,125.488,218.262
1573890396,113.77,46.387,-804.688,178.711,922.363
1573890396,5.859,38.086,-50.781,-41.992,-80.078
1573890396,-46.387,33.691,-1000,-134.277,-809.082
1573890396,46.387,31.25,-67.383,63.965,-115.234
1573890396,110.84,40.039,-760.742,191.895,949.219
1573890396,41.016,36.621,241.699,29.297,303.711
1573890396,-28.809,33.203,-1000,-124.512,-698.73
1573890396,30.273,41.992,-311.035,11.23,-365.723
1573890396,114.746,37.598,-811.035,196.777,779.785
1573890396,77.637,39.551,450.684,104.004,564.941
1573890396,-13.184,47.852,-1000,-106.934,-555.176
1573890396,-3.418,39.062,-653.32,-63.965,-656.738
1573890396,91.797,39.062,879.883,152.344,463.379
1573890396,94.727,46.387,912.598,147.461,782.715
1573890396,-5.371,33.691,-561.035,-78.613,-250.977
1573890396,-21.484,26.855,-1000,-113.77,-726.562
1573890396,78.125,34.18,301.27,109.863,147.461
1573890396,110.84,36.133,-802.246,183.594,929.199
1573890396,19.531,25.879,-18.555,-21.484,-9.766
1573890396,-30.273,24.414,-1000,-133.301,-821.289
1573890396,49.805,43.457,-125.488,54.688,-218.262
1573890396,117.188,50.293,-769.531,199.707,899.414
1573890396,47.852,28.809,265.137,34.18,311.035
1573890396,-39.551,24.902,-1000,-142.578,-751.465
1573890396,4.395,30.762,-357.422,-21.973,-533.691
1573890396,92.773,23.438,-850.586,174.316,676.27
1573890396,61.523,22.461,590.82,95.215,625.977
1573890396,-36.621,6.348,-937.988,-119.141,-530.273
1573890396,-21.484,2.93,-819.824,-82.52,-734.863
1573890396,82.031,22.949,681.641,142.578,366.211
1573890396,96.191,38.086,-967.285,156.25,813.477
1573890396,-0.488,36.621,-384.766,-61.523,-245.605
1573890396,-41.992,26.855,-1000,-117.188,-805.664
1573890396,46.387,29.297,88.379,84.961,29.297
1573890396,100.586,33.203,-770.508,186.035,952.637
1573890396,18.066,32.227,121.094,2.93,86.914
1573890396,-43.945,26.367,-1000,-132.812,-805.176
1573890396,36.133,23.438,-213.867,35.156,-315.918
1573890396,114.258,28.32,-779.785,194.336,860.84
1573890396,63.965,26.855,350.586,61.035,398.438
1573890396,-25.879,27.832,-1000,-130.371,-690.918
1573890396,5.859,33.203,-423.828,-34.18,-544.922
1573890396,113.281,49.316,-901.367,185.547,609.375
1573890396,101.074,52.246,719.727,134.766,667.969
1573890396,-6.348,36.621,-808.594,-96.191,-461.426
1573890396,-7.324,33.203,-905.762,-86.426,-705.566
1573890396,98.633,28.32,582.031,143.066,330.078
1573890396,122.07,28.809,-894.043,174.805,856.934
1573890396,22.949,36.621,-262.207,-50.293,-154.785
1573890396,-22.461,41.992,-1000,-119.629,-812.5
1573890396,68.848,42.969,36.133,97.168,-67.383
1573890396,131.836,42.48,-773.926,209.961,946.289
1573890396,48.828,39.551,142.09,20.996,155.273
1573890396,-24.414,30.273,-1000,-125.977,-777.832
1573890396,47.852,27.832,-250,32.227,-326.66
1573890396,124.023,31.25,-792.969,204.59,839.844
1573890396,70.312,34.18,348.145,82.52,493.164
1573890396,-23.926,34.18,-1000,-113.77,-613.77
1573890396,0,25.391,-521.484,-37.598,-567.871
1573890396,102.539,22.949,-995.605,182.129,555.176
1573890396,89.844,28.32,798.34,145.02,742.188
1573890396,-18.555,24.902,-714.355,-87.402,-357.91
1573890396,-24.414,24.414,-979.98,-86.426,-772.461
1573890396,73.73,31.738,453.613,135.254,226.074
1573890396,99.121,30.273,-847.168,180.176,882.324
1573890396,8.301,23.926,-128.906,-29.785,-142.09
1573890396,-41.504,20.508,-1000,-124.023,-805.176
1573890396,43.457,21.973,-102.539,59.57,-132.812
1573890396,109.375,29.297,-771.973,186.035,901.367
1573890396,27.832,20.508,230.469,20.508,262.207
1573890396,-55.176,4.395,-1000,-145.02,-770.508
1573890396,1.953,7.324,-311.523,-12.207,-471.68
1573890396,94.727,20.508,-816.406,177.734,753.906
1573890396,58.105,26.367,473.633,87.891,555.664
1573890396,-38.574,22.461,-1000,-115.723,-566.406
1573890396,-16.113,15.625,-616.699,-60.547,-605.469
1573890396,81.055,20.508,924.316,151.855,500.488
1573890396,81.543,24.414,889.16,141.602,749.512
1573890396,-17.09,18.555,-591.797,-75.684,-349.121
1573890396,-38.574,15.625,-1000,-104.004,-793.457
1573890396,67.871,25.879,285.156,115.234,131.836
1573890396,109.375,24.902,-805.176,181.641,915.527
1573890396,16.113,21.484,-10.742,-20.996,-81.055
1573890396,-35.156,30.273,-1000,-129.395,-887.695
1573890396,45.898,41.504,-133.301,52.246,-230.469
1573890396,121.094,38.086,-770.02,201.66,916.016
1573890396,54.199,25.391,248.047,46.875,309.082
1573890397,-35.156,28.32,-1000,-126.465,-733.887
1573890397,10.742,28.32,-351.562,-7.812,-455.566
1573890397,101.562,27.344,-838.379,184.57,708.008
1573890397,67.871,27.832,496.582,106.445,613.281
1573890397,-28.809,13.184,-1000,-104.004,-479.004
1573890397,-20.02,13.672,-750.977,-69.336,-660.156
1573890397,79.102,33.691,765.137,144.531,414.062
1573890397,92.773,33.691,979.004,145.996,789.062
1573890397,-7.812,25.391,-463.379,-77.148,-326.172
1573890397,-33.691,26.367,-1000,-122.559,-845.703
1573890397,67.871,30.273,140.625,93.262,35.156
1573890397,119.141,33.203,-774.414,187.5,932.129
1573890397,27.832,30.762,102.539,-5.859,79.59
1573890397,-36.621,21.973,-1000,-130.859,-816.406
1573890397,38.574,20.508,-169.922,36.621,-294.434
1573890397,111.328,13.672,-770.02,185.547,897.461
1573890397,49.316,15.625,303.711,51.758,409.668
1573890397,-45.41,22.949,-1000,-131.348,-695.801
1573890397,-10.254,20.996,-470.215,-40.039,-543.457
1573890397,80.078,18.555,-939.453,154.785,624.512
1573890397,58.105,17.578,684.082,96.68,666.504
1573890397,-44.434,15.137,-869.629,-116.211,-461.914
1573890397,-42.48,9.766,-872.07,-90.332,-718.262
1573890397,66.895,15.625,614.258,138.672,329.59
1573890397,84.961,27.344,-901.367,164.551,843.75
1573890397,-10.742,28.809,-252.441,-54.199,-189.941
1573890397,-47.852,17.578,-1000,-120.117,-802.246
1573890397,42.48,18.066,33.691,87.891,-24.902
1573890397,104.004,35.156,-770.02,193.848,951.66
1573890397,16.602,30.762,148.926,10.254,175.781
1573890397,-58.594,15.137,-1000,-135.742,-742.676
1573890397,18.555,19.043,-248.535,20.02,-353.516
1573890397,107.422,29.297,-792.48,200.195,822.754
1573890397,58.594,23.438,402.832,84.473,507.812
1573890397,-31.25,20.02,-1000,-114.258,-592.285
1573890397,0.488,30.273,-493.652,-37.109,-534.18
1573890397,99.609,28.32,-948.242,176.758,582.52
1573890397,92.285,11.719,770.508,140.625,710.938
1573890397,-2.441,27.344,-756.836,-84.473,-390.625
1573890397,-10.742,41.016,-960.449,-91.309,-736.816
1573890397,84.473,34.18,499.023,127.441,262.695
1573890397,108.398,32.715,-883.301,175.781,868.652
1573890397,11.719,25.879,-208.496,-34.18,-150.879
1573890397,-31.738,24.414,-1000,-119.141,-808.105
1573890397,60.059,30.762,-15.625,76.66,-93.262
1573890397,124.023,33.691,-767.09,198.73,924.805
1573890397,43.945,37.109,171.875,26.855,225.098
1573890397,-36.133,32.227,-1000,-129.395,-726.562
1573890397,27.344,24.902,-250.977,9.766,-399.414
1573890397,114.258,36.133,-807.129,187.012,769.043
1573890397,64.941,35.156,524.902,81.055,570.312
1573890397,-42.969,18.066,-1000,-129.395,-532.227
1573890397,-20.508,17.578,-549.805,-62.012,-606.445
1573890397,83.496,25.391,974.609,160.645,497.07
1573890397,82.52,23.438,954.102,129.883,753.418
1573890397,-21.973,19.043,-497.559,-99.121,-320.312
1573890397,-37.109,21.484,-1000,-121.094,-733.398
1573890397,65.43,22.461,385.742,99.609,179.199
1573890397,97.656,20.996,-787.598,171.875,900.879
1573890397,7.812,20.508,43.457,-32.227,-24.414
1573890397,-49.316,16.113,-1000,-141.113,-776.367
1573890397,27.832,20.996,-116.699,47.852,-181.152
1573890397,96.191,27.344,-762.207,184.57,915.527
1573890397,22.461,22.949,263.672,18.555,313.477
1573890397,-60.059,14.648,-1000,-151.367,-702.148
1573890397,-0.488,20.02,-375.977,-29.785,-489.746
1573890397,98.633,36.133,-860.84,169.922,680.176
1573890397,69.824,38.086,611.816,99.121,604.98
1573890397,-32.715,36.133,-969.727,-115.723,-535.156
1573890397,-17.578,29.297,-655.762,-72.266,-647.461
1573890397,89.355,30.762,871.582,155.273,444.336
1573890397,91.309,43.457,-990.234,153.32,789.062
1573890397,-11.23,47.363,-395.02,-72.266,-267.09
1573890397,-36.133,43.457,-1000,-108.887,-754.395
1573890397,63.965,38.574,226.074,100.586,74.219
1573890397,112.793,42.969,-777.344,187.5,907.715
1573890397,17.578,51.758,57.617,-2.441,19.531
1573890397,-44.434,51.758,-1000,-128.906,-792.969
1573890397,32.715,54.199,-153.809,51.27,-250.488
1573890397,107.422,53.223,-769.531,208.496,864.258
1573890397,51.27,41.016,262.695,58.594,373.047
1573890397,-41.992,45.898,-1000,-128.418,-690.918
1573890397,3.418,56.152,-386.23,-19.531,-544.922
1573890397,105.957,65.43,-881.348,183.105,625
1573890397,76.66,60.547,668.457,110.84,648.926
1573890397,-28.32,48.828,-862.793,-102.051,-496.094
1573890397,-20.996,60.547,-872.559,-72.266,-754.395
1573890397,77.637,64.941,615.234,148.438,305.176
1573890397,92.285,61.035,-906.738,166.016,842.773
1573890397,-7.324,52.734,-291.504,-56.152,-174.805
1573890397,-41.016,40.039,-1000,-120.605,-795.898
1573890397,53.711,55.176,100.098,83.496,-16.602
1573890397,104.004,72.266,-764.16,178.711,907.715
1573890397,14.16,58.105,155.762,-8.301,114.746
1573890397,-54.199,45.898,-1000,-145.508,-779.297
1573890397,13.184,50.781,-247.559,7.812,-363.77
1573890397,88.867,56.641,-792.969,171.875,823.73
1573890397,44.922,65.43,383.301,52.246,496.094
1573890397,-40.039,58.594,-1000,-136.23,-618.164
1573890397,0,49.316,-541.504,-40.039,-580.078
1573890397,96.68,71.289,-988.281,163.574,583.984
1573890397,57.129,85.449,777.832,90.82,708.496
1573890397,-46.875,83.496,-754.395,-127.93,-384.277
1573890397,-43.945,88.379,-960.938,-123.047,-720.215
1573890397,43.457,97.656,492.188,84.961,262.695
1573890397,60.547,92.285,-871.094,116.211,882.812
1573890397,-45.41,81.055,-188.965,-112.305,-131.348
1573890397,-106.934,104.004,-1000,-215.332,-795.41
1573890397,-45.898,128.418,-43.457,-36.621,-88.867
1573890397,-7.812,143.066,-770.508,69.336,934.082
1573890397,-87.891,154.785,199.707,-114.258,232.91
1573890397,-171.387,164.551,-1000,-283.691,-746.094
1573890397,-118.652,164.551,-307.617,-160.156,-388.672
1573890397,-39.551,171.387,-812.988,11.23,791.992
1573890397,-99.609,183.594,411.133,-110.352,548.828
1573890397,-206.543,166.504,-1000,-336.914,-590.82
1573890397,-180.664,166.992,-621.582,-264.648,-659.18
1573890397,-84.961,207.52,926.758,-36.621,493.652
1573890397,-102.051,209.961,822.266,-75.195,762.207
1573890397,-196.289,197.754,-685.547,-290.527,-317.871
1573890397,-196.777,187.012,-1000,-290.039,-767.578
1573890397,-87.402,173.828,350.586,-69.336,163.574
1573890397,-61.523,179.688,-828.125,-14.648,889.16
1573890397,-148.438,191.895,-96.191,-218.75,-81.055
1573890397,-185.059,185.059,-1000,-304.199,-803.711
1573890397,-85.449,185.547,-72.754,-102.539,-166.504
1573890397,-0.488,175.781,-764.16,33.203,902.832
1573890397,-58.105,155.762,250.977,-106.445,274.902
1573890397,-131.836,159.18,-1000,-244.629,-774.414
1573890397,-65.43,138.184,-306.641,-109.863,-501.953
1573890397,42.969,115.234,-827.637,90.82,718.75
1573890397,17.578,113.281,582.031,19.531,606.445
1573890397,-86.426,100.098,-965.332,-189.941,-494.141
1573890397,-59.082,95.215,-700.684,-138.672,-666.992
1573890397,65.918,97.656,827.148,104.492,420.41
1573890397,81.543,96.68,992.188,115.723,791.992
1573890397,-12.207,99.609,-423.34,-111.816,-297.363
1573890397,-25.391,96.191,-1000,-137.695,-788.086
1573890397,79.59,88.379,144.043,87.402,90.82
1573890397,123.535,83.496,-773.926,174.316,925.293
1573890397,37.109,75.684,99.121,-14.648,42.969
1573890397,-23.438,69.824,-1000,-135.742,-764.16
1573890397,72.266,71.777,-144.531,63.965,-225.098
1573890397,144.531,64.453,-763.184,213.867,891.113
1573890397,63.477,67.871,344.727,51.758,383.301
1573890397,-15.137,72.754,-1000,-118.164,-645.996
1573890397,27.832,73.242,-351.562,-14.16,-475.586
1573890397,123.535,74.219,-846.191,190.43,661.621
1573890397,102.539,76.66,643.555,125.488,638.184
1573890397,4.395,62.988,-910.156,-88.379,-502.93
1573890397,11.23,67.383,-742.676,-46.387,-743.164
1573890397,118.652,88.867,773.438,176.27,342.285
1573890397,127.93,85.938,-918.945,178.711,845.703
1573890397,30.762,77.637,-293.945,-36.133,-210.449
1573890397,-7.324,77.148,-1000,-91.309,-795.41
1573890397,77.148,77.637,190.918,117.188,43.945
1573890397,139.648,87.891,-767.09,224.609,961.914
1573890397,59.082,86.914,99.609,27.344,98.145
1573890397,-23.926,73.73,-1000,-116.211,-799.805
1573890397,53.223,94.238,-213.379,48.34,-328.613
1573890397,149.414,113.281,-780.762,220.215,834.961
1573890397,85.938,101.074,328.125,83.496,413.086
1573890397,-18.066,89.355,-1000,-114.258,-634.766
1573890397,17.09,101.074,-416.504,-20.02,-509.277
1573890397,117.676,83.984,-919.922,180.664,598.145
1573890397,102.051,59.57,792.969,133.789,697.754
1573890397,1.953,88.867,-736.816,-80.078,-395.996
1573890397,3.418,84.473,-887.207,-72.266,-733.887
1573890397,101.562,74.219,600.098,151.367,271.484
1573890397,115.234,102.051,-856.934,182.617,870.605
1573890397,11.719,101.562,-140.137,-32.227,-145.996
1573890397,-30.762,70.312,-1000,-103.516,-828.125
1573890397,56.152,59.57,-20.996,94.727,-100.098
1573890397,117.188,98.145,-765.137,213.867,944.336
1573890397,45.41,111.816,208.008,36.133,190.43
1573890397,-34.668,101.562,-1000,-122.559,-812.988
1573890397,33.203,91.797,-324.219,24.414,-452.637
1573890397,126.953,97.168,-819.824,197.754,772.461
1573890397,75.684,104.004,439.941,88.379,506.836
1573890397,-17.09,76.66,-1000,-101.562,-626.953
1573890397,16.113,81.543,-554.688,-27.832,-605.957
1573890397,111.816,101.562,986.328,179.199,544.922
1573890397,100.098,99.609,853.516,145.02,726.562
1573890397,-4.395,107.422,-661.133,-75.195,-403.809
1573890397,-18.555,99.609,-995.605,-89.355,-792.48
1573890397,86.914,92.773,422.852,125,176.758
1573890397,124.512,102.539,-814.941,188.477,927.246
1573890397,20.508,99.121,-47.363,-18.066,-77.148
1573890397,-28.809,92.773,-1000,-125,-840.332
1573890397,64.453,104.492,-81.055,64.941,-140.625
1573890397,127.441,108.398,-763.672,208.984,923.34
1573890397,49.316,106.934,226.074,41.992,304.199
1573890397,-35.156,106.934,-1000,-134.277,-701.66
1573890397,21.484,94.727,-308.105,0.977,-439.453
1573890397,112.305,101.562,-813.477,192.383,752.441
1573890397,65.43,112.793,440.918,95.703,557.129
1573890397,-33.691,114.746,-1000,-107.422,-616.211
1573890397,-15.625,111.816,-655.762,-54.688,-723.145
1573890397,84.473,113.77,855.469,161.133,435.059
1573890397,94.238,126.953,969.727,155.273,787.598
1573890397,-9.277,115.723,-491.699,-66.406,-338.379
1573890397,-27.832,106.934,-1000,-92.285,-837.891
1573890397,66.406,93.262,276.855,126.953,110.84
1573890397,103.516,102.539,-780.273,199.707,927.246
1573890397,23.438,132.812,51.758,-3.906,-0.488
1573890397,-34.18,131.348,-1000,-122.559,-791.504
1573890397,34.668,116.699,-140.625,47.852,-218.262
1573890397,104.492,101.562,-766.602,191.406,906.738
1573890397,51.27,94.727,274.902,53.711,362.305
1573890397,-22.949,114.258,-1000,-115.723,-702.148
1573890397,16.602,124.023,-383.301,-12.207,-494.141
1573890397,103.516,115.723,-878.418,185.547,674.316
1573890397,76.66,113.77,648.926,119.629,651.367
1573890397,-23.438,108.887,-895.02,-97.168,-459.473
1573890397,-15.625,101.074,-829.59,-66.406,-695.801
1573890397,89.844,104.98,685.547,155.762,372.559
1573890397,96.191,102.539,-922.363,160.645,829.59
1573890397,-14.16,87.891,-315.918,-62.012,-230.469
1573890397,-36.133,96.68,-1000,-110.84,-792.48
1573890397,76.172,101.562,136.719,109.863,30.762
1573890397,119.629,92.285,-766.113,207.52,948.73
1573890397,27.832,89.355,127.441,14.16,108.398
1573890397,-30.273,110.352,-1000,-119.141,-781.25
1573890397,39.551,113.77,-184.082,40.039,-290.527
1573890397,112.793,91.797,-771.973,198.73,873.047
1573890397,62.988,113.281,399.414,73.73,442.383
1573890397,-30.273,109.375,-1000,-115.234,-648.926
1573890397,-0.488,105.469,-399.414,-26.855,-547.363
1573890397,102.051,114.746,-888.672,187.988,609.375
1573890397,82.031,105.469,780.273,137.695,698.73
1573890397,-25.391,101.074,-758.301,-94.238,-426.758
1573890397,-21.484,112.305,-865.234,-80.566,-713.379
1573890397,89.844,119.141,665.527,150.391,319.824
1573890397,107.91,110.352,-910.645,178.223,852.539
1573890397,5.371,108.887,-278.809,-42.969,-188.477
1573890397,-42.48,115.234,-1000,-125.488,-834.473
1573890397,37.109,108.887,57.129,73.242,-63.477
1573890397,98.145,108.398,-758.789,190.43,943.359
1573890397,30.273,122.559,200.684,17.09,179.688
1573890397,-45.41,115.723,-1000,-133.301,-706.055
1573890397,12.207,112.305,-234.863,12.695,-299.316
1573890397,93.75,117.188,-787.109,184.57,815.918
1573890397,55.176,119.141,445.801,75.195,515.625
1573890397,-27.344,125.488,-1000,-114.746,-607.422
1573890397,-10.742,135.742,-563.477,-47.363,-622.559
1573890397,84.473,136.719,973.633,165.527,512.695
1573890397,73.73,136.719,875.977,132.812,750.488
1573890397,-26.855,149.902,-609.375,-78.125,-377.93
1573890397,-19.043,149.902,-1000,-74.219,-839.844
1573890397,70.801,132.812,367.676,128.418,145.02
1573890397,90.82,139.16,-830.078,175.293,877.93
1573890397,-5.859,152.344,-74.707,-37.109,-98.145
1573890397,-56.641,157.227,-1000,-136.23,-851.562
1573890397,31.738,166.992,-117.676,51.758,-162.109
1573890397,77.148,158.203,-775.391,166.504,944.336
1573890397,-1.465,153.32,215.82,-4.883,284.18
1573890398,-62.5,156.738,-1000,-157.715,-701.172
1573890398,9.766,160.645,-384.766,-16.602,-426.758
1573890398,83.008,164.062,-852.539,158.203,745.117
1573890398,1.465,152.344,477.051,36.621,582.52
1573890398,-109.863,152.344,-1000,-185.547,-572.754
1573890398,-92.773,162.109,-716.309,-134.277,-651.367
1573890398,-0.488,175.781,822.266,83.496,462.891
1573890398,-10.742,161.621,882.812,68.359,806.152
1573890398,-129.883,156.738,-599.121,-183.105,-287.598
1573890398,-157.715,170.898,-1000,-229.492,-811.035
1573890398,-74.707,164.062,179.199,-18.555,136.23
1573890398,-52.246,164.062,-838.379,49.805,942.383
1573890398,-143.555,158.203,-92.285,-147.949,11.23
1573890398,-205.566,153.809,-1000,-267.09,-780.762
1573890398,-137.695,152.832,-159.668,-97.656,-201.66
1573890398,-63.477,147.949,-788.574,50.781,897.461
1573890398,-113.281,148.926,219.727,-84.473,371.582
1573890398,-190.43,146.973,-1000,-255.859,-694.824
1573890398,-145.996,145.02,-413.086,-140.137,-529.785
1573890398,-41.992,134.277,-880.371,70.312,673.34
1573890398,-53.223,126.953,512.695,15.625,611.816
1573890398,-145.996,118.164,-1000,-186.523,-532.227
1573890398,-118.652,105.957,-829.102,-139.16,-694.336
1573890398,10.254,93.262,647.949,102.539,381.348
1573890398,22.949,80.566,-985.84,116.211,836.426
1573890398,-68.359,71.289,-425.293,-93.75,-218.262
1573890398,-69.824,62.012,-1000,-125,-792.48
1573890398,48.34,65.918,103.516,100.098,44.922
1573890398,112.305,69.824,-775.879,207.52,926.758
1573890398,27.344,59.082,116.211,32.227,97.168
1573890398,-26.855,52.734,-1000,-87.891,-787.109
1573890398,63.965,46.875,-208.496,81.055,-323.242
1573890398,155.762,51.758,-782.227,258.301,864.746
1573890398,102.539,54.199,336.426,135.254,421.875
1573890398,14.648,31.738,-1000,-52.734,-671.387
1573890398,60.547,26.367,-513.672,55.664,-527.344
1573890398,166.504,40.039,-958.984,269.531,627.93
1573890398,154.785,48.34,700.684,212.891,654.785
1573890398,64.453,50.781,-867.188,1.465,-524.414
1573890398,74.219,45.41,-856.445,27.344,-757.324
1573890398,171.875,45.898,629.395,252.93,322.754
1573890398,193.848,48.34,-896.973,277.344,877.441
1573890398,100.586,47.363,-244.629,63.477,-201.172
1573890398,53.711,39.062,-1000,-16.602,-853.027
1573890398,140.137,36.133,26.855,177.734,-50.293
1573890398,205.566,36.621,-767.09,289.551,944.336
1573890398,123.047,36.133,173.828,105.957,197.754
1573890398,47.363,45.898,-1000,-39.062,-764.16
1573890398,112.305,47.363,-257.812,106.934,-377.441
1573890398,193.359,53.223,-792.969,274.414,820.801
1573890398,145.996,62.988,380.859,159.18,516.602
1573890398,49.805,58.105,-1000,-40.527,-616.211
1573890398,81.055,51.758,-520.996,33.203,-593.75
1573890398,183.594,53.223,-970.703,246.094,569.336
1573890398,161.621,59.57,737.305,203.613,738.77
1573890398,51.758,65.918,-787.109,-25.879,-415.039
1573890398,42.969,65.918,-965.332,-37.109,-791.992
1573890398,138.672,67.383,464.844,185.059,239.258
1573890398,169.922,78.613,-852.539,230.957,895.996
1573890398,71.777,73.242,-148.926,14.16,-111.816
1573890398,16.113,68.848,-1000,-71.777,-853.516
1573890398,105.957,73.73,-55.176,121.094,-138.672
1573890398,166.504,64.453,-771.973,242.676,918.945
1573890398,86.914,59.57,189.941,78.125,200.195
1573890398,11.23,62.5,-1000,-83.984,-779.785
1573890398,65.43,56.641,-328.613,52.734,-454.59
1573890398,145.02,62.5,-829.59,241.211,747.559
1573890398,104.492,69.336,482.91,134.277,569.336
1573890398,7.324,64.941,-1000,-74.707,-599.609
1573890398,33.691,70.312,-660.156,-12.207,-686.035
1573890398,133.789,60.059,875.977,200.684,476.074
1573890398,124.023,56.152,896.973,177.734,774.414
1573890398,19.531,69.824,-577.637,-52.246,-340.82
1573890398,0.488,65.918,-1000,-73.242,-788.574
1573890398,99.121,68.359,199.707,139.648,147.949
1573890398,135.254,66.895,-798.828,196.777,920.898
1573890398,48.34,51.758,26.855,-2.93,8.301
1573890398,-0.977,46.875,-1000,-107.422,-798.34
1573890398,76.172,51.758,-133.301,77.637,-223.633
1573890398,138.184,55.176,-766.113,221.191,925.293
1573890398,76.66,57.129,285.645,73.73,364.258
1573890398,-3.906,58.594,-1000,-98.145,-729.004
1573890398,48.828,46.875,-350.098,23.926,-497.559
1573890398,145.508,46.387,-839.355,219.727,705.566
1573890398,105.957,58.594,555.664,135.742,610.84
1573890398,0,46.387,-987.305,-77.148,-555.176
1573890398,19.531,39.062,-737.793,-38.086,-689.941
1573890398,129.395,48.828,791.992,180.664,437.012
1573890398,136.719,52.246,988.77,180.664,803.223
1573890398,38.086,58.594,-458.496,-39.062,-295.41
1573890398,9.277,55.176,-1000,-85.449,-824.219
1573890398,104.492,45.41,185.547,128.418,86.426
1573890398,149.902,53.711,-788.086,215.332,972.168
1573890398,56.641,54.688,42.969,11.719,55.664
1573890398,-14.648,43.457,-1000,-119.141,-830.566
1573890398,56.152,43.945,-187.988,50.293,-289.062
1573890398,139.16,51.27,-779.785,215.82,885.742
1573890398,82.52,50.781,281.738,80.078,445.312
1573890398,-11.23,43.945,-1000,-114.746,-666.016
1573890398,21.973,38.574,-394.043,-17.09,-528.32
1573890398,121.094,43.457,-881.348,192.383,670.898
1573890398,100.098,44.922,658.203,124.512,656.738
1573890398,-8.301,41.992,-881.836,-93.262,-473.633
1573890398,1.953,41.504,-850.098,-62.988,-719.727
1573890398,98.633,40.039,645.996,145.02,331.055
1573890398,101.074,41.016,-917.969,166.016,845.703
1573890398,10.742,41.992,-282.715,-41.504,-191.406
1573890398,-25.879,41.504,-1000,-99.121,-807.617
1573890398,60.059,39.062,24.414,96.191,-38.574
1573890398,128.906,32.715,-770.996,204.102,938.965
1573890398,58.594,35.156,164.551,35.645,118.652
1573890398,-23.438,41.504,-1000,-119.141,-785.156
1573890398,49.805,44.922,-264.16,37.109,-325.684
1573890398,135.254,55.176,-795.41,219.727,834.473
1573890398,78.613,55.664,388.184,96.191,484.863
1573890398,2.93,55.664,-1000,-90.82,-665.527
1573890398,38.086,54.688,-502.93,-18.555,-627.93
1573890398,130.859,46.387,-961.426,187.012,566.406
1573890398,123.047,48.828,761.23,163.086,708.496
1573890398,22.461,56.152,-767.578,-51.27,-437.988
1573890398,19.043,58.594,-952.148,-60.547,-730.469
1573890398,132.324,63.965,502.441,160.156,285.645
1573890398,169.434,78.613,-859.863,216.309,898.926
1573890398,61.523,80.078,-177.246,4.395,-140.625
1573890398,5.859,63.965,-1000,-96.68,-880.371
1573890398,95.703,58.594,-23.438,97.168,-124.023
1573890398,157.227,71.777,-761.23,231.934,953.613
1573890398,94.238,81.055,212.402,61.035,216.309
1573890398,20.02,69.824,-1000,-93.75,-741.699
1573890398,57.129,67.871,-256.836,51.27,-359.375
1573890398,138.672,76.66,-789.551,229.492,789.551
1573890398,96.191,75.684,409.668,115.723,527.832
1573890398,-2.441,68.359,-1000,-97.168,-611.816
1573890398,20.02,53.223,-529.297,-40.039,-651.855
1573890398,120.605,52.246,-990.234,180.664,505.371
1573890398,121.582,59.57,835.449,169.922,750
1573890398,6.836,55.664,-680.176,-64.941,-415.527
1573890398,-16.113,58.105,-979.492,-106.445,-836.426
1573890398,84.473,66.406,426.27,113.281,161.133
1573890398,100.586,61.523,-788.574,187.5,909.668
1573890398,-0.488,56.152,41.504,-24.414,-43.457
1573890398,-42.48,52.246,-1000,-142.578,-819.336
1573890398,46.875,50.293,-93.75,41.504,-185.547
1573890398,117.676,58.105,-755.859,189.941,921.387
1573890398,48.828,54.199,269.043,31.738,316.895
1573890398,-26.367,46.875,-1000,-142.09,-744.629
1573890398,21.973,47.363,-320.801,-19.043,-511.23
1573890398,107.422,48.828,-830.566,173.828,721.68
1573890398,80.078,50.293,575.684,96.191,590.82
1573890398,-17.578,44.922,-951.66,-115.723,-537.598
1573890398,3.906,46.387,-787.109,-71.777,-691.406
1573890398,103.027,53.223,723.633,150.391,406.25
1573890398,104.004,54.199,-974.121,154.785,788.574
1573890398,2.441,50.781,-412.598,-66.406,-292.969
1573890398,-27.832,49.316,-1000,-121.582,-758.301
1573890398,77.148,47.852,216.309,95.703,89.355
1573890398,121.094,48.828,-777.344,185.059,923.828
1573890398,23.438,54.199,82.52,-16.602,48.34
1573890398,-31.738,37.109,-1000,-126.465,-810.547
1573890398,47.363,24.902,-178.223,37.598,-260.742
1573890398,109.863,43.945,-771.484,172.852,899.902
1573890398,52.246,52.246,321.289,45.898,367.188
1573890398,-30.762,41.992,-1000,-131.836,-724.609
1573890398,11.23,42.969,-379.395,-31.738,-550.781
1573890398,106.934,51.758,-862.793,164.062,641.113
1573890398,80.566,48.828,644.043,97.656,659.668
1573890398,-17.09,44.922,-891.113,-107.91,-451.172
1573890398,-11.23,40.527,-856.934,-91.797,-697.754
1573890398,84.473,41.016,677.734,123.047,356.445
1573890398,100.098,44.922,-992.676,154.785,833.984
1573890398,-1.465,43.457,-443.359,-74.707,-230.957
1573890398,-42.969,38.574,-1000,-145.02,-813.965
1573890398,56.641,38.574,98.145,76.66,22.461
1573890398,111.816,40.039,-772.461,187.012,964.355
1573890398,26.855,38.086,132.324,-1.953,91.309
1573890398,-39.551,34.18,-1000,-141.602,-829.59
1573890398,31.25,32.227,-209.961,27.344,-337.891
1573890398,106.934,34.18,-780.762,196.289,854.004
1573890398,48.34,34.668,368.652,62.988,455.078
1573890398,-44.434,22.949,-1000,-129.883,-650.391
1573890398,-3.418,27.344,-527.344,-38.574,-558.594
1573890398,95.215,36.621,-980.469,169.922,606.445
1573890398,77.637,37.109,762.695,120.117,692.871
1573890398,-24.902,37.598,-777.344,-101.562,-434.57
1573890398,-25.391,41.504,-930.176,-91.309,-735.352
1573890398,92.773,48.828,513.184,140.625,268.555
1573890398,122.07,51.27,-854.004,180.664,855.469
1573890398,18.066,46.875,-127.93,-32.227,-143.066
1573890398,-20.508,42.969,-1000,-111.328,-800.781
1573890398,74.707,46.387,-71.777,84.961,-112.305
1573890398,130.859,41.504,-768.555,206.543,941.406
1573890398,47.852,35.156,190.43,34.668,234.375
1573890398,-21.973,50.781,-1000,-125.977,-756.836
1573890398,46.387,61.035,-251.465,19.531,-397.461
1573890398,125.977,50.781,-797.363,203.125,786.133
1573890398,82.031,43.945,460.449,95.215,551.758
1573890398,-11.719,41.016,-1000,-111.816,-587.891
1573890398,2.93,35.645,-540.039,-44.922,-656.25
1573890398,100.098,41.016,979.492,179.199,498.047
1573890398,97.656,37.109,926.758,149.414,759.277
1573890398,-4.395,31.25,-558.594,-73.73,-357.422
1573890398,-19.531,31.25,-987.793,-84.473,-759.277
1573890398,77.148,21.973,451.66,126.465,207.52
1573890398,110.352,29.297,-807.129,191.895,888.184
1573890398,16.602,32.227,-31.25,-2.441,-64.453
1573890398,-36.621,19.531,-1000,-110.84,-778.809
1573890398,51.27,23.438,-77.148,64.941,-173.34
1573890398,123.047,31.738,-759.766,199.219,910.156
1573890398,52.734,25.879,237.793,44.434,303.223
1573890398,-28.32,27.832,-1000,-124.023,-701.66
1573890398,24.414,32.715,-288.574,5.371,-435.547
1573890398,114.746,38.574,-819.336,203.613,738.281
1573890398,84.473,43.457,561.035,110.352,564.453
1573890398,-15.137,31.25,-990.723,-108.398,-567.871
1573890398,-8.301,26.855,-651.367,-58.594,-666.992
1573890398,90.332,35.645,895.02,164.062,433.105
1573890398,93.262,36.133,946.777,152.832,763.184
1573890398,-11.719,37.109,-512.207,-78.613,-340.332
1573890398,-31.25,24.902,-1000,-108.887,-767.578
1573890398,71.289,24.902,301.758,110.84,127.93
1573890398,110.84,42.48,-774.902,189.941,907.227
1573890398,24.414,43.945,85.449,-4.395,26.367
1573890398,-39.551,33.203,-1000,-126.953,-805.176
1573890398,33.203,31.25,-162.598,46.387,-278.809
1573890398,107.422,29.785,-769.043,204.102,885.742
1573890398,43.457,21.484,320.801,54.688,395.996
1573890398,-41.016,24.902,-1000,-131.348,-716.797
1573890398,3.906,32.715,-439.941,-16.602,-539.062
1573890398,99.121,39.551,-902.832,189.941,666.016
1573890398,85.938,41.504,670.41,123.047,682.129
1573890398,-10.742,42.48,-854.492,-93.75,-453.125
1573890398,-10.742,41.504,-908.203,-68.848,-758.301
1573890398,90.332,40.039,566.406,154.297,331.543
1573890398,103.516,37.598,-918.945,167.48,844.238
1573890398,1.465,34.668,-327.148,-59.082,-266.602
1573890398,-36.621,36.133,-1000,-123.047,-853.027
1573890398,64.941,29.297,138.184,83.984,29.297
1573890398,125.488,32.227,-764.648,179.199,955.078
1573890398,27.832,33.203,134.277,-5.859,81.543
1573890398,-46.387,28.32,-1000,-129.395,-786.133
1573890398,33.691,28.32,-219.727,29.297,-308.594
1573890398,119.141,22.461,-781.25,187.012,854.004
1573890398,63.965,26.855,349.121,68.848,481.445
1573890398,-30.762,30.273,-1000,-119.141,-613.77
1573890398,0.977,26.855,-468.262,-33.691,-538.574
1573890398,95.215,25.879,-905.273,175.293,614.258
1573890398,74.219,30.762,615.723,124.512,693.359
1573890398,-27.832,28.32,-918.457,-104.004,-465.82
1573890398,-33.691,20.02,-908.203,-92.773,-766.602
1573890398,64.453,20.02,536.621,138.184,290.039
1573890398,82.031,18.555,-898.438,172.363,858.887
1573890398,-23.926,13.184,-243.652,-51.27,-158.691
1573890398,-60.547,9.277,-1000,-131.836,-773.438
1573890398,38.086,18.066,-41.504,68.848,-67.383
1573890398,100.586,32.715,-778.32,180.176,922.363
1573890398,23.438,31.25,158.203,7.324,201.172
1573890399,-57.129,27.344,-1000,-139.648,-763.184
1573890399,7.812,27.344,-264.16,6.348,-396.973
1573890399,100.586,23.926,-798.828,185.059,809.082
1573890399,60.547,18.066,392.09,84.473,491.211
1573890399,-35.156,21.484,-1000,-124.023,-661.133
1573890399,-10.742,26.367,-643.066,-62.988,-642.09
1573890399,100.098,26.367,908.203,164.551,515.137
1573890399,104.492,26.367,763.672,148.438,727.051
1573890399,6.348,26.855,-731.934,-63.965,-365.723
1573890399,-1.465,24.414,-1000,-72.754,-747.07
1573890399,101.562,28.809,219.727,146.973,198.242
1573890399,133.301,36.133,-850.586,209.473,896.484
1573890399,49.805,36.621,-133.789,5.371,-88.867
1573890399,11.23,33.691,-1000,-88.379,-783.203
1573890399,108.398,33.203,-90.332,115.723,-97.656
1573890399,174.316,39.551,-773.926,244.629,950.684
1573890399,104.98,41.504,215.332,81.543,278.809
1573890399,37.598,36.133,-1000,-71.777,-726.562
1573890399,96.191,33.691,-335.938,61.523,-443.359
1573890399,185.547,32.227,-825.195,254.883,739.746
1573890399,146.484,29.297,427.246,170.41,567.871
1573890399,45.898,25.879,-1000,-45.41,-574.219
1573890399,62.988,21.973,-725.098,-5.859,-668.945
1573890399,165.039,18.066,801.27,217.773,454.59
1573890399,160.156,18.555,902.344,207.52,769.531
1573890399,58.105,35.156,-588.867,-21.484,-350.098
1573890399,39.062,44.434,-1000,-49.316,-824.707
1573890399,128.418,35.156,194.824,170.898,111.816
1573890399,159.668,28.32,-828.125,238.281,938.477
1573890399,70.312,22.949,-56.641,25.391,-13.184
1573890399,11.23,20.996,-1000,-92.773,-818.359
1573890399,83.008,18.066,-178.223,88.867,-207.031
1573890399,153.32,19.531,-786.621,234.375,912.109
1573890399,87.402,26.367,260.254,83.984,397.949
1573890399,-2.93,17.09,-1000,-94.727,-669.922
1573890399,40.527,6.348,-387.207,20.508,-507.812
1573890399,127.441,12.207,-864.746,214.844,669.434
1573890399,94.238,18.555,553.223,127.93,645.996
1573890399,-5.371,17.578,-984.375,-90.332,-504.883
1573890399,9.766,23.438,-775.391,-50.781,-718.262
1573890399,109.863,25.391,724.121,165.527,388.672
1573890399,116.699,16.113,-961.914,174.805,819.336
1573890399,19.043,13.672,-362.793,-43.457,-263.672
1573890399,-13.672,12.695,-1000,-101.562,-829.102
1573890399,77.637,12.695,90.332,104.98,0.977
1573890399,127.93,18.555,-766.113,196.777,923.828
1573890399,37.598,15.625,158.691,4.395,138.184
1573890399,-30.273,5.859,-1000,-128.418,-778.809
1573890399,45.898,1.953,-219.727,38.086,-342.773
1573890399,123.535,8.301,-778.809,200.684,871.094
1573890399,62.5,12.695,369.141,66.895,443.359
1573890399,-28.809,6.836,-1000,-125.977,-686.523
1573890399,11.719,2.93,-440.918,-27.832,-576.172
1573890399,110.352,6.836,-917.969,180.176,598.633
1573890399,90.82,15.137,745.605,123.047,697.754
1573890399,-16.113,13.672,-770.996,-98.633,-457.031
1573890399,-15.625,6.836,-926.758,-87.402,-825.195
1573890399,89.355,-0.488,541.016,137.207,265.625
1573890399,102.051,-3.418,-848.145,172.852,898.438
1573890399,-1.465,-2.441,-164.551,-44.922,-164.062
1573890399,-36.621,1.465,-1000,-124.512,-833.984
1573890399,58.594,6.836,40.039,84.961,-33.691
1573890399,114.746,-1.953,-757.324,200.684,952.637
1573890399,41.016,-5.859,182.129,18.066,162.109
1573890399,-25.391,4.395,-1000,-133.789,-767.578
1573890399,40.527,17.578,-233.398,21.484,-334.961
1573890399,129.395,20.02,-783.203,204.102,842.773
1573890399,78.125,12.695,354.98,86.914,497.07
1573890399,-23.438,10.742,-1000,-117.188,-644.531
1573890399,3.906,12.207,-580.566,-41.016,-604.004
1573890399,104.492,3.906,988.77,175.781,558.105
1573890399,94.727,3.418,697.266,140.137,679.199
1573890399,-9.277,15.625,-856.445,-86.426,-464.844
1573890399,-20.996,19.531,-943.359,-94.238,-750.977
1573890399,84.473,22.461,463.379,134.277,233.398
1573890399,115.723,16.113,-832.52,185.059,913.086
1573890399,17.578,9.277,-83.496,-31.738,-98.145
1573890399,-33.691,13.184,-1000,-126.465,-839.844
1573890399,55.176,13.672,-74.219,66.406,-134.277
1573890399,120.605,13.672,-766.113,191.895,936.035
1573890399,44.922,15.137,210.449,33.691,251.953
1573890399,-33.691,8.301,-1000,-130.371,-821.777
1573890399,26.367,4.883,-312.012,-5.371,-486.816
1573890399,118.164,12.207,-816.895,184.57,761.23
1573890399,77.148,18.066,440.43,91.309,549.805
1573890399,-20.02,18.555,-1000,-116.699,-586.426
1573890399,-3.418,13.184,-765.625,-67.871,-660.156
1573890399,113.77,19.531,736.816,164.551,462.891
1573890399,128.418,24.414,947.266,166.992,781.738
1573890399,-1.953,6.348,-540.039,-78.125,-309.082
1573890399,-35.156,1.953,-1000,-114.258,-778.809
1573890399,61.035,0.488,241.211,106.445,133.301
1573890399,89.844,-1.465,-813.965,166.992,920.898
1573890399,-3.906,-6.348,-24.902,-38.086,-22.461
1573890399,-63.477,-12.695,-1000,-151.855,-832.031
1573890399,19.043,-13.672,-163.086,34.668,-235.84
1573890399,84.961,-16.113,-775.391,184.57,931.152
1573890399,27.832,-6.348,280.273,45.898,335.449
1573890399,-48.828,-2.441,-1000,-121.094,-785.645
1573890399,0.977,7.324,-354.98,-10.254,-528.809
1573890399,93.75,17.578,-847.656,190.43,697.754
1573890399,66.406,10.254,594.727,115.234,637.207
1573890399,-30.762,0,-945.801,-105.957,-522.949
1573890399,-22.949,-2.441,-807.617,-62.988,-694.336
1573890399,82.031,2.441,725.586,166.016,408.203
1573890399,93.75,5.371,985.84,168.457,814.453
1573890399,1.953,5.859,-487.793,-48.828,-265.625
1573890399,-20.02,0,-1000,-98.633,-795.41
1573890399,78.125,-6.348,181.152,112.793,84.473
1573890399,124.512,-8.789,-771.973,208.496,945.312
1573890399,32.227,-9.277,115.723,9.766,59.57
1573890399,-27.832,0.977,-1000,-117.676,-761.719
1573890399,47.363,3.418,-175.293,52.734,-243.164
1573890399,121.582,4.883,-770.02,212.402,882.324
1573890399,64.453,6.348,337.891,73.73,437.012
1573890399,-31.25,3.906,-1000,-118.652,-682.617
1573890399,3.418,8.301,-441.895,-17.578,-557.617
1573890399,101.562,14.16,-907.227,184.57,634.277
1573890399,80.566,14.16,694.824,117.676,649.414
1573890399,-24.902,9.766,-852.539,-108.887,-515.625
1573890399,-17.578,4.883,-858.887,-82.52,-781.738
1573890399,85.449,0.977,625,145.02,308.594
1573890399,99.121,2.93,-895.02,162.598,863.77
1573890399,-1.953,5.859,-211.914,-55.176,-107.422
1573890399,-40.527,0.488,-1000,-116.211,-785.645
1573890399,52.246,2.93,-23.438,89.355,-78.613
1573890399,108.887,7.812,-773.438,202.148,967.773
1573890399,31.25,9.277,146.973,21.484,188.477
1573890399,-42.48,2.441,-1000,-130.371,-786.621
1573890399,19.043,0,-252.93,19.531,-370.117
1573890399,101.562,8.789,-796.387,191.406,835.938
1573890399,56.152,10.254,406.738,77.148,529.297
1573890399,-36.621,8.789,-1000,-117.188,-573.242
1573890399,-4.883,6.348,-568.848,-41.016,-576.172
1573890399,95.215,4.883,981.445,174.805,565.43
1573890399,83.008,3.418,824.219,147.949,733.398
1573890399,-18.066,-4.395,-703.613,-79.102,-362.793
1573890399,-24.902,-4.395,-979.98,-90.82,-745.117
1573890399,77.637,0.977,472.656,134.277,227.539
1573890399,107.91,0.977,-870.117,182.617,887.207
1573890399,16.113,2.441,-181.152,-30.762,-120.605
1573890399,-31.25,-3.418,-1000,-124.512,-833.984
1573890399,52.734,-1.953,-83.984,70.312,-141.602
1573890399,122.07,12.207,-772.949,210.449,941.406
1573890399,50.781,17.09,198.242,41.992,241.699
1573890399,-32.227,7.812,-1000,-133.789,-770.996
1573890399,32.715,2.441,-276.855,9.277,-417.48
1573890399,129.395,10.254,-807.617,199.219,789.551
1573890399,91.309,6.836,479.492,98.633,543.945
1573890399,-2.93,-13.672,-1000,-102.539,-566.895
1573890399,19.043,-9.766,-624.023,-45.898,-614.746
1573890399,119.141,17.578,939.941,177.734,499.023
1573890399,114.258,19.531,810.547,154.785,718.75
1573890399,23.926,14.648,-689.941,-52.734,-387.695
1573890399,4.395,19.531,-1000,-76.172,-803.223
1573890399,69.336,9.766,303.711,99.609,120.605
1573890399,86.426,11.719,-795.898,152.832,916.504
1573890399,-7.324,3.418,12.207,-48.34,0
1573890399,-84.961,-5.859,-1000,-185.059,-815.918
1573890399,-24.414,11.23,-119.629,-22.949,-227.539
1573890399,43.457,25.879,-767.09,118.164,932.129
1573890399,-24.414,29.785,277.344,-44.922,360.352
1573890399,-110.84,27.344,-1000,-219.727,-695.801
1573890399,-76.66,22.949,-425.781,-118.652,-520.02
1573890399,17.578,26.855,-886.23,80.566,688.965
1573890399,-8.301,18.555,586.426,6.348,612.793
1573890399,-112.305,-4.883,-981.445,-221.191,-585.938
1573890399,-92.285,-1.465,-748.047,-174.316,-730.469
1573890399,5.859,4.883,771.484,48.34,396.973
1573890399,17.578,9.766,-977.051,58.105,806.641
1573890399,-67.383,11.719,-398.926,-146.973,-289.551
1573890399,-93.75,6.836,-1000,-180.664,-854.492
1573890399,0,2.441,191.895,43.945,60.059
1573890399,62.5,10.742,-769.043,142.578,953.125
1573890399,-19.531,18.555,107.91,-56.152,99.121
1573890399,-81.055,9.766,-1000,-180.664,-765.625
1573890399,8.301,2.441,-189.941,-0.977,-270.508
1573890399,95.703,12.695,-773.926,165.527,896.973
1573890399,38.086,17.578,334.473,35.156,426.27
1573890399,-48.34,14.16,-1000,-156.738,-654.785
1573890399,-0.488,0,-425.781,-49.316,-526.367
1573890399,103.027,4.395,-880.371,167.48,629.395
1573890399,78.613,28.809,610.352,96.191,678.223
1573890399,-28.809,27.832,-942.383,-127.93,-459.961
1573890399,-25.879,17.578,-809.082,-98.145,-740.234
1573890399,77.148,18.555,687.5,132.324,336.426
1573890399,92.285,17.578,-927.246,153.32,859.375
1573890399,-12.695,8.789,-302.246,-76.172,-215.82
1573890399,-41.016,13.672,-1000,-136.23,-851.562
1573890399,56.641,9.277,55.664,76.66,-26.367
1573890399,111.328,8.789,-776.367,182.129,928.711
1573890399,37.109,18.555,116.699,-0.977,139.16
1573890399,-33.691,16.113,-1000,-141.113,-750.977
1573890399,32.715,21.484,-212.891,14.16,-338.867
1573890399,118.164,28.809,-783.691,185.059,844.238
1573890399,72.754,28.809,404.297,71.777,490.723
1573890399,-20.996,15.137,-1000,-124.512,-670.898
1573890399,15.137,12.207,-468.75,-36.133,-625.977
1573890399,119.141,17.09,-937.5,183.105,576.172
1573890399,98.145,19.531,774.414,129.395,694.336
1573890399,-12.695,19.531,-726.074,-100.098,-446.777
1573890399,-18.555,13.672,-956.055,-98.145,-762.207
1573890399,85.449,6.836,449.219,126.465,249.023
1573890399,109.375,2.441,-810.547,173.34,892.578
1573890399,12.695,7.324,-52.246,-45.898,-83.984
1573890399,-36.621,9.277,-1000,-136.23,-782.227
1573890399,40.527,7.324,24.414,65.918,-76.172
1573890399,103.027,6.836,-747.07,193.848,957.52
1573890399,32.227,11.719,231.445,22.949,205.078
1573890399,-45.41,2.93,-1000,-139.648,-780.762
1573890399,8.789,0.977,-226.562,-1.953,-385.254
1573890399,97.168,4.883,-792.969,185.059,811.035
1573890399,59.082,0.977,537.598,85.449,550.781
1573890399,-33.691,10.254,-1000,-122.559,-616.211
1573890399,-18.066,6.348,-537.598,-67.871,-676.758
1573890399,78.125,1.953,985.352,152.832,488.77
1573890399,70.801,3.418,972.656,136.719,758.301
1573890399,-34.668,0.977,-487.305,-97.656,-329.102
1573890399,-43.945,11.719,-973.145,-119.141,-762.207
1573890399,61.523,15.625,485.84,111.816,186.035
1573890399,91.309,5.859,-804.199,180.176,915.039
1573890399,-9.277,0.977,-22.949,-37.109,-59.57
1573890399,-58.105,-7.812,-1000,-147.949,-817.871
1573890399,30.762,-2.93,-95.215,47.363,-181.641
1573890399,105.469,18.066,-760.742,196.777,934.082
1573890399,38.574,13.184,282.227,43.945,296.387
1573890399,-46.875,1.953,-1000,-130.859,-734.863
1573890399,12.207,13.672,-309.57,-2.93,-452.148
1573890399,109.863,11.23,-814.453,194.824,731.934
1573890399,71.289,10.254,502.93,101.074,575.195
1573890399,-27.344,17.09,-1000,-112.305,-583.496
1573890399,-12.695,-0.488,-660.156,-63.477,-693.848
1573890399,88.867,5.371,856.445,159.18,432.617
1573890399,95.215,14.648,989.746,162.109,799.316
1573890399,-6.836,4.883,-424.805,-59.082,-302.246
1573890399,-28.809,1.465,-1000,-97.656,-854.492
1573890399,62.988,6.836,159.18,116.211,37.109
1573890399,97.656,16.602,-779.785,189.453,944.336
1573890399,7.812,17.578,84.961,-16.113,86.914
1573890399,-47.363,13.672,-1000,-137.207,-787.598
1573890399,40.527,16.113,-185.547,44.922,-285.156
1573890399,116.211,13.184,-774.414,200.195,902.832
1573890399,54.688,12.207,308.105,59.57,412.598
1573890399,-36.621,-7.812,-1000,-127.93,-715.332
1573890399,5.371,-24.414,-387.207,-19.043,-545.898
1573890399,105.469,11.719,-865.234,193.848,674.316
1573890399,74.707,23.926,627.441,118.164,651.367
1573890399,-33.691,11.719,-896.973,-104.004,-479.492
1573890399,-31.738,0,-897.461,-82.52,-724.121
1573890399,67.383,-1.953,588.379,132.324,335.449
1573890399,96.191,-4.883,-916.016,168.457,851.074
1573890399,1.953,-5.859,-309.57,-46.875,-231.934
1573890399,-50.781,6.836,-1000,-126.465,-863.77
1573890399,32.227,14.648,73.242,77.637,2.441
1573890399,88.867,15.137,-767.578,176.27,981.934
1573890399,13.184,5.371,139.16,-7.812,119.141
1573890400,-62.5,3.418,-1000,-145.02,-794.922
1573890400,10.742,10.742,-207.52,18.066,-308.105
1573890400,99.609,10.254,-777.832,191.406,863.281
1573890400,41.016,7.324,314.941,55.664,447.266
1573890400,-57.129,11.719,-1000,-142.09,-666.504
1573890400,-18.555,10.742,-464.844,-46.875,-563.965
1573890400,83.496,10.742,-932.617,167.48,606.934
1573890400,69.336,10.742,703.613,121.094,684.57
1573890400,-29.785,8.301,-825.195,-100.586,-480.469
1573890400,-30.762,11.23,-904.297,-88.379,-790.039
1573890400,81.055,13.672,545.898,142.578,254.883
1573890400,110.84,12.695,-852.051,182.617,890.625
1573890400,12.695,-0.488,-146.973,-36.133,-187.988
1573890400,-28.32,10.254,-1000,-117.676,-911.621
1573890400,61.523,21.973,-6.348,84.473,-95.215
1573890400,117.188,10.254,-762.695,205.566,960.938
1573890400,37.598,12.207,184.57,28.809,212.402
1573890400,-36.621,15.625,-1000,-130.371,-781.25
1573890400,23.926,16.602,-257.812,13.672,-420.898
1573890400,107.91,24.414,-795.898,193.359,782.715
1573890400,63.965,19.531,424.805,84.473,548.828
1573890400,-30.273,16.602,-1000,-111.816,-615.234
1573890400,-4.883,11.719,-627.93,-41.992,-653.32
1573890400,96.191,4.395,902.832,169.434,504.395
1573890400,88.379,11.23,895.508,139.16,750.488
1573890400,-13.184,9.277,-607.422,-88.379,-326.172
1573890400,-27.344,9.277,-1000,-96.191,-758.301
1573890400,75.195,16.602,391.113,127.93,184.57
1573890400,107.422,20.02,-823.242,180.176,909.18
1573890400,11.719,20.508,-72.266,-30.273,-54.688
1573890400,-36.621,5.859,-1000,-128.418,-826.66
1573890400,41.992,5.859,-82.031,62.988,-150.879
1573890400,98.633,4.395,-763.672,195.312,956.055
1573890400,33.203,-9.277,246.582,35.156,334.473
1573890400,-45.898,1.953,-1000,-136.719,-695.801
1573890400,7.324,15.625,-308.594,-9.766,-449.219
1573890400,101.562,21.484,-820.312,187.012,757.812
1573890400,65.43,20.508,531.25,91.309,593.262
1573890400,-29.297,17.09,-1000,-117.188,-541.016
1573890400,-7.812,17.578,-714.355,-63.965,-640.137
1573890400,92.285,18.555,847.656,156.738,457.52
1573890400,98.145,19.043,909.18,158.691,795.898
1573890400,-6.348,15.625,-598.145,-71.289,-339.355
1573890400,-37.598,-1.465,-1000,-118.652,-850.098
1573890400,56.641,-3.906,267.578,104.004,119.629
1573890400,101.562,14.16,-786.621,188.965,957.031
1573890400,14.16,20.508,51.27,-7.324,11.23
1573890400,-43.945,8.301,-1000,-128.418,-849.609
1573890400,28.32,4.395,-152.832,45.898,-282.227
1573890400,98.633,27.344,-767.09,201.172,892.09
1573890400,41.016,34.668,309.082,59.57,395.508
1573890400,-43.457,18.066,-1000,-124.023,-698.242
1573890400,6.348,15.137,-361.816,-11.719,-496.582
1573890400,104.98,34.18,-853.027,199.707,698.73
1573890400,73.73,11.23,623.535,121.094,610.352
1573890400,-33.203,-1.953,-915.527,-102.051,-491.211
1573890400,-21.484,20.996,-805.664,-66.406,-666.992
1573890400,81.055,15.137,706.055,156.25,369.629
1573890400,92.285,12.695,-952.637,165.527,834.961
1573890400,-2.441,11.719,-340.82,-59.082,-236.816
1573890400,-31.738,8.789,-1000,-119.629,-843.75
1573890400,58.105,14.648,80.566,88.867,11.719
1573890400,108.398,21.484,-781.25,191.406,960.449
1573890400,30.762,24.902,106.445,9.277,127.93
1573890400,-39.062,21.973,-1000,-128.906,-787.109
1573890400,23.926,19.531,-247.07,28.809,-342.285
1573890400,97.168,22.949,-794.922,194.824,843.75
1573890400,34.668,20.02,376.465,54.199,456.543
1573890400,-54.688,23.926,-1000,-141.602,-637.207
1573890400,-17.578,30.762,-466.309,-41.504,-570.801
1573890400,77.637,32.227,-919.922,162.598,586.426
1573890400,46.875,31.25,700.195,92.773,696.289
1573890400,-62.5,31.25,-821.289,-136.719,-486.816
1573890400,-55.176,33.203,-948.73,-121.094,-817.871
1573890400,42.969,39.551,516.602,97.168,278.809
1573890400,56.641,43.945,-922.363,120.605,862.305
1573890400,-52.246,43.457,-306.641,-106.445,-180.664
1573890400,-113.77,39.062,-1000,-203.125,-833.008
1573890400,-30.273,42.48,-21.973,-6.348,-76.66
1573890400,24.414,42.48,-779.297,116.211,948.242
1573890400,-60.547,46.387,153.32,-72.266,176.27
1573890400,-140.137,66.895,-1000,-235.84,-794.922
1573890400,-87.891,76.66,-268.555,-90.82,-374.023
1573890400,-4.395,86.914,-801.27,88.379,832.031
1573890400,-51.27,84.961,392.578,-25.879,513.672
1573890400,-148.926,68.848,-1000,-229.492,-600.586
1573890400,-117.188,64.941,-604.98,-150.879,-570.312
1573890400,-9.277,74.219,957.52,73.73,544.434
1573890400,-14.16,69.336,723.145,41.504,734.375
1573890400,-113.281,51.27,-807.617,-179.688,-361.816
1573890400,-112.305,45.898,-979.004,-173.34,-755.371
1573890400,0.488,54.688,420.898,61.035,218.262
1573890400,38.086,56.152,-835.449,128.418,882.812
1573890400,-48.828,41.504,-104.004,-83.496,-80.078
1573890400,-89.355,33.691,-1000,-181.641,-762.695
1573890400,3.418,27.832,-67.383,22.461,-137.695
1573890400,78.613,24.902,-765.625,164.062,939.453
1573890400,14.16,20.02,233.398,2.93,267.578
1573890400,-55.664,10.742,-1000,-151.367,-828.125
1573890400,4.395,8.301,-335.449,-8.301,-469.238
1573890400,99.121,-3.418,-832.031,186.035,756.836
1573890400,70.801,1.465,514.16,98.633,569.824
1573890400,-21.484,3.906,-1000,-101.562,-542.48
1573890400,4.395,-10.254,-768.066,-40.527,-685.547
1573890400,106.445,-16.602,733.887,180.176,427.734
1573890400,115.234,-6.348,-989.746,174.805,801.27
1573890400,23.926,5.859,-469.727,-41.992,-289.551
1573890400,-0.977,-3.906,-1000,-78.613,-773.926
1573890400,97.168,-12.695,331.055,138.184,139.648
1573890400,141.602,-15.137,-770.02,220.215,927.734
1573890400,49.805,-23.438,82.031,17.09,19.043
1573890400,-4.883,-25.391,-1000,-95.215,-817.871
1573890400,74.707,-15.625,-135.742,90.332,-274.414
1573890400,142.09,-21.484,-759.766,238.77,912.598
1573890400,84.961,-24.414,315.918,90.82,334.473
1573890400,0,-17.578,-1000,-94.727,-717.285
1573890400,41.992,-23.926,-325.684,17.578,-469.727
1573890400,142.578,-13.184,-836.914,230.469,670.898
1573890400,114.258,-1.465,633.789,152.832,636.719
1573890400,4.395,-19.531,-930.176,-75.684,-517.578
1573890400,12.695,-24.414,-672.852,-41.992,-730.957
1573890400,118.652,-16.113,853.027,188.477,412.109
1573890400,127.93,-11.719,-952.637,197.266,819.336
1573890400,26.855,-16.113,-331.055,-31.738,-319.336
1573890400,-1.953,-20.02,-1000,-85.449,-898.926
1573890400,91.797,-18.555,174.316,130.371,23.926
1573890400,142.578,-13.672,-758.301,226.074,949.707
1573890400,59.57,-12.207,135.742,32.227,61.523
1573890400,-6.836,-9.277,-1000,-103.027,-802.734
1573890400,67.383,-5.371,-162.598,64.941,-267.09
1573890400,138.672,-15.625,-765.625,224.121,866.211
1573890400,82.031,-12.695,369.629,84.473,402.344
1573890400,-2.93,-9.277,-1000,-101.562,-645.02
1573890400,25.391,-24.902,-395.508,-6.836,-537.598
1573890400,119.629,-17.09,-876.465,202.637,625.977
1573890400,101.074,-13.672,708.984,145.996,676.27
1573890400,-4.395,-22.461,-806.641,-77.148,-508.789
1573890400,-2.441,-9.766,-898.438,-62.988,-832.031
1573890400,102.051,4.883,549.316,156.25,250
1573890400,115.234,0.977,-855.957,183.105,863.281
1573890400,13.184,-8.789,-149.902,-30.762,-174.316
1573890400,-26.855,-11.719,-1000,-107.91,-829.102
1573890400,62.5,-22.461,43.457,93.75,-47.852
1573890400,112.305,-29.785,-753.906,205.566,951.172
1573890400,32.227,-8.789,194.824,27.344,201.172
1573890400,-34.18,5.371,-1000,-119.629,-800.293
1573890400,30.273,-8.789,-244.141,28.809,-423.34
1573890400,113.77,-18.555,-786.621,207.031,819.824
1573890400,68.848,2.93,402.344,95.215,493.652
1573890400,-22.949,7.812,-1000,-104.004,-647.949
1573890400,3.418,-7.324,-490.234,-32.715,-576.66
1573890400,106.934,-9.277,-958.496,184.082,582.52
1573890400,98.145,-4.395,820.801,148.438,712.891
1573890400,-12.695,-9.277,-689.453,-91.309,-459.473
1573890400,-26.367,-14.16,-977.539,-100.586,-812.988
1573890400,74.219,-11.23,468.262,127.93,220.703
1573890400,103.027,-15.625,-844.238,179.199,904.297
1573890400,11.719,-28.32,-129.883,-31.25,-90.82
1573890400,-29.297,-15.137,-1000,-123.047,-839.355
1573890400,50.293,2.441,-84.961,68.848,-144.531
1573890400,108.887,5.859,-774.414,195.312,947.754
1573890400,34.18,6.348,182.617,22.949,280.762
1573890400,-44.922,4.395,-1000,-139.648,-688.477
1573890400,12.695,1.953,-291.992,0.977,-386.23
1573890400,98.145,-3.418,-815.43,186.523,765.625
1573890400,60.547,-2.441,487.793,84.961,540.039
1573890400,-38.086,-5.371,-1000,-123.535,-594.727
1573890400,-17.578,-13.672,-629.395,-60.059,-645.508
1573890400,93.262,-8.301,906.25,171.875,464.355
1573890400,100.586,3.906,926.758,160.645,778.32
1573890400,-0.977,-3.418,-548.828,-62.5,-321.777
1573890400,-34.18,-12.695,-1000,-97.656,-782.227
1573890400,68.848,-9.277,310.547,122.559,170.898
1573890400,123.535,-4.883,-791.504,207.031,937.012
1573890400,31.25,-12.695,29.785,5.371,26.855
1573890400,-22.461,-27.832,-1000,-105.957,-777.832
1573890400,57.129,-14.648,-145.508,64.453,-223.633
1573890400,123.535,4.883,-767.578,202.148,896.973
1573890400,69.824,2.93,288.086,65.43,358.398
1573890400,-7.812,-4.883,-1000,-106.445,-658.203
1573890400,33.691,-5.859,-354.492,9.766,-490.234
1573890400,122.07,0,-841.797,207.031,689.941
1573890400,94.238,-0.977,556.641,125.977,624.023
1573890400,0.977,-3.906,-966.309,-78.125,-516.113
1573890400,10.254,-7.324,-823.73,-40.039,-685.547
1573890400,104.98,-7.324,681.152,172.363,390.137
1573890400,119.141,-1.465,-957.52,182.129,813.477
1573890400,23.438,0.488,-388.184,-35.645,-264.648
1573890400,-6.348,-4.883,-1000,-85.449,-836.426
1573890400,89.844,-10.742,171.875,127.93,47.852
1573890400,130.859,2.93,-767.578,214.355,955.078
1573890400,44.434,3.906,106.445,15.137,69.336
1573890400,-17.578,4.883,-1000,-112.793,-830.566
1573890400,55.664,11.719,-166.504,63.477,-294.922
1573890400,126.465,7.812,-768.066,221.68,893.066
1573890400,60.547,12.207,283.691,73.73,396.484
1573890400,-22.949,17.09,-1000,-110.84,-692.383
1573890400,11.719,11.23,-417.48,-10.254,-556.152
1573890400,104.004,12.207,-880.859,192.383,634.766
1573890400,84.473,19.043,567.383,134.277,631.836
1573890400,-22.949,3.906,-966.797,-95.215,-540.039
1573890400,-21.973,-0.488,-813.477,-74.707,-718.75
1573890400,83.496,15.625,657.715,157.227,356.445
1573890400,99.609,13.184,-916.992,183.594,847.656
1573890400,3.906,11.23,-269.043,-33.203,-213.379
1573890400,-30.273,16.602,-1000,-101.074,-860.352
1573890400,55.176,12.207,24.902,101.562,-51.27
1573890400,111.328,12.695,-769.531,213.867,973.145
1573890400,40.527,16.113,144.531,36.133,156.25
1573890400,-35.156,14.16,-1000,-119.629,-809.57
1573890400,24.902,-1.953,-232.422,29.297,-376.465
1573890400,107.91,-12.695,-789.062,207.031,825.195
1573890400,56.152,3.906,392.578,84.961,518.555
1573890400,-33.691,12.695,-1000,-116.211,-586.914
1573890400,-0.977,-5.371,-571.777,-28.32,-583.496
1573890400,96.68,-3.906,979.98,190.918,569.336
1573890400,89.355,8.301,776.367,146.973,701.172
1573890400,-14.16,5.371,-754.883,-79.59,-428.711
1573890400,-24.902,3.418,-980.957,-86.426,-796.387
1573890400,76.172,5.371,451.66,141.602,222.656
1573890400,99.609,3.418,-864.746,184.082,890.625
1573890400,6.836,8.301,-171.875,-37.598,-150.879
1573890400,-34.668,5.371,-1000,-124.512,-858.398
1573890400,52.734,7.812,-105.469,70.801,-118.652
1573890400,116.211,14.648,-774.902,198.73,946.289
1573890400,46.387,8.301,220.703,31.738,230.957
1573890400,-27.832,6.348,-1000,-129.883,-766.602
1573890400,25.391,16.113,-276.367,10.254,-430.664
1573890400,114.258,21.973,-802.246,201.172,790.527
1573890400,76.66,16.602,452.148,98.633,570.801
1573890400,-19.531,13.184,-1000,-106.445,-626.953
1573890400,6.348,14.648,-652.344,-34.668,-692.383
1573890400,99.609,8.301,911.133,182.129,507.324
1573890400,96.68,6.836,842.773,155.762,759.277
1573890400,-4.883,7.812,-682.129,-75.195,-410.645
1573890400,-28.32,5.371,-1000,-104.004,-865.723
1573890400,75.195,12.207,345.215,116.211,157.227
1573890400,113.77,15.625,-826.66,185.059,920.41
1573890400,19.043,-0.488,-61.035,-20.996,-35.645
1573890400,-33.203,-1.465,-1000,-126.953,-820.801
1573890400,46.387,15.137,-122.07,58.105,-214.355
1573890400,108.887,10.254,-769.043,198.242,936.035
1573890400,39.062,10.254,273.926,40.527,363.281
1573890400,-49.316,3.906,-1000,-139.648,-701.172
1573890400,-0.977,0,-356.934,-19.531,-463.867
1573890400,93.262,4.883,-840.82,175.293,737.793
1573890400,60.547,-1.465,542.969,86.914,570.312
1573890400,-35.156,0.488,-1000,-126.953,-561.035
1573890400,-23.438,1.465,-715.82,-80.078,-686.035
1573890400,75.195,-0.977,809.082,146.973,410.156
1573890400,85.938,0.488,998.047,144.531,811.035
1573890400,-16.113,-2.93,-424.316,-83.496,-261.719
1573890400,-42.969,1.465,-1000,-124.023,-815.918
1573890400,55.176,3.906,149.902,90.82,63.477
1573890400,101.562,1.953,-793.945,178.711,958.496
1573890400,17.09,-0.488,45.41,-15.625,18.066
1573890401,-42.969,1.953,-1000,-140.625,-871.094
1573890401,40.039,6.836,-214.355,37.109,-309.57
1573890401,118.164,10.254,-786.621,192.871,876.465
1573890401,46.875,8.789,320.312,50.293,393.066
1573890401,-47.363,4.883,-1000,-131.348,-684.57
1573890401,-2.441,-1.465,-381.348,-29.785,-472.168
1573890401,89.844,-2.441,-872.07,174.316,681.641
1573890401,62.012,11.719,674.805,111.328,670.898
1573890401,-29.785,1.953,-871.582,-111.328,-491.211
1573890401,-12.207,0.977,-818.848,-81.055,-753.418
1573890401,87.891,18.555,697.754,147.461,356.445
1573890401,100.586,18.555,-935.059,165.039,850.586
1573890401,8.301,21.484,-321.777,-60.059,-204.102
1573890401,-24.902,16.602,-1000,-119.629,-836.914
1573890401,68.848,10.254,88.379,97.656,-11.23
1573890401,121.582,12.695,-763.672,197.754,973.145
1573890401,43.945,14.648,146.973,6.348,161.621
1573890401,-18.066,17.09,-1000,-127.93,-768.555
1573890401,44.434,9.766,-199.219,31.25,-329.102
1573890401,125.977,9.277,-774.902,202.637,866.699
1573890401,75.195,-2.93,381.836,78.613,452.148
1573890401,-22.949,-12.207,-1000,-130.859,-697.754
1573890401,6.348,0,-437.012,-48.828,-596.191
1573890401,116.699,3.906,-905.273,184.57,587.402
1573890401,104.98,14.16,732.91,145.508,692.383
1573890401,-32.227,13.672,-809.082,-114.746,-503.418
1573890401,-57.129,10.254,-856.445,-127.93,-841.309
1573890401,50.293,6.836,603.516,103.027,246.094
1573890401,82.031,11.719,-825.684,145.996,887.695
1573890401,-15.625,7.324,-66.406,-70.312,-110.352
1573890401,-61.035,-6.348,-1000,-155.273,-826.172
1573890401,23.438,-8.301,21.484,44.922,-133.301
1573890401,83.008,6.348,-750.977,165.527,939.941
1573890401,10.254,16.113,226.562,-11.719,205.078
1573890401,-65.43,4.395,-1000,-164.551,-795.41
1573890401,-11.719,3.418,-286.133,-23.926,-404.297
1573890401,71.777,0.488,-809.082,152.344,789.551
1573890401,30.273,-6.348,496.582,47.852,531.25
1573890401,-60.547,-4.883,-1000,-153.809,-624.512
1573890401,-25.879,-7.324,-584.961,-81.543,-633.301
1573890401,79.102,-1.953,954.102,146.484,536.621
1573890401,78.125,7.324,936.523,129.883,730.957
1573890401,-32.715,-4.883,-551.27,-97.656,-350.098
1573890401,-52.246,-15.137,-982.422,-114.746,-740.723
1573890401,59.082,-3.906,453.613,110.352,198.242
1573890401,102.539,2.441,-801.27,176.27,924.805
1573890401,12.695,-7.324,-12.695,-30.273,-75.684
1573890401,-39.551,-2.93,-1000,-131.348,-871.582
1573890401,41.016,5.859,-84.961,58.594,-176.27
1573890401,109.375,8.301,-759.277,194.336,946.289
1573890401,42.969,0.488,248.047,32.715,288.086
1573890401,-37.598,-8.301,-1000,-142.09,-729.98
1573890401,17.09,-2.441,-296.875,-14.16,-429.688
1573890401,111.816,1.465,-807.617,184.57,755.371
1573890401,75.195,3.906,478.516,103.516,588.379
1573890401,-24.414,6.348,-1000,-111.328,-552.246
1573890401,-10.742,0,-635.254,-70.312,-656.738
1573890401,85.449,-7.324,887.695,153.809,456.055
1573890401,89.844,-5.859,961.426,151.855,795.41
1573890401,-15.137,-6.836,-483.887,-75.195,-308.105
1573890401,-41.504,-9.766,-1000,-117.676,-836.914
1573890401,55.176,-3.906,233.887,102.051,67.383
1573890401,97.656,9.766,-803.223,187.012,936.523
1573890401,13.672,13.184,-1.465,-15.137,15.625
1573890401,-41.504,16.113,-1000,-130.859,-831.055
1573890401,36.133,14.16,-148.438,48.828,-250.488
1573890401,104.492,-0.488,-771.484,194.824,893.066
1573890401,37.598,-3.418,318.359,50.293,385.742
1573890401,-49.316,-3.906,-1000,-129.883,-700.195
1573890401,0,2.93,-381.836,-22.949,-522.461
1573890401,97.656,12.207,-857.422,186.523,670.898
1573890401,63.965,0,599.121,118.164,640.137
1573890401,-34.18,0.488,-927.246,-106.445,-524.902
1573890401,-11.23,9.766,-827.148,-74.219,-752.441
1573890401,89.355,3.906,644.043,155.273,343.262
1573890401,87.402,3.906,-919.434,156.738,844.727
1573890401,-16.113,2.93,-276.855,-77.148,-200.684
1573890401,-50.293,7.324,-1000,-133.789,-763.184
1573890401,38.574,3.906,39.062,76.66,44.922
1573890401,90.332,1.465,-767.578,182.129,967.285
1573890401,11.719,5.859,147.461,-3.906,96.191
1573890401,-60.547,-5.371,-1000,-154.297,-840.332
1573890401,8.789,-4.883,-199.707,9.766,-340.82
1573890401,92.285,6.348,-774.414,189.941,848.633
1573890401,41.016,15.625,343.262,63.965,426.758
1573890401,-43.457,6.348,-1000,-129.395,-670.898
1573890401,-7.324,-7.324,-437.988,-36.621,-532.715
1573890401,91.797,-3.906,-905.762,178.223,625
1573890401,78.125,7.812,700.195,134.277,673.34
1573890401,-22.949,4.883,-846.68,-83.008,-487.793
1573890401,-23.926,-5.859,-864.258,-85.449,-773.438
1573890401,78.613,-16.113,619.141,135.254,280.762
1573890401,98.633,-20.02,-878.906,177.246,900.391
1573890401,7.324,-4.883,-198.73,-41.504,-142.09
1573890401,-33.203,10.254,-1000,-119.141,-878.418
1573890401,44.434,11.23,-23.926,81.055,-138.184
1573890401,106.445,6.348,-772.949,194.336,914.551
1573890401,32.715,7.812,147.949,12.695,170.898
1573890401,-38.086,14.16,-1000,-136.23,-822.266
1573890401,24.902,16.113,-238.281,16.602,-435.547
1573890401,109.863,15.625,-794.922,201.66,789.551
1573890401,63.477,1.465,448.242,88.867,527.832
1573890401,-37.598,-9.766,-1000,-124.512,-604.492
1573890401,-10.742,2.441,-545.41,-55.176,-625.977
1573890401,90.332,6.836,991.699,159.668,527.832
1573890401,76.172,-0.488,861.328,122.559,754.883
1573890401,-28.32,-3.418,-616.699,-106.934,-371.094
1573890401,-40.039,6.836,-1000,-106.934,-804.688
1573890401,65.43,14.648,339.355,118.164,187.012
1573890401,96.191,15.137,-811.523,169.922,921.387
1573890401,0,8.301,-40.527,-36.621,-61.523
1573890401,-49.316,0,-1000,-136.23,-812.5
1573890401,33.691,4.395,-109.863,57.617,-148.438
1573890401,99.609,8.301,-766.602,194.824,957.52
1573890401,25.879,8.789,243.652,20.02,285.645
1573890401,-57.617,2.441,-1000,-151.367,-769.043
1573890401,-1.465,6.348,-315.918,-12.207,-441.406
1573890401,87.402,14.16,-821.289,179.688,755.371
1573890401,53.711,15.625,508.301,84.961,583.496
1573890401,-41.016,8.301,-1000,-125.977,-548.828
1573890401,-19.531,9.766,-770.508,-67.871,-697.754
1573890401,94.727,26.367,751.465,158.691,422.852
1573890401,94.727,8.301,975.586,153.809,789.062
1573890401,-19.043,-7.324,-501.465,-76.66,-295.41
1573890401,-41.016,2.441,-1000,-116.211,-847.656
1573890401,63.965,1.953,247.559,106.445,54.199
1573890401,107.91,4.395,-780.762,187.988,953.125
1573890401,8.301,6.836,53.223,-14.16,40.039
1573890401,-50.781,11.23,-1000,-141.113,-836.426
1573890401,32.715,15.137,-140.137,42.969,-279.297
1573890401,105.469,9.277,-766.602,201.66,899.902
1573890401,44.434,13.184,258.789,40.527,382.324
1573890401,-38.086,11.23,-1000,-145.508,-712.891
1573890401,9.277,7.812,-362.305,-23.926,-515.137
1573890401,105.469,5.859,-849.609,183.594,692.871
1573890401,79.59,11.23,552.734,110.352,626.953
1573890401,-24.414,10.254,-981.445,-114.258,-544.922
1573890401,-10.742,1.465,-765.625,-83.984,-712.402
1573890401,94.238,4.395,733.398,145.996,402.344
1573890401,94.727,5.859,-964.844,166.504,843.75
1573890401,-4.395,1.953,-370.117,-58.594,-264.648
1573890401,-34.668,1.465,-1000,-120.605,-838.867
1573890401,50.293,1.465,131.836,95.703,63.965
1573890401,92.285,-4.883,-775.879,186.523,968.75
1573890401,8.301,0.488,94.238,-10.742,102.539
1573890401,-51.758,5.859,-1000,-153.809,-771.973
1573890401,17.09,0,-195.312,8.789,-277.832
1573890401,94.238,2.93,-777.832,178.711,862.305
1573890401,48.828,10.742,348.633,51.27,452.148
1573890401,-48.34,-1.953,-1000,-146.484,-643.066
1573890401,-15.137,-6.836,-495.117,-53.711,-552.734
1573890401,85.938,-5.371,-957.52,163.574,617.188
1573890401,65.43,-4.883,724.609,101.074,695.801
1573890401,-33.203,12.695,-816.406,-122.559,-455.566
1573890401,-38.574,4.395,-908.203,-107.422,-777.832
1573890401,64.941,-10.254,559.082,119.141,301.758
1573890401,88.867,4.395,-886.719,157.715,875.977
1573890401,-18.066,16.113,-200.195,-59.57,-170.41
1573890401,-51.758,14.648,-1000,-136.23,-858.398
1573890401,46.875,12.207,-84.473,63.477,-98.145
1573890401,103.516,16.602,-775.391,187.012,960.938
1573890401,20.996,11.719,181.641,9.277,172.363
1573890401,-55.664,0.488,-1000,-146.484,-798.34
1573890401,6.836,-7.812,-245.605,6.348,-346.68
1573890401,93.75,-11.719,-789.551,187.988,842.773
1573890401,45.898,-2.93,379.395,70.312,482.422
1573890401,-49.316,5.371,-1000,-130.859,-667.969
1573890401,-15.137,11.23,-559.57,-51.758,-637.207
1573890401,86.914,18.066,990.234,162.598,535.156
1573890401,75.195,13.672,794.434,132.324,747.559
1573890401,-27.832,-11.23,-736.816,-99.609,-424.805
1573890401,-29.785,-13.672,-1000,-109.375,-852.051
1573890401,76.66,10.254,440.918,124.512,205.566
1573890401,97.656,19.043,-887.207,170.898,908.691
1573890401,-5.371,19.043,-238.77,-53.223,-101.562
1573890401,-52.734,10.254,-1000,-142.09,-793.457
1573890401,36.621,6.836,-62.5,61.523,-102.539
1573890401,102.051,16.602,-772.461,189.941,939.941
1573890401,31.738,14.648,241.699,23.438,277.832
1573890401,-41.992,7.324,-1000,-137.695,-748.047
1573890401,13.672,3.906,-324.219,-7.812,-454.59
1573890401,97.168,6.836,-826.66,186.523,745.605
1573890401,59.082,3.418,520.02,91.309,556.641
1573890401,-38.574,-8.301,-1000,-124.023,-558.594
1573890401,-15.625,8.789,-616.211,-53.711,-642.578
1573890401,81.055,13.672,899.414,167.969,463.379
1573890401,76.66,-11.719,987.793,138.672,809.082
1573890401,-22.461,-12.207,-443.848,-85.938,-250.488
1573890401,-44.922,-1.465,-1000,-110.352,-790.039
1573890401,54.688,-1.465,289.551,107.91,108.887
1573890401,92.773,0,-787.109,184.082,947.754
1573890401,10.742,11.719,52.734,-13.672,44.922
1573890401,-48.34,16.602,-1000,-134.766,-822.754
1573890401,21.973,12.695,-166.504,29.785,-279.297
1573890401,98.633,15.625,-770.02,177.734,917.969
1573890401,35.156,9.766,319.824,33.203,352.539
1573890401,-39.062,-4.395,-1000,-140.625,-673.828
1573890401,9.766,-13.184,-340.82,-23.926,-441.406
1573890401,92.773,-2.441,-844.727,177.734,697.266
1573890401,66.406,8.301,639.648,95.215,604.004
1573890401,-31.25,1.953,-919.434,-128.418,-584.961
1573890401,-24.902,-0.977,-714.355,-83.984,-760.742
1573890401,79.102,8.789,817.383,143.066,377.93
1573890401,95.215,2.441,-962.891,149.414,813.965
1573890401,-6.836,-10.254,-373.047,-73.242,-260.742
1573890401,-33.691,-3.906,-1000,-124.023,-828.613
1573890401,70.312,5.859,234.375,94.238,33.203
1573890401,116.211,7.812,-759.766,187.5,958.496
1573890401,30.273,10.254,115.234,-8.301,82.031
1573890401,-41.016,4.883,-1000,-143.066,-808.105
1573890401,22.949,0.488,-170.41,31.738,-294.434
1573890401,103.027,12.695,-768.066,205.566,879.883
1573890401,41.992,11.719,345.215,55.176,444.336
1573890401,-44.434,2.441,-1000,-145.02,-666.016
1573890401,-5.859,4.883,-395.508,-41.504,-556.152
1573890401,91.797,10.742,-865.234,179.688,638.672
1573890401,67.383,8.301,620.117,118.164,671.387
1573890401,-42.48,10.254,-907.715,-118.652,-447.754
1573890401,-25.391,9.277,-832.52,-95.703,-700.195
1573890401,66.895,6.348,647.949,127.93,338.379
1573890401,80.566,6.836,-898.438,155.273,859.375
1573890401,-4.883,2.93,-239.746,-61.035,-214.844
1573890401,-42.969,6.348,-1000,-141.113,-886.23
1573890401,38.574,0.977,43.457,66.406,-67.383
1573890401,91.309,-12.695,-763.184,182.129,970.215
1573890401,20.02,-2.441,180.664,-4.395,164.551
1573890401,-41.992,7.324,-1000,-150.879,-792.969
1573890401,16.113,-0.977,-271.484,3.906,-357.91
1573890401,89.355,-2.93,-799.316,174.316,830.078
1573890401,45.41,7.812,415.039,54.199,519.043
1573890401,-39.551,4.883,-1000,-132.324,-645.996
1573890401,-9.766,0,-568.359,-47.852,-602.539
1573890401,81.055,5.859,987.793,158.691,580.078
1573890401,56.641,2.441,808.594,105.469,739.258
1573890401,-49.316,-2.93,-714.355,-113.281,-406.25
1573890401,-43.457,-8.789,-995.117,-107.422,-830.078
1573890401,54.688,-6.836,434.57,109.375,206.543
1573890401,82.031,0.977,-843.262,166.016,916.504
1573890401,-7.324,-5.859,-139.648,-41.016,-128.906
1573890401,-51.758,-8.789,-1000,-136.23,-877.441
1573890401,31.25,0,-72.754,54.688,-125.977
1573890401,85.449,1.953,-769.531,186.035,940.43
1573890401,29.297,-2.93,214.355,22.949,259.277
1573890401,-47.363,3.418,-1000,-149.414,-724.609
1573890401,-1.465,7.812,-291.016,-5.371,-426.27
1573890401,95.703,14.16,-805.664,189.453,766.602
1573890401,69.336,13.184,437.012,84.473,574.219
1573890401,-31.25,9.277,-1000,-112.305,-595.215
1573890401,-17.09,10.254,-627.441,-52.246,-666.016
1573890401,83.984,7.812,915.527,154.297,493.164
1573890401,72.754,7.812,875.488,134.277,770.508
1573890401,-23.926,2.93,-614.258,-75.195,-335.938
1573890401,-32.227,-1.465,-1000,-98.145,-799.805
1573890401,63.477,0.488,327.148,106.934,141.602
1573890401,104.004,3.418,-835.938,174.805,915.039
1573890401,9.766,12.695,-108.887,-23.926,-21.973
1573890402,-47.852,20.508,-1000,-134.277,-824.707
1573890402,36.133,20.02,-112.305,48.34,-238.77
1573890402,101.562,11.719,-770.508,188.477,927.734
1573890402,33.203,15.625,287.109,42.48,360.352
1573890402,-45.41,22.949,-1000,-128.418,-701.172
1573890402,3.418,0.488,-343.75,-18.555,-459.961
1573890402,99.609,-17.09,-830.078,188.965,712.891
1573890402,68.848,-2.441,516.602,113.77,589.355
1573890402,-32.715,4.883,-1000,-103.516,-578.125
1573890402,-18.555,11.719,-745.117,-62.012,-725.098
1573890402,80.078,16.113,747.07,161.621,406.738
1573890402,84.961,11.719,-981.934,154.297,797.852
1573890402,-19.531,11.23,-373.535,-75.684,-237.305
1573890402,-41.016,-0.977,-1000,-113.281,-770.996
1573890402,65.918,7.812,51.27,102.051,39.551
1573890402,109.375,19.043,-776.367,192.383,954.102
1573890402,23.926,2.441,112.793,3.906,69.824
1573890402,-29.297,4.883,-1000,-119.141,-798.828
1573890402,39.062,12.695,-167.48,43.457,-258.789
1573890402,108.887,12.207,-768.555,197.754,896.484
1573890402,50.293,10.254,322.754,60.059,404.297
1573890402,-31.738,8.301,-1000,-132.812,-675.781
1573890402,18.066,9.277,-401.367,-32.715,-529.297
1573890402,108.398,10.742,-880.859,173.828,637.695
1573890402,76.66,10.742,671.875,110.84,649.414
1573890402,-27.832,11.719,-872.07,-112.305,-530.762
1573890402,-13.184,12.695,-835.449,-80.078,-774.414
1573890402,94.238,3.906,675.293,148.926,328.125
1573890402,109.863,12.207,-935.547,170.898,853.027
1573890402,12.695,12.207,-317.871,-48.34,-241.699
1573890402,-37.109,-8.789,-1000,-125,-836.426
1573890402,46.875,-7.324,18.555,77.148,-8.789
1573890402,104.492,-6.836,-778.32,177.734,948.73
1573890402,28.809,-6.348,122.559,-14.16,161.133
1573890402,-43.457,6.348,-1000,-153.809,-813.965
1573890402,19.531,7.324,-217.285,12.695,-382.324
1573890402,108.398,16.602,-785.156,186.523,835.449
1573890402,60.547,27.344,404.297,72.266,471.68
1573890402,-18.066,23.438,-1000,-105.469,-656.25
1573890402,20.508,26.855,-479.98,-21.973,-593.75
1573890402,101.074,22.949,-943.359,173.828,584.473
1573890402,83.496,15.137,790.527,126.465,713.867
1573890402,-9.277,6.348,-720.703,-96.191,-460.449
1573890402,-20.508,0.977,-971.191,-99.121,-791.016
1573890402,83.008,17.09,460.449,123.535,246.094
1573890402,115.234,22.949,-838.867,182.617,875
1573890402,10.254,0.488,-110.84,-24.902,-116.699
1573890402,-24.902,7.324,-1000,-120.605,-810.059
1573890402,56.152,25.879,-47.852,81.543,-105.957
1573890402,102.051,23.438,-763.672,210.938,956.543
1573890402,40.527,22.461,218.262,32.715,249.512
1573890402,-37.109,20.02,-1000,-131.348,-766.113
1573890402,23.438,21.484,-286.621,12.695,-425.293
1573890402,125.977,28.809,-803.223,196.289,780.273
1573890402,73.242,11.23,439.453,81.543,570.801
1573890402,-33.203,-3.418,-1000,-122.559,-596.191
1573890402,-2.441,8.301,-616.699,-56.152,-689.453
1573890402,98.633,20.02,921.387,165.527,497.07
1573890402,90.82,20.996,889.16,154.297,744.141
1573890402,-3.906,22.461,-606.934,-67.383,-397.949
1573890402,-17.578,12.207,-1000,-93.262,-805.176
1573890402,74.707,11.23,346.68,124.023,170.898
1573890402,110.352,19.043,-798.34,182.617,945.801
1573890402,13.184,20.996,-3.418,-23.926,-25.879
1573890402,-43.945,20.02,-1000,-129.395,-818.848
1573890402,39.551,10.742,-114.258,47.852,-178.223
1573890402,108.887,14.648,-766.113,192.383,933.594
1573890402,39.551,11.719,242.676,37.598,337.402
1573890402,-40.527,10.742,-1000,-139.16,-741.211
1573890402,6.836,13.184,-361.816,-15.625,-510.742
1573890402,104.004,10.254,-842.773,184.082,707.52
1573890402,72.754,17.578,497.559,102.539,614.746
1573890402,-19.531,24.902,-1000,-114.746,-539.551
1573890402,0.977,17.09,-683.105,-63.477,-682.617
1573890402,93.75,15.625,827.637,158.203,436.523
1573890402,82.52,23.438,-998.535,141.602,819.336
1573890402,-28.32,15.625,-429.688,-88.867,-262.695
1573890402,-43.457,4.883,-1000,-127.441,-834.961
1573890402,58.594,4.883,215.332,93.75,42.969
1573890402,100.098,5.859,-776.367,175.293,948.73
1573890402,8.301,10.742,69.336,-22.461,56.152
1573890402,-47.363,25.879,-1000,-138.672,-880.371
1573890402,30.762,23.438,-158.691,35.645,-336.426
1573890402,109.375,13.672,-769.531,188.477,868.652
1573890402,49.316,19.531,322.266,44.922,381.836
1573890402,-37.598,25.879,-1000,-133.789,-657.227
1573890402,19.531,18.555,-428.711,-29.297,-511.719
1573890402,101.074,10.742,-902.344,166.504,646.973
1573890402,62.5,18.555,673.828,103.027,665.527
1573890402,-27.832,16.602,-862.305,-112.305,-474.609
1573890402,-24.902,8.789,-888.184,-87.891,-725.098
1573890402,77.637,12.207,597.168,137.207,336.426
1573890402,100.586,12.207,-895.996,158.203,860.84
1573890402,3.418,8.301,-256.348,-58.105,-166.992
1573890402,-25.391,14.648,-1000,-112.793,-798.828
1573890402,66.406,11.719,8.789,95.215,-22.949
1573890402,106.445,8.301,-766.113,189.453,938.477
1573890402,17.578,21.484,174.316,-10.254,153.32
1573890402,-45.898,19.043,-1000,-151.367,-798.828
1573890402,18.555,10.742,-190.43,9.277,-377.441
1573890402,93.75,20.508,-775.879,179.199,847.168
1573890402,54.688,28.809,436.035,67.871,515.625
1573890402,-33.691,7.812,-1000,-129.883,-611.328
1573890402,-2.441,-4.395,-468.75,-47.363,-597.168
1573890402,103.027,8.789,-931.152,170.898,587.891
1573890402,87.402,16.602,817.871,128.418,709.961
1573890402,-20.996,12.207,-731.445,-102.051,-453.613
1573890402,-19.043,7.812,-875,-93.262,-761.719
1573890402,80.566,20.02,637.695,138.184,292.48
1573890402,101.562,18.555,-885.742,163.574,866.699
1573890402,7.324,16.113,-189.453,-54.199,-134.766
1573890402,-38.574,15.625,-1000,-131.348,-786.133
1573890402,51.758,7.324,18.555,71.289,-87.402
1573890402,106.934,-2.93,-755.859,178.223,943.848
1573890402,22.461,-9.766,229.492,1.465,219.727
1573890402,-49.805,-0.977,-1000,-139.16,-751.953
1573890402,6.836,9.277,-260.742,3.418,-386.719
1573890402,89.844,9.766,-794.922,181.152,805.176
1573890402,45.898,5.371,479.004,73.242,521.973
1573890402,-42.48,5.859,-1000,-128.418,-662.598
1573890402,-16.602,3.906,-543.945,-56.152,-645.996
1573890402,77.148,-2.93,990.723,161.621,531.738
1573890402,82.52,-0.488,899.414,137.695,737.305
1573890402,-20.996,15.137,-575.195,-89.355,-418.457
1573890402,-46.387,15.625,-1000,-108.398,-856.934
1573890402,50.293,11.719,391.113,113.77,169.922
1573890402,91.797,13.184,-817.871,175.293,909.668
1573890402,-8.789,4.883,-44.922,-41.016,-59.082
1573890402,-63.477,-3.418,-1000,-142.578,-824.707
1573890402,28.809,-0.977,-142.09,47.852,-234.375
1573890402,90.82,2.93,-770.996,177.734,922.852
1573890402,20.508,7.324,275.879,20.02,328.613
1573890402,-52.246,-4.395,-1000,-140.625,-757.812
1573890402,-7.812,-8.789,-316.895,-20.02,-511.719
1573890402,86.914,14.648,-827.148,172.852,720.703
1573890402,56.152,13.184,563.965,94.727,612.305
1573890402,-50.293,0.488,-991.699,-129.395,-591.309
1573890402,-28.32,-4.883,-666.992,-74.219,-729.98
1573890402,83.984,4.395,879.883,155.273,444.336
1573890402,81.055,23.438,950.195,143.066,807.617
1573890402,-26.367,22.461,-502.441,-85.938,-279.297
1573890402,-36.133,16.602,-1000,-121.094,-786.621
1573890402,61.523,9.277,245.117,107.91,122.07
1573890402,92.773,16.602,-773.926,181.152,954.59
1573890402,4.395,24.414,80.078,-23.926,46.875
1573890402,-42.48,12.695,-1000,-131.836,-816.406
1573890402,43.945,3.906,-163.086,50.781,-245.117
1573890402,104.98,0,-768.555,196.777,923.34
1573890402,33.203,5.859,291.992,59.57,385.254
1573890402,-48.34,9.277,-1000,-119.141,-712.402
1573890402,-1.465,7.812,-372.559,-27.344,-529.785
1573890402,93.262,17.09,-863.281,178.223,680.664
1573890402,68.848,12.207,631.348,113.281,634.277
1573890402,-22.949,3.418,-909.668,-108.887,-526.855
1573890402,-22.949,8.789,-820.801,-73.73,-720.703
1573890402,70.312,14.16,696.777,152.832,364.746
1573890402,95.703,17.09,-954.102,166.016,836.426
1573890402,5.371,14.648,-349.121,-49.805,-209.473
1573890402,-33.691,10.254,-1000,-113.77,-829.102
1573890402,58.594,15.137,113.281,93.75,-10.742
1573890402,105.469,13.672,-763.184,190.918,952.148
1573890402,20.508,15.137,145.02,-0.488,123.535
1573890402,-34.18,6.836,-1000,-125.977,-749.023
1573890402,31.25,-4.395,-226.074,25.879,-305.176
1573890402,104.98,8.301,-784.668,186.523,852.539
1573890402,48.828,21.973,390.137,70.801,479.492
1573890402,-41.992,16.602,-1000,-120.117,-613.77
1573890402,-5.859,10.742,-490.234,-37.109,-516.602
1573890402,90.82,8.789,-950.684,174.316,625.488
1573890402,95.215,8.789,786.621,133.789,702.637
1573890402,-3.906,14.16,-741.211,-90.82,-473.633
1573890402,-15.137,-2.441,-935.059,-89.355,-780.762
1573890402,80.078,-11.23,534.668,133.301,299.316
1573890402,101.074,10.254,-849.609,178.223,879.395
1573890402,14.648,24.902,-138.672,-31.25,-197.754
1573890402,-30.273,15.137,-1000,-115.723,-888.184
1573890402,48.828,14.648,-26.367,78.125,-81.543
1573890402,116.211,20.02,-758.301,202.148,958.496
1573890402,40.039,13.184,213.867,28.32,216.797
1573890402,-37.598,21.484,-1000,-129.883,-740.723
1573890402,27.832,25.391,-240.234,13.184,-360.352
1573890402,111.816,9.277,-784.668,195.312,808.105
1573890402,72.266,-0.977,420.898,85.449,537.598
1573890402,-17.578,5.371,-1000,-117.676,-618.164
1573890402,2.441,10.254,-579.59,-48.34,-653.809
1573890402,99.121,9.277,979.98,167.48,536.133
1573890402,88.379,14.16,776.367,136.719,725.098
1573890402,-18.066,17.578,-737.793,-91.309,-419.434
1573890402,-25.879,12.695,-1000,-100.098,-804.199
1573890402,68.359,-2.93,391.113,117.188,203.613
1573890402,91.797,0,-856.445,167.48,912.109
1573890402,-0.488,-2.93,-169.922,-39.062,-69.824
1573890402,-48.828,-3.906,-1000,-131.836,-763.672
1573890402,31.738,4.395,-56.152,59.57,-88.379
1573890402,104.004,4.883,-766.113,195.801,950.195
1573890402,38.574,11.719,249.023,35.645,291.504
1573890402,-45.41,16.602,-1000,-131.348,-750.488
1573890402,14.16,17.09,-301.27,1.465,-489.746
1573890402,106.934,17.578,-812.012,187.5,749.512
1573890402,69.336,23.926,490.723,96.68,569.336
1573890402,-23.438,18.555,-1000,-103.027,-621.094
1573890402,-4.395,6.348,-666.504,-50.781,-698.73
1573890402,90.332,-0.977,849.121,157.227,455.566
1573890402,88.379,7.324,988.77,136.23,783.203
1573890402,-10.254,7.812,-450.684,-76.66,-331.543
1573890402,-30.762,6.348,-1000,-103.516,-822.754
1573890402,58.594,22.949,264.648,110.84,123.535
1573890402,99.121,27.344,-767.578,185.547,931.152
1573890402,10.742,21.973,83.984,-19.531,9.766
1573890402,-51.27,14.16,-1000,-135.254,-828.125
1573890402,27.344,11.23,-137.207,44.434,-259.766
1573890402,107.91,14.16,-760.254,198.242,901.855
1573890402,42.48,9.277,304.199,50.781,386.23
1573890402,-44.434,2.441,-1000,-132.324,-694.824
1573890402,3.418,6.348,-327.637,-23.926,-522.949
1573890402,90.332,16.602,-860.352,174.316,672.363
1573890402,64.453,18.555,725.098,110.352,688.477
1573890402,-32.715,9.766,-831.055,-103.516,-428.223
1573890402,-27.832,11.719,-711.426,-82.52,-686.523
1573890402,71.289,7.812,828.613,142.578,389.16
1573890402,89.844,9.277,-929.199,164.551,834.473
1573890402,-7.324,20.996,-291.504,-59.57,-228.027
1573890402,-39.551,17.09,-1000,-115.234,-789.062
1573890402,49.805,14.16,145.996,94.238,39.062
1573890402,97.168,20.02,-773.926,187.5,927.734
1573890402,20.508,22.949,77.148,1.953,77.148
1573890402,-44.922,22.949,-1000,-130.371,-741.211
1573890402,29.297,24.414,-165.527,32.227,-248.047
1573890402,108.398,31.738,-771.973,195.312,858.887
1573890402,49.805,30.273,379.395,64.941,410.645
1573890402,-38.574,36.133,-1000,-122.559,-674.805
1573890402,0.977,36.621,-395.508,-29.785,-522.949
1573890402,96.68,17.09,-886.23,170.898,634.277
1573890402,75.684,12.695,754.395,113.281,684.082
1573890402,-24.414,15.137,-762.695,-103.027,-501.953
1573890402,-28.809,17.578,-902.832,-85.938,-810.059
1573890402,75.684,27.344,574.219,136.23,273.438
1573890402,98.145,19.043,-852.539,162.598,861.816
1573890402,-4.395,8.789,-155.762,-55.664,-191.406
1573890402,-52.734,18.066,-1000,-130.859,-887.207
1573890402,29.297,21.484,33.203,72.754,-98.633
1573890402,92.285,19.531,-759.277,187.012,961.914
1573890402,17.09,16.602,189.453,7.812,170.898
1573890402,-52.246,22.949,-1000,-138.672,-787.109
1573890402,8.789,27.344,-262.695,5.859,-375.977
1573890402,85.449,20.996,-797.363,172.852,810.059
1573890402,45.898,21.484,439.453,66.406,523.926
1573890402,-46.387,9.277,-1000,-123.535,-637.207
1573890402,-18.066,2.441,-631.836,-47.852,-637.207
1573890402,83.008,24.902,903.809,162.109,539.551
1573890402,73.73,29.297,897.461,122.07,753.906
1573890402,-28.809,10.742,-641.113,-102.051,-394.043
1573890402,-44.434,0.977,-954.102,-110.352,-821.289
1573890402,48.34,5.859,493.164,111.328,201.172
1573890402,77.148,13.184,-813.965,165.527,916.016
1573890402,-11.23,16.602,-35.645,-41.992,-81.055
1573890403,-61.523,17.578,-1000,-137.207,-802.734
1573890403,28.32,17.578,-77.148,55.176,-121.582
1573890403,92.773,12.207,-759.766,187.012,938.965
1573890403,16.602,13.184,234.863,24.414,302.734
1573890403,-56.641,22.949,-1000,-142.09,-731.934
1573890403,-0.977,18.555,-273.926,-18.555,-429.199
1573890403,95.215,18.555,-798.34,172.363,760.254
1573890403,62.5,6.348,458.496,83.496,592.773
1573890403,-37.598,-7.324,-1000,-127.441,-557.129
1573890403,-16.113,18.555,-578.613,-71.289,-689.453
1573890403,96.191,21.973,916.504,153.32,450.195
1573890403,95.703,12.695,-994.141,146.973,818.848
1573890403,-15.625,19.531,-419.434,-77.148,-292.48
1573890403,-32.227,20.02,-1000,-111.328,-835.938
1573890403,72.266,18.555,354.492,110.352,130.859
1573890403,104.98,18.066,-786.133,180.664,924.805
1573890403,5.859,17.09,19.043,-24.902,-5.371
1573890403,-51.758,14.648,-1000,-138.672,-786.133
1573890403,24.414,18.066,-117.676,40.039,-210.938
1573890403,96.68,21.484,-763.672,185.547,885.254
1573890403,30.273,18.066,310.059,38.086,355.469
1573890403,-58.105,7.324,-1000,-138.184,-672.852
1573890403,-5.859,1.953,-381.348,-26.367,-497.07
1573890403,88.379,12.695,-861.328,173.828,680.664
1573890403,53.711,16.602,612.793,97.168,623.535
1573890403,-46.387,10.254,-927.734,-112.793,-533.203
1573890403,-24.902,14.16,-807.129,-66.406,-684.082
1573890403,83.008,28.809,714.355,155.762,411.621
1573890403,87.891,23.438,-973.633,154.297,799.805
1573890403,-13.184,12.695,-378.906,-65.43,-288.574
1573890403,-48.828,8.301,-1000,-110.352,-815.918
1573890403,48.34,5.859,25.879,88.379,15.625
1573890403,94.238,20.508,-776.367,175.293,915.527
1573890403,8.789,25.879,130.859,-9.766,65.43
1573890403,-52.734,20.02,-1000,-135.254,-836.914
1573890403,13.184,20.508,-171.875,29.297,-311.523
1573890403,93.75,21.973,-769.531,190.918,876.953
1573890403,43.457,20.996,348.145,61.035,407.227
1573890403,-42.969,9.277,-1000,-126.953,-700.195
1573890403,-1.953,-5.371,-454.102,-24.902,-561.523
1573890403,93.75,10.254,-912.598,181.152,615.234
1573890403,72.754,25.391,707.52,122.559,663.086
1573890403,-27.832,18.555,-857.91,-103.027,-449.707
1573890403,-26.855,18.066,-834.961,-91.309,-702.148
1573890403,68.359,22.461,687.012,135.742,335.938
1573890403,87.402,24.414,-936.523,165.039,845.215
1573890403,-4.883,16.113,-321.777,-53.223,-162.109
1573890403,-46.387,14.16,-1000,-127.93,-780.762
1573890403,43.457,22.461,58.105,76.66,-39.062
1573890403,102.051,24.902,-764.16,192.871,944.336
1573890403,21.484,26.367,180.664,16.113,164.062
1573890403,-50.781,25.879,-1000,-133.301,-786.133
1573890403,20.02,13.672,-237.305,10.742,-358.887
1573890403,104.004,10.254,-786.621,180.176,829.102
1573890403,45.41,19.043,428.223,63.477,491.699
1573890403,-48.34,14.648,-1000,-130.371,-613.281
1573890403,-15.137,21.484,-506.836,-47.363,-603.516
1573890403,87.891,35.156,-970.703,167.969,544.434
1573890403,81.055,41.504,834.961,132.324,712.402
1573890403,-24.902,28.809,-672.363,-89.355,-453.125
1573890403,-43.457,17.578,-989.746,-105.957,-803.223
1573890403,42.48,27.832,453.125,95.215,234.863
1573890403,64.941,29.297,-856.934,142.09,891.113
1573890403,-35.645,27.832,-148.438,-67.383,-101.074
1573890403,-85.938,41.016,-1000,-162.109,-814.453
1573890403,-6.348,44.434,-123.535,20.996,-130.371
1573890403,38.574,47.363,-778.32,125.977,938.477
1573890403,-49.805,55.664,229.004,-52.246,289.062
1573890403,-125,60.059,-1000,-214.355,-669.434
1573890403,-72.754,70.312,-319.336,-88.867,-384.766
1573890403,-0.488,86.426,-819.336,81.543,748.047
1573890403,-52.734,85.449,452.637,-36.621,566.406
1573890403,-165.527,72.266,-1000,-261.23,-551.27
1573890403,-152.832,68.359,-718.75,-211.914,-650.391
1573890403,-55.176,73.73,828.125,6.348,471.191
1573890403,-64.941,71.289,874.512,-18.066,771.484
1573890403,-168.945,80.566,-639.16,-250,-330.566
1573890403,-181.152,96.68,-1000,-273.438,-777.344
1573890403,-85.449,102.539,280.762,-62.012,164.551
1573890403,-44.922,109.375,-806.641,11.23,932.617
1573890403,-130.859,106.445,-21.973,-192.383,-1.953
1573890403,-188.477,92.285,-1000,-308.594,-850.586
1573890403,-101.562,78.613,-132.812,-117.676,-261.719
1573890403,-23.926,83.008,-771.973,40.039,908.203
1573890403,-83.496,76.66,244.629,-93.262,326.172
1573890403,-154.297,58.105,-1000,-255.859,-743.164
1573890403,-94.727,61.523,-347.168,-128.418,-479.98
1573890403,6.836,64.941,-842.285,79.102,720.215
1573890403,-20.02,54.199,543.945,2.93,607.91
1573890403,-105.957,51.27,-1000,-196.777,-512.207
1573890403,-75.684,49.316,-725.098,-140.137,-647.461
1573890403,31.738,38.574,800.781,89.844,415.039
1573890403,56.152,37.109,980.469,107.422,801.27
1573890403,-32.227,32.227,-452.148,-108.398,-287.109
1573890403,-57.617,11.719,-1000,-148.438,-826.66
1573890403,48.828,-0.977,177.246,79.59,33.691
1573890403,104.98,4.395,-770.02,173.828,925.293
1573890403,28.809,10.742,112.305,-13.672,93.262
1573890403,-22.949,1.465,-1000,-127.441,-754.883
1573890403,57.617,-14.16,-199.219,52.734,-274.414
1573890403,142.09,-5.371,-778.32,217.773,868.164
1573890403,95.703,4.883,348.145,92.285,433.594
1573890403,10.254,-6.348,-1000,-85.938,-655.273
1573890403,54.688,-10.254,-514.16,16.113,-534.668
1573890403,152.344,-4.883,-968.75,225.098,619.141
1573890403,126.953,-3.906,723.633,166.016,670.898
1573890403,24.902,-6.348,-844.238,-51.27,-425.293
1573890403,26.367,-18.066,-852.539,-28.32,-692.871
1573890403,127.441,-24.414,645.508,197.754,326.66
1573890403,140.137,-20.508,-898.926,222.168,853.027
1573890403,43.457,-14.648,-249.512,0.977,-171.875
1573890403,8.789,-8.789,-1000,-67.383,-770.996
1573890403,99.121,-9.277,66.895,134.766,-5.371
1573890403,160.156,-3.418,-766.113,243.652,948.73
1573890403,82.52,-7.324,165.527,66.406,149.902
1573890403,1.465,-21.484,-1000,-78.613,-810.547
1573890403,65.43,-19.043,-239.258,68.848,-382.324
1573890403,150.879,-15.625,-786.621,237.793,811.523
1573890403,100.098,-9.766,387.695,123.047,482.91
1573890403,2.441,-4.395,-1000,-75.684,-624.023
1573890403,28.809,-4.395,-493.164,1.465,-580.078
1573890403,137.695,10.254,-940.43,214.844,567.871
1573890403,130.859,10.742,714.844,172.852,712.402
1573890403,22.461,-12.695,-808.594,-55.664,-441.895
1573890403,18.066,-14.648,-958.008,-55.176,-804.688
1573890403,118.652,-2.441,499.023,169.922,244.141
1573890403,147.461,8.301,-901.367,215.332,867.188
1573890403,54.199,13.184,-264.648,5.859,-148.926
1573890403,12.695,13.184,-1000,-75.684,-822.754
1573890403,103.516,7.812,-22.949,115.723,-122.559
1573890403,163.574,10.742,-766.113,236.328,912.598
1573890403,84.473,20.02,226.562,66.406,254.883
1573890403,1.953,15.137,-1000,-89.844,-724.609
1573890403,55.664,9.277,-279.297,41.016,-435.547
1573890403,141.602,10.254,-799.316,215.82,764.16
1573890403,104.004,15.625,436.523,116.211,530.762
1573890403,5.371,12.207,-1000,-86.426,-668.945
1573890403,24.902,14.16,-595.703,-23.926,-705.566
1573890403,123.535,18.066,917.969,187.5,471.191
1573890403,114.746,13.184,933.594,164.551,756.348
1573890403,9.766,8.301,-511.23,-53.223,-290.039
1573890403,-9.766,-4.395,-1000,-77.148,-763.672
1573890403,86.426,0.977,246.094,132.324,124.023
1573890403,119.629,19.531,-788.574,198.242,928.711
1573890403,24.414,20.996,27.344,0.488,9.766
1573890403,-33.691,11.719,-1000,-100.586,-791.016
1573890403,42.48,16.113,-132.812,80.566,-198.242
1573890403,108.398,23.926,-766.113,213.867,900.879
1573890403,46.387,21.484,261.719,62.5,330.566
1573890403,-34.668,14.16,-1000,-110.352,-699.219
1573890403,13.672,4.883,-331.055,3.906,-489.746
1573890403,114.258,10.742,-841.797,210.449,690.43
1573890403,83.984,23.926,610.84,128.906,591.309
1573890403,-20.508,21.973,-951.66,-94.238,-549.805
1573890403,-4.395,24.902,-704.102,-48.828,-717.285
1573890403,97.168,36.133,827.148,172.363,399.902
1573890403,104.004,38.574,-974.609,169.434,805.176
1573890403,2.93,25.879,-404.297,-54.688,-285.156
1573890403,-24.414,21.484,-1000,-105.469,-791.504
1573890403,70.312,42.48,248.535,104.492,88.867
1573890403,103.027,21.973,-778.809,185.547,928.711
1573890403,17.578,-2.93,58.594,-2.441,66.406
1573890403,-26.367,31.25,-1000,-116.699,-778.32
1573890403,31.738,50.293,-131.836,23.926,-247.559
1573890403,89.355,57.617,-762.207,158.691,881.348
1573890403,14.648,57.129,306.152,10.254,383.301
1573890403,-76.172,56.641,-1000,-168.945,-651.367
1573890403,-27.832,75.684,-324.707,-66.406,-506.348
1573890403,31.25,25.391,-874.512,95.215,632.324
1573890403,-1.953,49.805,793.945,29.297,670.41
1573890403,-130.371,118.652,-741.211,-204.59,-479.98
1573890403,-161.133,52.246,-792.969,-228.516,-745.117
1573890403,-61.523,87.402,722.656,-26.367,318.848
1573890403,13.672,127.441,-855.957,47.852,834.961
1573890403,-92.285,65.43,-153.809,-166.992,-188.965
1573890403,-226.562,74.219,-1000,-326.66,-794.922
1573890403,-73.73,153.809,166.504,-77.637,-34.18
1573890403,-55.664,200.195,-740.234,-1.953,918.457
1573890403,-252.93,151.367,228.027,-290.527,187.5
1573890403,-314.453,172.363,-1000,-424.805,-722.656
1573890403,-215.332,208.008,-178.711,-254.883,-338.867
1573890403,-95.215,208.008,-797.852,-53.711,802.246
1573890403,-136.719,222.168,652.344,-162.109,433.105
1573890403,-252.441,255.371,-923.828,-376.953,-622.559
1573890403,-203.613,233.887,-342.285,-277.832,-564.941
1573890403,-89.355,217.285,-954.102,-57.129,551.758
1573890403,-110.84,248.535,-862.305,-96.68,693.848
1573890403,-189.453,279.785,-164.551,-293.945,-389.648
1573890403,-172.852,269.043,-567.383,-272.461,-716.797
1573890403,-52.734,263.672,868.652,-33.203,244.141
1573890403,4.883,328.125,-749.512,39.551,827.148
1573890403,-117.188,318.359,188.965,-184.57,-158.203
1573890403,-194.336,255.371,-496.094,-298.34,-775.879
1573890403,-72.754,249.512,858.887,-83.984,-63.965
1573890403,-8.789,264.648,-892.578,39.062,919.434
1573890403,-70.312,266.602,879.395,-100.586,169.434
1573890403,-121.582,263.184,800.293,-228.516,-740.234
1573890403,-52.734,259.277,975.098,-91.309,-398.438
1573890403,59.57,249.512,-981.934,119.141,734.375
1573890403,0.488,257.812,986.816,4.395,514.648
1573890403,-116.699,237.305,-998.047,-218.262,-575.195
1573890403,-49.316,241.699,999.512,-102.051,-606.445
1573890403,83.008,236.328,999.512,140.625,494.629
1573890403,48.828,187.012,999.512,96.68,745.117
1573890403,-71.777,173.34,999.512,-135.254,-343.262
1573890403,-53.711,178.711,999.512,-130.371,-773.926
1573890403,89.844,185.547,999.512,125.977,166.504
1573890403,96.68,201.172,999.512,158.691,858.398
1573890403,-28.809,178.711,999.512,-63.477,-110.352
1573890403,-62.5,174.316,999.512,-140.625,-777.344
1573890403,40.039,172.363,999.512,39.062,-175.781
1573890403,116.699,154.785,999.512,167.969,844.238
1573890403,52.734,148.438,999.512,27.344,286.621
1573890403,-24.902,143.555,999.512,-117.188,-722.168
1573890403,28.32,144.043,999.512,20.996,-529.297
1573890403,149.414,135.254,999.512,229.98,655.762
1573890403,113.281,125,999.512,117.676,530.762
1573890403,-20.508,120.605,999.512,-112.305,-542.969
1573890403,-17.09,116.211,999.512,-62.5,-642.09
1573890403,91.797,134.277,999.512,152.344,410.156
1573890403,112.305,140.625,999.512,161.621,761.719
1573890403,10.742,122.559,999.512,-53.223,-264.648
1573890403,-10.254,121.582,999.512,-94.727,-742.676
1573890403,92.285,116.699,999.512,113.281,74.707
1573890403,125.977,113.281,999.512,185.059,904.297
1573890403,37.598,103.516,999.512,-4.395,72.266
1573890403,-27.832,77.637,999.512,-108.398,-677.734
1573890403,27.832,108.887,999.512,47.852,-197.266
1573890403,112.305,132.324,999.512,198.242,867.188
1573890403,43.945,120.605,999.512,57.617,374.512
1573890403,-65.43,125.977,999.512,-136.23,-625.488
1573890403,0.977,122.559,999.512,-24.902,-434.082
1573890403,105.957,107.91,999.512,173.828,649.414
1573890403,68.359,115.234,999.512,115.723,621.582
1573890403,-36.133,104.98,999.512,-94.727,-424.316
1573890403,-20.996,112.305,999.512,-70.801,-612.793
1573890403,86.426,126.465,999.512,144.531,377.93
1573890403,86.914,106.445,999.512,149.414,830.566
1573890403,-22.949,111.816,999.512,-70.312,-238.281
1573890403,-43.457,113.281,999.512,-111.816,-788.574
1573890403,66.895,98.633,999.512,104.98,36.133
1573890403,121.582,117.188,999.512,194.824,895.996
1573890403,32.715,138.184,999.512,13.184,113.281
1573890403,-51.758,143.066,999.512,-119.629,-776.367
1573890403,20.508,144.531,999.512,31.738,-353.027
1573890403,136.23,151.855,999.512,212.891,796.875
1573890403,92.773,147.461,999.512,109.863,411.621
1573890403,-18.555,128.418,999.512,-103.516,-665.527
1573890403,0.977,122.559,999.512,-30.273,-611.816
1573890403,107.422,131.836,999.512,184.082,571.777
1573890403,105.957,139.16,999.512,137.695,677.734
1573890403,-3.418,125,999.512,-75.684,-407.227
1573890403,-5.859,132.812,999.512,-58.105,-710.938
1573890403,95.703,137.695,999.512,157.715,250.488
1573890403,112.793,126.953,999.512,190.43,869.629
1573890403,5.859,127.441,999.512,-17.09,-149.902
1573890404,-41.016,128.906,999.512,-98.633,-798.828
1573890404,55.176,131.836,999.512,92.773,-67.871
1573890404,118.164,123.047,999.512,206.543,928.711
1573890404,39.551,106.934,999.512,35.156,183.105
1573890404,-40.039,106.445,999.512,-109.863,-738.281
1573890404,23.926,124.512,999.512,25.879,-362.305
1573890404,101.562,117.188,999.512,194.824,780.762
1573890404,33.691,99.609,999.512,78.125,516.113
1573890404,-81.543,104.98,999.512,-149.414,-578.125
1573890404,-39.062,111.328,999.512,-69.336,-554.199
1573890404,77.637,117.188,999.512,153.32,540.527
1573890404,39.551,109.863,999.512,98.145,735.352
1573890404,-96.191,94.727,999.512,-133.301,-273.926
1573890404,-114.746,92.285,999.512,-149.902,-656.25
1573890404,-8.301,101.074,999.512,60.059,222.168
1573890404,11.719,104.004,999.512,97.656,875.488
1573890404,-105.469,100.586,999.512,-122.559,-23.926
1573890404,-166.504,100.098,999.512,-218.75,-754.883
1573890404,-87.402,106.934,999.512,-41.016,-180.664
1573890404,-29.785,109.375,999.512,74.707,911.621
1573890404,-108.398,105.957,999.512,-83.984,259.277
1573890404,-189.941,109.375,999.512,-243.164,-741.699
1573890404,-145.02,113.281,999.512,-131.348,-458.008
1573890404,-62.5,114.746,999.512,52.734,708.496
1573890404,-85.938,121.582,999.512,-30.762,578.613
1573890404,-187.5,123.047,999.512,-247.07,-510.742
1573890404,-178.223,115.234,999.512,-193.359,-642.09
1573890404,-68.359,119.629,999.512,26.855,428.223
1573890404,-63.477,126.465,999.512,16.113,776.855
1573890404,-171.387,114.258,999.512,-200.195,-280.273
1573890404,-195.312,111.328,999.512,-236.328,-769.043
1573890404,-85.449,111.328,999.512,-22.461,93.262
1573890404,-35.156,104.004,999.512,68.359,909.18
1573890404,-122.07,99.609,999.512,-115.723,-19.043
1573890404,-181.152,87.402,999.512,-229.98,-806.152
1573890404,-93.75,67.383,999.512,-48.34,-241.699
1573890404,5.371,66.895,999.512,119.629,849.121
1573890404,-61.523,78.125,999.512,-32.227,337.891
1573890404,-153.809,76.66,999.512,-211.426,-703.613
1573890404,-88.379,76.172,999.512,-82.52,-538.086
1573890404,10.254,66.895,999.512,107.91,637.695
1573890404,-16.602,48.34,999.512,48.828,625.977
1573890404,-114.258,29.785,999.512,-146.484,-510.254
1573890404,-96.191,12.695,999.512,-106.445,-723.145
1573890404,24.902,16.602,999.512,125,364.746
1573890404,48.828,30.273,999.512,144.531,820.312
1573890404,-44.922,24.414,999.512,-65.43,-239.746
1573890404,-57.129,17.09,999.512,-109.375,-776.855
1573890404,54.688,11.23,999.512,109.863,28.32
1573890404,124.023,19.043,999.512,216.309,927.246
1573890404,53.711,23.926,999.512,42.48,78.125
1573890404,-6.836,4.395,999.512,-83.008,-828.125
1573890404,76.172,-3.906,999.512,78.125,-335.449
1573890404,171.387,-9.277,999.512,253.418,854.98
1573890404,119.629,-22.949,999.512,142.09,427.246
1573890404,30.273,-17.578,999.512,-35.645,-651.367
1573890404,84.961,-23.438,999.512,63.965,-543.945
1573890404,194.824,-42.969,999.512,277.832,583.984
1573890404,182.129,-50.781,999.512,243.652,680.176
1573890404,88.867,-55.664,999.512,36.133,-442.383
1573890404,90.332,-66.406,999.512,41.992,-726.074
1573890404,200.684,-75.195,999.512,260.742,308.594
1573890404,237.793,-82.031,999.512,302.246,857.91
1573890404,148.438,-86.914,999.512,104.492,-183.594
1573890404,110.352,-83.984,999.512,37.598,-835.449
1573890404,211.426,-80.078,999.023,244.629,-74.707
1573890404,279.785,-85.938,-1000,363.77,915.039
1573890404,191.406,-84.473,998.535,189.453,203.125
1573890404,116.699,-77.637,992.676,50.781,-687.988
1573890404,195.801,-81.055,990.234,204.102,-346.191
1573890404,283.691,-83.984,991.699,374.512,790.039
1573890404,239.258,-86.426,-940.918,265.625,477.051
1573890404,148.926,-84.961,557.129,71.289,-612.793
1573890404,184.082,-81.543,612.793,138.184,-593.75
1573890404,279.785,-80.078,-978.516,341.797,517.09
1573890404,264.16,-75.195,-862.793,304.688,734.375
1573890404,167.969,-71.777,333.496,90.82,-342.285
1573890404,160.645,-69.824,39.062,87.891,-696.777
1573890404,257.812,-62.988,984.375,302.246,226.074
1573890404,286.133,-61.035,-831.543,348.145,894.531
1573890404,191.895,-52.246,471.68,135.742,-72.266
1573890404,137.695,-45.898,-501.953,28.32,-794.434
1573890404,218.75,-44.922,570.312,208.008,-132.812
1573890404,285.645,-36.133,-802.734,345.703,910.156
1573890404,208.496,-33.203,739.258,189.941,239.258
1573890404,121.094,-36.133,-673.34,18.066,-728.516
1573890404,180.664,-29.785,-149.902,139.648,-394.531
1573890404,273.926,-15.625,-862.793,326.66,759.766
1573890404,216.309,-13.184,-952.637,219.727,562.988
1573890404,99.121,-18.066,-302.246,6.836,-524.414
1573890404,119.629,-19.531,-320.801,62.988,-595.215
1573890404,231.445,-14.648,-949.219,273.438,464.355
1573890404,225.098,-12.207,-835.449,248.535,779.297
1573890404,109.375,-13.672,-65.918,25.879,-277.344
1573890404,89.355,-13.672,-702.148,-6.836,-768.555
1573890404,191.406,-8.301,748.047,198.73,99.121
1573890404,235.84,-2.93,-760.742,280.273,895.996
1573890404,139.648,-0.977,197.754,90.82,4.883
1573890404,76.172,2.93,-1000,-31.25,-765.137
1573890404,160.156,7.324,129.395,135.742,-224.609
1573890404,236.816,6.836,-733.398,291.016,878.418
1573890404,168.457,12.695,452.148,147.949,367.676
1573890404,85.449,12.695,-1000,-31.738,-675.293
1573890404,142.09,6.348,-219.238,89.844,-502.93
1573890404,232.91,12.207,-861.328,289.062,675.293
1573890404,201.66,12.695,948.73,215.82,620.605
1573890404,105.957,14.16,-530.273,7.324,-502.441
1573890404,109.863,11.23,-537.109,35.156,-677.246
1573890404,205.078,4.395,953.613,246.094,384.277
1573890404,208.008,9.766,-824.707,254.395,805.176
1573890404,98.145,13.672,-39.551,34.668,-270.02
1573890404,75.195,4.883,-910.156,-17.09,-799.805
1573890404,172.363,-0.488,487.305,178.711,24.414
1573890404,217.773,4.395,-737.305,265.137,906.25
1573890404,119.629,5.859,255.371,80.566,88.867
1573890404,32.227,-4.395,-1000,-57.129,-761.23
1573890404,104.492,-14.16,-106.445,92.773,-281.25
1573890404,187.5,-11.719,-769.531,240.234,864.258
1573890404,119.141,1.953,576.172,107.422,401.855
1573890404,13.672,3.418,-976.562,-73.73,-643.555
1573890404,43.457,0.488,-357.422,5.859,-504.395
1573890404,136.719,7.324,-911.133,197.754,600.586
1573890404,114.746,8.789,-996.582,152.832,684.57
1573890404,11.23,2.93,-465.82,-58.594,-458.496
1573890404,8.789,-3.906,-658.203,-46.875,-757.812
1573890404,113.77,-1.953,857.91,167.48,302.246
1573890404,135.254,2.441,-811.035,199.707,866.211
1573890404,29.785,2.93,-5.859,-10.254,-169.434
1573890404,-12.695,6.836,-1000,-91.797,-765.137
1573890404,83.984,3.906,280.762,102.539,-3.418
1573890404,151.855,6.348,-729.004,222.168,930.664
1573890404,68.848,12.695,232.422,52.246,157.227
1573890404,-10.742,12.207,-1000,-95.215,-757.812
1573890404,52.734,6.348,-176.27,43.457,-367.188
