timestamps,TP9,AF7,AF8,TP10,Right AUX
1573889726,56.152,23.926,603.027,61.523,141.113
1573889726,47.852,23.926,457.52,41.504,156.738
1573889726,31.738,21.973,-258.301,14.648,-13.184
1573889726,28.32,19.043,-218.75,22.461,-63.965
1573889726,46.387,28.32,458.984,52.734,82.52
1573889726,54.688,29.785,344.238,59.57,149.414
1573889726,40.527,20.02,-564.453,35.645,0.488
1573889726,30.273,14.16,-801.758,21.973,-110.84
1573889726,44.434,15.137,19.531,48.34,15.625
1573889726,56.641,24.414,542.48,61.523,200.195
1573889726,44.922,26.855,62.5,31.738,119.141
1573889726,32.227,20.508,-359.863,16.602,-63.965
1573889726,38.086,20.508,199.219,39.062,0.977
1573889726,47.363,26.367,689.941,56.152,193.848
1573889726,34.668,24.902,160.156,34.668,127.93
1573889726,21.973,15.625,-421.387,13.184,-66.895
1573889726,25.391,14.16,-83.008,23.926,-65.918
1573889726,36.133,15.625,390.137,40.039,122.559
1573889726,37.598,20.508,-160.156,24.902,132.812
1573889726,21.973,33.691,-744.141,0.488,-57.129
1573889726,22.949,30.762,-324.219,9.277,-111.328
1573889726,32.227,15.137,355.469,29.297,73.242
1573889726,28.32,10.742,329.102,24.902,185.547
1573889726,18.555,11.719,-375,1.953,9.277
1573889726,22.949,13.672,-508.789,2.93,-132.324
1573889726,41.992,14.16,149.902,31.25,12.207
1573889726,48.828,13.672,452.637,38.574,173.828
1573889727,39.551,9.766,0.488,17.578,76.66
1573889727,40.527,10.742,-351.074,12.207,-83.496
1573889727,52.734,15.137,-155.762,34.18,-34.18
1573889727,62.5,19.531,174.805,53.711,142.578
1573889727,57.617,16.602,88.379,47.363,112.305
1573889727,42.48,10.742,-361.328,25.879,-73.242
1573889727,41.504,9.766,-308.594,33.691,-95.703
1573889727,55.664,19.043,250.488,62.012,79.59
1573889727,55.176,28.809,371.582,55.664,156.25
1573889727,36.621,20.508,-212.402,25.879,-8.301
1573889727,29.785,11.23,-428.711,21.973,-122.559
1573889727,38.086,17.09,219.238,43.457,47.363
1573889727,42.48,18.555,556.641,41.016,190.918
1573889727,28.809,11.23,-99.609,8.789,35.156
1573889727,14.648,9.766,-596.191,-2.93,-132.324
1573889727,26.855,15.625,-136.719,23.438,-20.02
1573889727,36.621,20.02,453.125,34.18,181.152
1573889727,27.344,19.531,23.438,10.742,100.098
1573889727,15.625,14.648,-682.129,-9.766,-105.469
1573889727,17.09,14.16,-175.781,3.906,-49.316
1573889727,34.18,21.484,614.746,31.738,160.156
1573889727,38.086,25.879,191.406,23.438,136.23
1573889727,18.555,19.531,-639.16,-9.277,-46.387
1573889727,13.672,11.719,-286.133,-5.859,-75.195
1573889727,30.273,13.672,462.891,27.832,104.492
1573889727,34.668,12.695,216.797,27.344,138.184
1573889727,25.879,4.883,-538.086,2.93,-39.551
1573889727,20.996,4.883,-608.398,5.371,-113.77
1573889727,38.574,9.766,164.062,38.574,40.039
1573889727,51.758,17.578,291.504,47.852,164.062
1573889727,34.18,23.438,-499.023,17.578,24.902
1573889727,25.391,13.184,-507.812,6.836,-106.445
1573889727,38.086,5.859,200.684,32.227,-11.23
1573889727,41.992,11.719,574.707,45.898,178.223
1573889727,34.18,11.719,131.836,23.926,111.816
1573889727,26.855,7.324,-291.992,5.859,-60.547
1573889727,31.25,8.301,61.523,20.508,-22.461
1573889727,46.387,18.066,539.551,43.945,149.902
1573889727,40.039,22.461,159.18,29.297,133.789
1573889727,25.879,20.508,-622.07,6.348,-96.191
1573889727,28.32,21.973,-533.203,17.09,-137.695
1573889727,43.945,22.949,-0.488,35.645,67.871
1573889727,48.34,20.996,147.949,33.691,154.297
1573889727,31.25,15.137,-153.809,9.766,-0.488
1573889727,22.461,9.277,-317.871,2.93,-100.098
1573889727,30.273,8.789,288.086,26.855,44.922
1573889727,38.574,10.742,707.031,37.598,185.547
1573889727,36.621,10.742,220.703,18.555,75.195
1573889727,21.484,14.648,-210.449,2.441,-76.172
1573889727,23.438,20.508,181.641,20.02,-17.578
1573889727,35.645,22.461,622.559,37.598,159.668
1573889727,27.832,26.855,197.754,17.09,92.285
1573889727,17.578,25.391,-526.855,-1.953,-117.676
1573889727,28.809,22.461,-259.277,21.484,-89.355
1573889727,48.34,15.625,596.68,54.688,108.398
1573889727,43.457,9.766,674.805,44.434,138.184
1573889727,29.297,14.648,-141.113,16.602,-40.527
1573889727,27.344,17.09,-208.496,20.02,-99.121
1573889727,41.992,15.625,751.465,51.758,66.895
1573889727,48.828,19.043,881.836,51.758,160.645
1573889727,32.715,21.484,195.801,20.508,21.973
1573889727,23.438,11.719,85.449,14.648,-67.871
1573889727,35.156,7.324,629.395,41.992,50.781
1573889727,46.387,17.09,798.34,53.711,182.617
1573889727,31.25,20.996,-3.906,21.973,52.734
1573889727,10.742,11.719,-372.07,-2.93,-98.633
1573889727,21.973,8.789,472.168,21.973,-11.719
1573889727,41.992,12.207,929.199,49.316,146.484
1573889727,29.785,12.207,416.016,27.832,125.488
1573889727,4.395,13.672,-118.164,0.488,-68.848
1573889727,11.719,13.184,203.125,17.09,-98.633
1573889727,32.227,8.789,751.465,46.387,100.586
1573889727,33.203,10.742,618.164,34.668,173.828
1573889727,19.531,16.602,31.738,6.348,-11.719
1573889727,19.043,9.766,-152.832,11.719,-130.371
1573889727,41.504,9.277,196.777,42.48,28.32
1573889727,58.594,21.484,229.492,50.293,141.113
1573889727,43.945,23.438,-41.992,22.461,46.387
1573889727,36.133,23.926,-122.559,18.555,-85.938
1573889727,50.293,19.531,309.082,43.945,-3.418
1573889727,56.152,15.625,667.48,53.223,173.34
1573889727,44.434,18.066,243.652,33.203,85.938
1573889727,31.25,19.531,-230.469,15.137,-71.289
1573889727,39.062,20.996,38.086,34.18,-41.016
1573889727,58.105,25.879,563.965,62.988,133.789
1573889727,44.922,21.973,343.75,42.48,127.441
1573889727,21.484,12.695,-429.199,10.742,-65.43
1573889727,30.273,12.207,-678.223,22.461,-120.605
1573889727,47.363,21.973,18.555,48.34,59.082
1573889727,44.434,25.391,397.949,39.062,143.555
1573889727,24.902,14.648,-325.684,7.324,-44.434
1573889727,17.09,16.602,-449.707,3.418,-100.098
1573889727,31.738,27.832,325.684,26.855,46.387
1573889727,36.621,25.391,546.387,29.785,150.879
1573889727,17.09,14.16,-169.922,-0.977,36.621
1573889727,1.465,18.066,-569.824,-12.207,-107.422
1573889727,13.672,20.996,62.012,13.672,-16.602
1573889727,28.809,21.973,476.074,30.273,158.691
1573889727,24.414,30.762,-250.488,15.137,77.637
1573889727,17.09,26.367,-940.918,-1.953,-133.301
1573889727,19.531,22.461,-326.172,13.184,-94.238
1573889727,41.016,29.785,468.75,44.922,126.465
1573889727,42.48,30.273,55.664,37.109,105.469
1573889727,28.809,28.809,-732.91,15.137,-105.469
1573889727,30.762,23.438,-393.066,25.879,-113.77
1573889727,46.387,20.508,416.016,52.734,83.496
1573889727,55.176,27.344,371.582,58.105,160.645
1573889727,42.969,26.855,-284.18,31.25,-10.254
1573889727,34.668,23.438,-383.789,25.391,-138.672
1573889727,47.852,25.879,239.258,53.223,9.277
1573889727,57.617,26.367,425.293,63.965,179.688
1573889727,43.945,19.531,-258.789,35.645,58.594
1573889727,35.156,17.578,-651.367,19.531,-105.469
1573889727,44.922,23.926,-181.641,44.434,-48.34
1573889727,57.129,29.785,37.598,61.523,97.168
1573889727,42.48,30.273,-164.551,35.156,98.633
1573889727,22.461,27.832,-285.645,12.207,-40.527
1573889727,25.879,24.902,-30.762,24.414,-45.898
1573889727,34.18,29.785,509.766,42.48,129.395
1573889727,30.273,26.855,437.5,29.785,154.785
1573889727,12.207,19.531,-189.453,2.93,-42.48
1573889727,7.812,18.555,-266.602,4.883,-117.676
1573889727,24.902,15.625,311.035,32.715,79.59
1573889727,29.785,12.207,309.57,33.203,160.645
1573889727,17.09,13.672,-260.742,7.324,-5.371
1573889727,15.625,17.09,-557.617,5.859,-120.117
1573889727,30.762,21.484,-176.27,35.645,-5.859
1573889727,44.434,28.809,497.07,56.641,174.805
1573889727,39.062,29.297,210.449,39.062,96.68
1573889727,37.598,25.391,-385.254,26.855,-119.141
1573889727,49.316,22.949,-13.184,48.34,-71.289
1573889727,56.641,19.043,628.418,62.988,145.02
1573889727,50.781,18.066,335.449,42.969,145.996
1573889727,34.18,20.02,-319.336,14.648,-39.551
1573889727,35.645,23.438,-208.008,26.855,-75.684
1573889727,55.664,23.926,322.754,58.594,94.238
1573889727,50.781,16.602,151.367,51.27,123.535
1573889727,26.367,9.766,-723.633,13.184,-58.105
1573889727,20.996,16.113,-609.863,7.324,-104.492
1573889727,33.691,22.461,472.168,33.691,83.008
1573889727,34.668,26.855,563.477,37.598,179.199
1573889727,15.137,29.297,-176.758,9.277,27.344
1573889727,-2.441,20.508,-312.012,-7.324,-106.445
1573889727,8.301,14.16,262.695,14.16,-17.578
1573889727,20.02,9.766,570.312,25.391,172.363
1573889727,7.812,11.23,57.617,3.906,89.355
1573889727,-2.93,17.578,-564.453,-9.277,-123.535
1573889727,9.277,20.996,-188.477,9.766,-58.594
1573889727,21.484,25.391,462.891,34.18,155.762
1573889727,18.555,25.879,203.125,22.949,150.879
1573889727,11.23,21.484,-347.168,3.906,-55.176
1573889727,8.301,12.695,-92.285,15.625,-85.449
1573889727,29.297,12.207,236.816,46.387,74.707
1573889727,31.25,14.648,-47.363,42.969,126.953
1573889727,12.695,13.184,-327.637,14.16,-11.23
1573889727,19.531,16.602,-376.953,23.926,-79.59
1573889727,35.645,24.414,184.082,53.711,59.082
1573889727,38.574,22.949,437.012,49.805,162.109
1573889727,28.32,21.484,-271.484,19.531,18.555
1573889727,20.02,20.02,-659.668,10.254,-125
1573889727,37.598,18.555,-317.383,35.645,-19.043
1573889727,59.082,20.508,125.977,58.594,146.484
1573889727,51.758,24.902,119.141,42.48,102.051
1573889727,30.762,24.902,-374.023,19.043,-53.223
1573889727,28.809,23.926,-196.777,30.273,-48.34
1573889727,39.551,23.438,531.738,51.758,130.371
1573889727,30.273,23.926,388.184,32.227,124.512
1573889727,9.277,33.691,-377.441,1.465,-62.5
1573889727,10.254,29.297,-213.867,9.766,-55.664
1573889727,28.32,21.484,445.801,33.203,93.262
1573889727,32.227,20.508,280.762,28.809,139.16
1573889727,14.16,17.09,-566.895,-7.812,-7.324
1573889727,5.859,20.02,-812.012,-20.02,-129.883
1573889727,25.391,24.902,165.527,18.555,31.25
1573889727,34.668,20.508,673.34,37.598,204.59
1573889727,24.414,15.137,-94.727,14.648,28.32
1573889727,13.184,26.855,-542.48,4.883,-139.16
1573889727,25.391,28.809,143.066,35.156,-15.137
1573889727,38.086,17.578,639.648,57.617,166.992
1573889727,30.273,17.09,143.555,42.969,120.605
1573889727,17.09,16.602,-492.676,19.043,-112.305
1573889727,20.508,19.043,-143.066,29.785,-102.051
1573889727,39.062,27.344,402.344,59.57,112.305
1573889727,43.457,34.668,-166.504,50.781,109.863
1573889727,30.762,32.715,-809.57,20.02,-48.828
1573889727,24.902,27.344,-372.07,22.949,-101.562
1573889727,36.133,32.715,303.223,48.828,46.387
1573889727,41.016,37.598,309.57,46.875,153.809
1573889727,33.691,33.203,-229.98,21.484,-4.883
1573889727,27.832,36.621,-337.891,20.02,-116.211
1573889727,36.133,38.574,253.906,41.504,41.016
1573889727,41.992,27.344,473.145,41.016,172.363
1573889727,27.832,27.832,-2.441,11.23,76.66
1573889727,13.672,37.109,-392.09,-7.812,-105.469
1573889727,12.695,35.645,-207.031,7.812,-65.43
1573889727,23.438,29.297,219.238,25.879,151.855
1573889727,29.297,27.832,103.027,18.066,113.77
1573889727,16.602,28.32,-328.613,0,-77.637
1573889727,12.695,28.32,-315.918,5.859,-83.008
1573889727,22.949,32.227,59.57,23.438,92.773
1573889727,24.414,31.25,259.277,19.043,146.484
1573889727,11.719,28.809,-242.676,-6.348,-26.855
1573889727,14.16,30.273,-338.379,-1.465,-84.961
1573889727,38.086,31.738,362.305,35.645,80.078
1573889727,49.805,37.598,615.234,45.898,190.43
1573889727,35.156,30.762,-51.758,16.602,31.738
1573889727,26.367,24.414,-519.531,8.301,-126.953
1573889727,41.016,30.273,-33.203,41.504,0
1573889727,59.082,33.691,444.824,55.664,178.711
1573889727,51.758,29.297,2.93,36.133,83.496
1573889727,28.32,24.414,-800.293,11.23,-123.047
1573889727,31.25,26.855,-382.324,23.926,-54.688
1573889727,48.828,28.32,541.992,51.758,157.715
1573889727,42.48,28.32,180.664,38.086,128.418
1573889727,23.438,24.414,-469.727,8.789,-54.688
1573889727,27.344,26.855,-104.492,20.02,-74.707
1573889727,46.875,32.227,642.578,48.828,114.258
1573889727,38.574,25.391,591.309,36.133,198.242
1573889727,18.066,20.508,-284.18,8.301,-11.23
1573889727,20.996,23.926,-439.941,10.254,-136.23
1573889727,32.227,23.926,478.516,34.18,48.828
1573889727,35.645,23.438,570.312,37.598,176.27
1573889727,20.508,20.02,-366.211,2.441,14.16
1573889727,6.348,12.695,-347.656,-13.672,-93.75
1573889727,26.367,16.113,461.914,21.973,5.859
1573889727,40.527,15.625,833.008,36.133,179.199
1573889727,25.879,14.16,431.641,2.93,125.977
1573889727,15.625,18.066,-83.008,-12.207,-73.242
1573889727,26.367,21.973,151.855,13.672,-59.57
1573889727,57.129,23.926,825.684,50.293,160.645
1573889727,62.5,18.066,556.152,46.875,166.016
1573889727,37.598,17.09,-85.938,14.648,-15.625
1573889727,40.527,26.367,65.43,24.414,-80.566
1573889727,63.477,33.691,644.043,57.617,71.777
1573889727,62.012,25.879,752.441,55.176,166.992
1573889727,37.109,17.578,200.195,19.043,0
1573889727,33.691,24.902,-9.766,14.648,-103.516
1573889727,58.594,20.508,223.633,48.34,0.977
1573889727,55.664,15.625,538.574,48.828,139.648
1573889727,33.203,20.508,268.555,18.555,39.062
1573889727,29.297,24.414,-231.445,10.254,-147.461
1573889727,46.387,31.25,229.492,40.527,-54.199
1573889727,54.199,25.879,766.602,59.082,169.434
1573889727,32.715,18.555,328.613,29.785,132.324
1573889727,14.648,26.367,-497.559,1.465,-112.305
1573889727,20.508,31.25,-367.676,19.531,-106.445
1573889727,32.227,21.973,625,45.41,130.859
1573889727,25.879,11.23,542.969,30.762,114.746
1573889727,4.883,5.859,-235.84,-2.93,-74.219
1573889727,3.418,14.16,-135.742,1.953,-100.098
1573889727,18.555,19.531,629.883,23.438,75.195
1573889727,24.414,19.531,657.715,20.02,168.457
1573889727,8.301,21.973,-128.906,-12.207,-3.906
1573889727,0.977,21.973,-347.656,-21.484,-139.648
1573889727,24.902,28.32,188.965,18.555,-1.465
1573889727,41.992,24.902,430.176,40.039,172.852
1573889728,29.297,12.695,-360.352,13.672,62.988
1573889728,18.066,10.742,-740.234,0.488,-87.891
1573889728,38.086,21.484,123.535,38.086,-19.043
1573889728,68.359,25.391,625,74.707,157.227
1573889728,60.059,17.09,142.578,53.223,110.352
1573889728,37.109,11.23,-375.488,19.531,-83.496
1573889728,40.039,15.625,-48.828,33.691,-75.684
1573889728,54.688,22.949,538.086,61.035,128.906
1573889728,51.758,19.043,393.555,55.176,184.082
1573889728,33.203,18.066,-284.18,24.902,4.395
1573889728,31.738,19.531,-435.059,24.902,-88.867
1573889728,46.387,16.602,-30.273,52.734,43.457
1573889728,48.34,11.719,-44.922,50.293,146.973
1573889728,32.715,10.254,-368.652,16.602,22.949
1573889728,25.391,15.137,-487.793,7.812,-131.348
1573889728,40.527,20.996,-22.461,37.109,-14.648
1573889728,48.828,23.926,397.461,49.805,176.27
1573889728,35.156,20.02,8.789,26.367,77.148
1573889728,25.879,14.16,-452.148,15.137,-95.703
1573889728,28.32,11.719,-146.484,25.879,-56.641
1573889728,35.645,18.066,411.621,35.156,132.324
1573889728,34.18,23.438,223.633,23.926,129.883
1573889728,21.973,18.066,-541.016,2.93,-86.914
1573889728,21.973,20.996,-703.125,12.207,-109.375
1573889728,40.527,23.926,35.645,38.086,96.68
1573889728,43.457,18.066,343.262,39.062,156.25
1573889728,32.715,22.461,-333.496,19.043,-35.156
1573889728,30.273,22.461,-488.281,18.066,-132.324
1573889728,40.527,14.648,315.43,36.621,41.992
1573889728,47.852,16.602,543.945,38.574,183.105
1573889728,34.668,16.113,-238.77,9.766,45.41
1573889728,30.762,18.555,-478.027,4.395,-78.125
1573889728,47.852,25.391,250.488,30.762,28.32
1573889728,55.664,27.344,692.383,45.898,170.41
1573889728,49.805,31.25,-83.984,29.297,77.148
1573889728,39.062,32.227,-822.266,7.324,-118.164
1573889728,35.645,26.367,-158.203,18.555,-80.078
1573889728,48.828,25.879,595.703,42.48,114.258
1573889728,46.387,20.996,167.48,33.691,112.305
1573889728,28.809,13.672,-483.887,2.93,-52.734
1573889728,26.855,20.996,-172.363,12.207,-104.98
1573889728,36.621,22.949,513.672,34.18,72.266
1573889728,36.621,24.414,487.793,25.391,168.945
1573889728,25.391,27.832,-133.301,2.93,14.648
1573889728,19.043,23.438,-300.293,3.418,-101.074
1573889728,28.809,21.484,266.602,33.691,22.949
1573889728,36.133,20.02,479.98,42.48,177.734
1573889728,19.531,23.438,-223.633,10.254,47.852
1573889728,5.859,24.902,-590.332,-1.953,-143.066
1573889728,19.043,14.648,14.16,22.461,-60.547
1573889728,35.156,11.719,201.66,39.062,115.234
1573889728,33.203,21.973,-153.32,27.344,80.078
1573889728,22.461,29.297,-317.383,7.812,-80.078
1573889728,27.344,24.902,-93.262,23.926,-84.473
1573889728,41.504,21.484,463.379,50.781,114.746
1573889728,34.668,26.367,436.035,36.621,154.785
1573889728,21.973,26.855,-189.453,13.184,-46.875
1573889728,23.926,13.672,-255.859,20.02,-114.258
1573889728,37.109,11.719,215.82,42.969,48.828
1573889728,42.48,22.949,293.457,46.875,181.641
1573889728,28.32,26.855,-306.152,21.484,8.301
1573889728,28.32,24.414,-728.027,14.648,-152.832
1573889728,37.598,26.855,-183.594,37.598,10.254
1573889728,38.574,29.297,425.781,41.992,173.828
1573889728,26.855,25.391,11.23,18.066,57.617
1573889728,11.719,21.973,-479.492,2.441,-127.441
1573889728,22.949,22.949,-23.438,23.438,-62.012
1573889728,44.922,26.367,649.414,47.363,160.156
1573889728,45.41,28.32,250.488,36.133,106.445
1573889728,28.32,27.344,-433.105,11.23,-85.449
1573889728,18.555,22.461,-299.316,9.766,-95.703
1573889728,32.715,19.043,260.742,35.645,85.938
1573889728,35.156,16.602,195.801,28.809,151.855
1573889728,19.531,20.996,-685.547,-0.488,-22.461
1573889728,23.926,32.227,-588.379,7.812,-76.172
1573889728,43.945,34.18,395.02,37.598,49.805
1573889728,55.176,25.391,446.777,44.434,143.555
1573889728,40.527,20.508,-256.836,21.973,2.93
1573889728,25.879,17.578,-364.746,16.113,-118.164
1573889728,40.527,20.508,295.898,41.992,9.766
1573889728,58.594,30.762,579.59,60.547,177.734
1573889728,46.875,29.785,84.473,41.992,111.816
1573889728,30.273,25.879,-479.98,20.996,-92.285
1573889728,38.086,30.762,-218.75,39.062,-78.613
1573889728,57.129,27.344,236.328,64.453,129.395
1573889728,52.734,18.555,-197.754,48.828,125.488
1573889728,31.25,15.137,-528.32,20.508,-58.105
1573889728,39.551,26.367,-192.871,38.574,-72.754
1573889728,56.641,34.668,352.051,65.918,113.281
1573889728,53.711,35.156,419.922,54.199,177.734
1573889728,39.551,29.297,-89.355,24.414,20.02
1573889728,39.551,25.879,-94.727,26.367,-20.508
1573889728,55.176,29.785,431.641,51.758,97.168
1573889728,54.199,31.25,570.801,53.711,179.688
1573889728,36.621,33.691,-123.535,29.297,52.734
1573889728,21.484,31.25,-538.086,16.602,-70.312
1573889728,28.32,30.762,-226.074,27.832,1.953
1573889728,33.691,33.203,264.16,36.621,173.34
1573889728,20.508,28.32,216.309,22.949,129.883
1573889728,9.766,28.809,-374.512,4.883,-66.895
1573889728,21.484,34.18,-120.605,20.996,-48.34
1573889728,40.527,33.203,596.191,44.434,146.973
1573889728,35.645,32.227,320.801,28.32,143.555
1573889728,21.973,23.926,-460.449,3.906,-63.477
1573889728,28.809,17.09,-318.848,18.066,-92.285
1573889728,45.41,25.391,425.293,43.457,83.008
1573889728,44.434,30.273,374.023,34.668,155.762
1573889728,34.18,24.902,-490.723,5.371,21.484
1573889728,32.715,28.32,-665.527,2.441,-76.66
1573889728,43.945,37.109,241.699,33.691,45.41
1573889728,58.105,34.668,692.871,49.316,192.871
1573889728,42.969,25.391,-195.312,13.184,38.086
1573889728,27.344,19.531,-846.191,-7.812,-162.109
1573889728,38.086,26.367,21.973,24.902,-33.691
1573889728,50.293,31.738,656.25,47.852,175.293
1573889728,40.527,26.367,143.066,23.926,96.68
1573889728,29.297,26.367,-548.34,4.883,-122.07
1573889728,34.668,26.855,-259.277,23.926,-107.91
1573889728,43.945,23.926,332.52,46.875,108.398
1573889728,38.086,24.414,97.168,34.668,145.02
1573889728,17.578,24.414,-382.324,4.883,-30.273
1573889728,16.113,33.691,-197.266,10.742,-100.098
1573889728,34.668,32.227,442.871,36.133,69.824
1573889728,37.598,27.344,201.66,33.691,163.086
1573889728,21.484,29.785,-450.195,7.324,-2.93
1573889728,17.09,24.414,-377.93,4.395,-130.859
1573889728,35.156,25.391,202.148,32.715,8.789
1573889728,46.875,31.25,526.367,49.805,189.453
1573889728,34.668,28.809,71.289,28.809,69.824
1573889728,24.414,27.832,-319.824,13.672,-114.258
1573889728,30.762,33.691,-62.988,34.668,-35.156
1573889728,46.875,34.18,185.059,55.664,150.391
1573889728,46.875,31.25,35.156,42.969,114.746
1573889728,24.902,22.949,-311.523,10.254,-73.242
1573889728,26.367,20.508,-89.844,17.578,-65.918
1573889728,57.617,32.715,529.785,61.523,118.652
1573889728,55.664,30.762,530.273,60.547,156.25
1573889728,21.973,19.043,-83.496,17.578,-17.578
1573889728,20.508,23.438,-187.5,18.555,-101.074
1573889728,37.109,23.926,448.242,46.387,51.27
1573889728,40.039,19.531,713.867,49.316,187.988
1573889728,30.273,22.949,128.906,22.949,58.594
1573889728,23.926,24.902,-250,10.254,-68.848
1573889728,40.039,29.785,190.918,35.156,19.043
1573889728,53.711,39.551,626.465,44.922,158.691
1573889728,41.992,37.109,133.789,14.648,77.637
1573889728,26.367,33.691,-504.883,-9.277,-150.879
1573889728,38.086,38.086,78.125,11.719,-95.215
1573889728,49.316,30.762,867.188,31.738,147.461
1573889728,39.551,22.461,465.332,18.555,129.883
1573889728,29.297,23.926,-538.086,3.418,-104.98
1573889728,35.645,29.785,-266.113,20.02,-138.672
1573889728,58.594,31.25,718.262,54.688,82.031
1573889728,62.012,22.461,630.859,53.711,152.832
1573889728,42.48,23.438,-166.504,24.414,-10.742
1573889728,40.039,23.926,-236.328,21.973,-85.938
1573889728,55.664,21.973,702.148,52.734,101.562
1573889728,65.918,22.949,787.109,63.477,200.684
1573889728,44.922,16.602,-145.508,32.227,16.113
1573889728,29.785,20.508,-272.461,17.09,-116.699
1573889728,45.898,26.367,434.57,47.363,18.555
1573889728,56.152,23.438,867.188,59.57,192.383
1573889728,43.457,20.02,436.035,35.645,122.07
1573889728,31.738,22.949,-4.395,20.996,-60.059
1573889728,39.551,28.32,312.988,38.574,-41.504
1573889728,52.246,26.855,774.902,57.129,143.066
1573889728,48.34,20.02,435.059,41.504,162.109
1573889728,33.691,18.066,-250,15.625,-11.719
1573889728,29.785,24.414,-183.105,20.02,-86.426
1573889728,40.039,32.715,229.004,43.945,74.707
1573889728,41.016,26.855,305.664,43.945,172.363
1573889728,33.691,16.602,-35.156,28.809,46.387
1573889728,36.621,26.855,-306.152,29.785,-84.473
1573889728,37.109,30.762,293.945,33.691,36.133
1573889728,33.691,23.926,584.961,33.203,176.758
1573889728,20.996,25.391,-79.59,14.16,41.992
1573889728,13.672,31.25,-428.711,0.977,-94.727
1573889728,28.809,33.691,146.484,29.297,0.977
1573889728,42.48,26.855,572.754,47.852,185.547
1573889728,43.457,24.414,113.281,31.738,112.793
1573889728,33.691,29.785,-618.164,9.277,-116.699
1573889728,35.156,30.273,-531.25,21.973,-98.145
1573889728,46.387,28.809,412.598,43.457,128.906
1573889728,44.434,26.855,437.5,31.25,158.203
1573889728,29.297,25.391,-391.602,5.859,-63.965
1573889728,30.273,36.133,-422.363,12.207,-141.602
1573889728,44.922,44.434,362.305,41.504,56.641
1573889728,48.828,43.457,447.266,41.504,153.809
1573889728,39.551,40.527,-365.723,19.043,5.859
1573889728,24.414,38.086,-614.258,12.207,-87.891
1573889728,30.762,36.621,34.18,35.645,23.926
1573889728,39.551,31.738,284.18,47.363,168.457
1573889728,21.973,24.902,-504.883,11.719,47.363
1573889728,-0.488,27.344,-922.363,-12.207,-138.672
1573889728,11.719,40.527,-68.359,15.137,-47.363
1573889728,37.109,35.156,508.301,37.109,151.367
1573889728,28.32,20.996,51.27,19.043,99.121
1573889728,9.277,24.902,-392.578,-4.395,-65.43
1573889728,15.625,26.367,-95.703,10.254,-76.172
1573889728,34.668,22.949,448.242,41.992,109.375
1573889728,37.109,21.973,287.598,32.715,145.508
1573889728,20.996,25.391,-261.719,5.371,-15.625
1573889728,21.973,32.227,-291.016,15.625,-42.969
1573889728,38.086,28.32,144.043,41.504,71.289
1573889728,46.875,29.785,341.797,48.34,165.039
1573889728,34.18,32.227,-119.629,25.879,22.461
1573889728,17.09,25.879,-283.203,14.648,-114.746
1573889728,33.203,28.809,49.316,42.969,-15.137
1573889728,47.852,26.855,102.051,57.129,130.371
1573889728,32.715,24.414,-91.309,32.227,69.824
1573889728,21.484,23.926,-312.988,16.113,-74.707
1573889728,38.574,26.855,-58.594,42.48,-77.148
1573889728,54.199,36.133,490.234,63.477,104.98
1573889728,43.945,34.668,358.887,41.992,120.117
1573889728,25.391,31.738,-327.637,14.648,-54.199
1573889728,31.25,37.109,-504.395,19.531,-85.938
1573889728,45.41,40.039,199.219,42.969,88.867
1573889728,36.621,31.738,464.844,39.551,161.621
1573889728,17.09,23.926,-332.52,10.742,-17.09
1573889728,7.812,28.809,-422.852,3.906,-111.816
1573889728,27.344,37.598,436.523,28.809,51.27
1573889728,34.668,32.715,752.441,40.527,195.312
1573889728,16.602,26.855,44.922,11.719,52.734
1573889728,8.789,31.25,-416.992,0.977,-133.789
1573889728,17.578,29.297,192.871,23.926,-42.48
1573889728,26.367,26.855,635.254,36.133,155.273
1573889728,22.949,28.809,-30.762,20.508,77.148
1573889728,12.695,25.879,-650.879,3.418,-134.277
1573889728,19.043,24.414,-114.746,18.066,-87.891
1573889728,38.574,30.273,665.527,41.016,130.371
1573889728,39.062,34.18,199.219,27.832,129.883
1573889728,25.879,37.109,-722.656,3.418,-75.684
1573889728,25.879,32.715,-385.254,11.719,-99.609
1573889728,39.551,29.297,443.359,37.598,81.055
1573889728,35.156,28.32,377.93,29.785,134.277
1573889728,19.531,35.156,-244.629,4.395,-21.973
1573889728,23.926,38.086,-282.227,9.277,-137.207
1573889728,33.691,25.879,320.312,33.691,6.836
1573889728,34.18,20.02,480.957,39.062,166.992
1573889728,21.484,18.555,-229.492,12.695,43.945
1573889728,10.254,12.695,-579.59,-5.371,-122.07
1573889728,23.926,15.137,27.344,20.996,-41.504
1573889728,42.48,20.996,200.195,39.551,110.84
1573889728,31.25,21.973,-175.293,15.625,73.73
1573889728,12.207,28.32,-363.281,-1.953,-81.543
1573889728,20.02,33.691,-109.863,15.625,-69.336
1573889728,40.039,28.32,292.969,44.922,112.305
1573889728,41.992,20.02,150.879,42.969,127.93
1573889728,24.902,15.137,-354.492,17.09,-72.266
1573889728,17.09,18.066,-317.871,14.648,-122.559
1573889728,32.227,20.996,251.953,44.434,74.707
1573889728,44.434,20.508,283.691,54.199,173.34
1573889728,32.715,19.531,-247.07,29.297,19.043
1573889728,28.32,17.09,-565.43,17.578,-122.07
1573889728,44.922,20.508,-186.035,42.48,-7.812
1573889728,54.688,27.832,479.004,59.57,181.152
1573889729,49.316,31.738,155.273,41.504,89.355
1573889729,42.48,29.297,-354.004,25.879,-63.477
1573889729,42.48,21.973,99.121,36.133,-2.441
1573889729,51.27,23.438,689.453,53.223,166.992
1573889729,50.293,22.461,317.871,43.457,136.23
1573889729,33.203,17.09,-467.285,16.113,-76.172
1573889729,32.715,21.973,-445.312,21.484,-115.234
1573889729,48.828,32.227,280.273,45.898,104.98
1573889729,46.875,36.133,294.434,37.598,140.137
1573889729,23.926,32.227,-687.012,1.953,-80.566
1573889729,9.766,23.926,-717.773,-4.883,-122.559
1573889729,21.484,28.809,323.73,27.832,53.711
1573889729,32.715,31.738,463.867,37.598,156.738
1573889729,13.672,26.855,-250.488,6.836,13.184
1573889729,-2.93,27.832,-432.617,-5.859,-134.766
1573889729,8.301,25.879,210.938,17.578,-15.625
1573889729,21.484,22.461,568.359,31.25,183.594
1573889729,19.531,29.297,-15.137,19.043,70.312
1573889729,13.184,30.762,-522.461,8.789,-84.473
1573889729,19.043,25.879,-183.594,24.414,-29.297
1573889729,40.527,34.668,200.195,47.852,125
1573889729,38.574,33.203,-291.504,32.715,96.191
1573889729,15.137,27.344,-615.723,4.883,-82.031
1573889729,18.555,25.391,-231.445,19.531,-86.426
1573889729,39.551,24.414,359.863,47.852,112.305
1573889729,42.48,34.18,404.785,45.898,171.875
1573889729,35.645,38.574,-207.52,23.926,-40.039
1573889729,36.133,32.715,-262.207,22.461,-119.629
1573889729,44.434,35.645,384.277,40.527,71.289
1573889729,45.898,33.691,604.98,37.598,200.195
1573889729,29.785,32.227,-156.738,11.23,23.438
1573889729,17.09,29.785,-585.449,-3.418,-135.254
1573889729,32.227,27.832,-272.949,16.602,-49.316
1573889729,36.621,40.527,171.875,27.344,132.324
1573889729,27.832,43.457,68.848,10.254,97.656
1573889729,25.879,33.203,-462.891,-1.465,-87.891
1573889729,29.785,27.832,-115.234,10.254,-53.223
1573889729,35.645,25.391,604.492,23.438,144.043
1573889729,29.297,22.461,414.551,7.324,149.414
1573889729,11.719,22.461,-329.102,-19.043,-35.645
1573889729,7.812,29.785,-294.434,-14.16,-96.68
1573889729,22.461,33.203,482.91,9.277,96.191
1573889729,24.902,33.691,460.938,11.719,193.848
1573889729,11.719,31.25,-525.879,-5.859,-19.043
1573889729,3.418,22.949,-833.008,-7.812,-133.789
1573889729,17.578,20.996,134.766,20.508,40.039
1573889729,29.297,24.414,658.203,36.621,188.965
1573889729,20.996,26.855,26.367,18.066,67.383
1573889729,17.578,26.855,-478.516,7.324,-110.84
1573889729,26.855,25.391,59.082,30.273,-20.996
1573889729,38.086,33.691,689.453,48.828,181.641
1573889729,35.156,38.086,229.98,38.086,111.328
1573889729,22.949,32.715,-368.652,16.113,-91.797
1573889729,28.32,34.668,47.363,29.297,-60.547
1573889729,47.852,40.039,585.938,59.57,129.395
1573889729,44.434,31.738,-8.789,40.039,118.652
1573889729,18.555,18.555,-666.504,2.441,-79.59
1573889729,13.672,20.508,-208.496,9.277,-122.559
1573889729,37.598,26.855,511.719,39.551,63.965
1573889729,43.945,34.668,522.461,36.621,151.855
1573889729,24.414,35.156,29.785,4.395,14.16
1573889729,21.973,26.367,-100.098,-0.977,-124.023
1573889729,34.668,22.461,390.137,22.461,-10.742
1573889729,44.922,21.484,670.898,34.668,194.336
1573889729,39.551,26.855,208.984,18.066,78.125
1573889729,26.367,29.297,-146.484,6.836,-119.629
1573889729,35.156,32.227,76.66,27.832,-52.246
1573889729,51.758,42.48,339.355,44.922,116.211
1573889729,43.457,45.41,270.508,29.785,97.656
1573889729,31.738,33.691,-67.383,17.578,-59.57
1573889729,37.598,22.461,79.59,35.645,-81.543
1573889729,53.711,23.438,680.176,62.012,107.91
1573889729,54.199,26.855,740.234,54.199,183.105
1573889729,39.551,27.344,32.715,25.879,-52.734
1573889729,38.086,32.715,-150.391,26.367,-159.18
1573889729,44.922,34.668,559.082,51.27,52.246
1573889729,46.387,36.133,856.934,57.129,189.453
1573889729,34.18,34.668,169.434,26.855,47.852
1573889729,17.578,25.879,-326.172,6.836,-107.91
1573889729,24.414,24.902,137.207,25.391,-17.09
1573889729,33.203,23.438,711.914,41.016,176.27
1573889729,23.438,22.461,318.359,20.508,96.191
1573889729,13.672,28.809,-526.367,2.441,-89.355
1573889729,18.066,36.621,-168.945,17.578,-67.871
1573889729,29.785,35.156,735.352,34.668,134.277
1573889729,21.973,20.508,404.785,13.672,129.395
1573889729,1.465,19.531,-353.516,-20.508,-83.984
1573889729,5.371,25.879,-62.5,-8.301,-94.727
1573889729,29.297,29.785,658.203,28.32,94.238
1573889729,33.203,36.621,558.105,26.855,180.664
1573889729,18.555,39.062,-283.691,5.859,-13.184
1573889729,22.461,40.527,-508.789,11.719,-145.996
1573889729,39.551,36.621,263.184,32.227,57.617
1573889729,40.039,29.297,359.863,38.086,174.316
1573889729,24.414,24.414,-467.285,12.207,14.648
1573889729,23.926,31.25,-471.191,11.719,-98.145
1573889729,44.922,44.922,280.762,54.199,-5.371
1573889729,57.129,50.293,574.707,67.871,145.02
1573889729,42.48,45.898,111.816,40.039,93.262
1573889729,26.367,34.18,-264.16,20.996,-55.176
1573889729,34.668,30.273,1.953,40.527,-65.918
1573889729,47.363,34.18,432.617,59.57,106.445
1573889729,41.504,40.527,52.246,44.922,106.934
1573889729,27.344,42.48,-651.367,20.02,-76.172
1573889729,27.832,31.25,-488.281,21.484,-108.887
1573889729,42.969,28.32,-7.324,45.898,72.266
1573889729,40.039,37.109,-77.148,38.086,147.949
1573889729,20.996,43.457,-507.324,10.254,-25.879
1573889729,22.949,41.992,-574.219,14.16,-133.301
1573889729,34.18,41.016,53.223,36.133,18.555
1573889729,35.645,38.086,493.652,35.645,191.895
1573889729,17.09,30.273,-40.527,2.441,56.641
1573889729,-2.93,25.391,-561.035,-16.113,-114.258
1573889729,12.207,34.668,-101.074,8.789,-31.25
1573889729,26.367,34.668,401.367,27.832,171.875
1573889729,12.695,25.391,44.922,7.812,139.648
1573889729,-1.465,28.809,-627.441,-11.23,-69.824
1573889729,2.441,23.438,-584.961,6.348,-89.844
1573889729,21.484,16.113,278.32,38.086,104.98
1573889729,22.461,20.996,263.672,33.691,115.234
1573889729,2.441,24.902,-471.68,2.441,-66.406
1573889729,2.441,27.832,-458.984,7.324,-106.934
1573889729,20.996,34.18,387.695,41.992,88.379
1573889729,25.879,32.227,555.664,41.016,178.711
1573889729,16.113,26.855,-198.73,10.742,8.789
1573889729,18.555,31.25,-369.629,9.766,-108.887
1573889729,33.691,32.227,205.078,37.109,32.227
1573889729,45.898,28.809,504.395,50.781,193.848
1573889729,44.434,28.809,-305.664,31.738,59.082
1573889729,26.367,27.344,-726.074,9.277,-84.961
1573889729,28.32,30.273,113.77,24.414,-33.203
1573889729,42.969,34.668,576.66,46.387,136.719
1573889729,35.156,29.297,140.625,25.879,110.84
1573889729,21.484,22.461,-268.555,3.418,-48.828
1573889729,26.855,29.785,117.676,20.996,-35.156
1573889729,37.109,34.18,622.559,40.527,133.301
1573889729,30.273,30.273,339.355,24.414,156.25
1573889729,10.254,37.598,-205.566,-4.395,-20.508
1573889729,13.184,41.016,-272.461,0.488,-108.887
1573889729,31.738,34.668,67.871,24.902,14.648
1573889729,35.645,28.809,41.504,25.391,134.766
1573889729,23.438,28.32,-247.559,0,42.48
1573889729,23.438,34.18,-226.562,-2.93,-89.844
1573889729,37.598,31.738,262.207,29.785,0.488
1573889729,42.969,32.227,625.977,42.969,181.152
1573889729,34.668,41.504,248.535,21.973,107.422
1573889729,27.832,42.969,-229.004,9.766,-80.078
1573889729,36.621,32.227,68.848,28.32,-47.363
1573889729,47.852,25.391,593.75,49.805,137.695
1573889729,48.34,27.832,351.562,39.551,131.836
1573889729,35.156,28.32,-356.445,18.555,-57.129
1573889729,33.691,35.645,-591.797,22.461,-114.746
1573889729,41.992,40.527,57.617,40.039,67.871
1573889729,36.621,33.691,406.738,37.109,138.184
1573889729,22.461,28.32,-274.902,11.719,-42.969
1573889729,21.973,25.391,-396.973,10.254,-100.098
1573889729,36.133,27.832,411.133,34.668,74.707
1573889729,46.387,36.621,677.734,42.48,189.453
1573889729,29.297,36.621,-84.473,16.602,33.203
1573889729,16.602,34.668,-487.305,1.465,-109.863
1573889729,32.227,40.527,177.246,25.879,1.953
1573889729,39.062,42.48,662.109,39.551,167.48
1573889729,29.297,31.738,-81.055,15.625,83.984
1573889729,16.113,27.344,-879.883,-7.324,-88.379
1573889729,25.391,38.086,-372.559,13.672,-80.078
1573889729,37.598,42.48,424.805,39.551,109.375
1573889729,26.855,36.133,235.352,19.043,135.254
1573889729,17.09,37.109,-460.938,-3.418,-82.031
1573889729,24.414,35.156,-214.355,10.254,-105.469
1573889729,37.598,25.879,526.855,34.668,102.051
1573889729,41.504,22.949,514.648,37.109,206.543
1573889729,33.691,24.902,-170.898,15.625,24.414
1573889729,27.344,27.832,-293.945,12.207,-106.445
1573889729,41.992,27.832,322.754,37.109,38.574
1573889729,55.176,26.855,422.852,49.316,172.852
1573889729,45.41,33.691,-291.016,32.715,43.457
1573889729,36.621,34.668,-640.625,25.391,-134.277
1573889729,44.434,23.926,-12.207,44.434,-41.992
1573889729,60.547,22.461,155.762,60.059,128.418
1573889729,54.199,25.879,-343.262,46.387,60.059
1573889729,35.156,23.438,-520.996,23.438,-108.398
1573889729,32.715,24.902,-192.383,37.109,-83.984
1573889729,42.969,25.879,417.969,66.895,126.953
1573889729,42.48,22.461,426.27,53.711,183.105
1573889729,17.09,19.531,-195.801,12.695,-13.184
1573889729,4.883,17.09,-261.23,13.184,-81.543
1573889729,25.391,15.625,209.473,42.969,67.871
1573889729,34.18,25.391,187.988,40.039,148.438
1573889729,15.625,29.297,-363.77,5.859,-7.324
1573889729,11.23,29.785,-618.652,-2.441,-123.047
1573889729,28.32,37.598,-177.246,21.973,10.254
1573889729,30.762,33.691,448.73,23.926,180.664
1573889729,17.578,24.902,45.898,-1.465,49.805
1573889729,11.23,23.438,-555.176,-13.672,-132.324
1573889729,23.438,21.973,-74.707,11.719,-44.922
1573889729,39.062,23.438,624.023,33.691,154.785
1573889729,31.738,24.414,283.203,16.602,119.629
1573889729,22.461,26.855,-413.086,1.465,-85.938
1573889729,26.367,25.879,-284.18,18.066,-88.867
1573889729,36.621,20.02,319.336,41.992,108.398
1573889729,44.922,27.832,308.594,45.41,144.043
1573889729,44.434,31.25,-609.375,25.879,-42.48
1573889729,40.039,27.344,-691.406,23.438,-124.023
1573889729,50.293,23.438,371.094,52.246,53.223
1573889729,60.059,22.949,571.777,58.594,195.801
1573889729,43.457,23.926,-180.176,29.785,27.832
1573889729,32.227,27.832,-370.117,19.043,-127.93
1573889729,47.852,34.18,244.629,44.434,0.977
1573889729,59.57,28.809,456.543,59.57,174.316
1573889729,44.922,24.414,-91.309,29.785,61.523
1573889729,33.691,36.621,-651.855,10.254,-139.16
1573889729,45.41,44.434,-176.27,28.809,-51.27
1573889729,51.758,35.156,465.332,41.992,171.875
1573889729,40.527,32.715,-295.41,21.484,89.844
1573889729,22.949,31.25,-812.5,-5.371,-109.375
1573889729,26.855,27.832,-116.699,8.789,-63.477
1573889729,40.527,28.809,455.566,35.156,118.164
1573889729,38.574,30.273,282.227,25.879,151.855
1573889729,24.902,27.832,-190.918,-5.371,-20.996
1573889729,22.461,29.785,-204.102,-3.906,-104.004
1573889729,33.691,32.715,375.977,24.414,62.5
1573889729,39.551,27.832,572.754,29.297,187.012
1573889729,27.344,23.926,-128.418,4.883,35.156
1573889729,17.09,24.902,-576.66,-2.441,-123.535
1573889729,32.715,26.855,-184.082,29.785,-9.277
1573889729,39.551,26.367,355.957,44.434,183.105
1573889729,28.32,30.762,281.25,22.461,108.887
1573889729,21.484,27.832,-276.367,6.836,-103.027
1573889729,31.738,24.902,15.137,30.273,-63.965
1573889729,49.805,32.715,756.836,55.664,143.066
1573889729,51.758,38.574,606.445,46.875,146.484
1573889729,43.945,38.086,-139.648,26.367,-48.34
1573889729,44.434,28.32,-83.008,29.785,-88.379
1573889729,58.594,30.762,712.402,53.711,103.027
1573889729,62.988,41.504,699.707,52.734,192.383
1573889729,44.922,33.203,-249.023,20.996,-4.395
1573889729,42.969,24.902,-585.449,17.578,-128.418
1573889729,60.547,31.25,189.453,47.363,9.277
1573889729,67.871,38.574,702.148,54.199,161.621
1573889729,54.688,38.574,170.41,25.879,46.875
1573889729,42.48,32.227,-190.918,11.23,-113.77
1573889729,52.734,28.32,466.309,33.203,-19.531
1573889729,61.523,30.762,968.262,47.852,167.48
1573889729,50.781,28.809,434.082,26.367,98.633
1573889729,38.574,25.391,-167.48,3.418,-109.863
1573889729,46.387,33.691,260.254,23.926,-69.336
1573889729,58.594,36.133,842.285,47.852,148.926
1573889729,51.27,34.18,287.598,29.785,166.992
1573889729,47.363,39.062,-393.555,18.066,-25.879
1573889729,51.27,33.691,52.246,38.574,-83.984
1573889729,50.781,20.02,751.953,54.688,98.145
1573889729,41.992,12.207,599.121,40.039,179.199
1573889729,27.344,13.184,-28.32,15.625,17.578
1573889729,25.879,18.066,-63.965,18.066,-94.727
1573889729,41.992,26.855,421.387,44.922,22.461
1573889729,48.828,25.391,604.004,49.316,167.48
1573889730,35.156,14.648,109.863,22.949,53.223
1573889730,26.855,15.137,-231.934,8.789,-115.234
1573889730,32.227,21.973,-32.227,23.438,-63.965
1573889730,47.363,20.996,202.637,45.41,136.23
1573889730,41.992,20.996,75.195,32.715,109.863
1573889730,20.508,28.809,-298.828,5.859,-75.195
1573889730,23.438,36.621,-82.52,19.531,-61.523
1573889730,32.715,26.855,502.441,39.551,122.559
1573889730,22.949,15.137,451.66,25.879,161.133
1573889730,13.672,17.09,-210.449,3.418,-28.809
1573889730,17.09,22.949,-326.66,10.742,-104.98
1573889730,29.297,26.367,409.18,40.039,94.238
1573889730,33.691,24.414,636.23,42.48,198.242
1573889730,20.508,21.973,-56.641,16.602,29.785
1573889730,7.812,13.672,-490.723,9.277,-102.539
1573889730,20.508,11.719,-153.32,37.598,-23.438
1573889730,35.645,15.137,226.562,55.176,127.441
1573889730,26.367,13.184,-112.305,30.762,63.965
1573889730,11.719,13.672,-858.398,6.836,-105.957
1573889730,20.02,20.02,-490.723,22.949,-61.523
1573889730,33.203,23.438,439.941,45.41,140.137
1573889730,29.297,22.949,181.152,32.227,157.227
1573889730,14.648,19.043,-569.336,4.883,-63.477
1573889730,12.207,14.16,-304.199,12.207,-100.098
1573889730,26.855,11.719,346.68,39.551,107.422
1573889730,27.832,16.113,183.594,32.227,162.598
1573889730,16.602,15.137,-572.266,2.93,-38.086
1573889730,15.137,17.09,-735.84,3.906,-154.785
1573889730,28.32,25.391,93.75,26.855,42.969
1573889730,33.203,25.879,281.738,27.832,179.199
1573889730,23.926,23.438,-597.656,4.883,1.953
1573889730,20.508,23.438,-587.402,1.465,-107.422
1573889730,26.367,29.297,241.211,23.926,17.09
1573889730,32.227,35.645,526.855,35.156,163.086
1573889730,20.996,30.762,34.668,12.695,88.379
1573889730,2.441,20.996,-386.719,-10.742,-107.91
1573889730,9.766,20.508,-20.02,7.324,-80.078
1573889730,26.367,28.809,462.891,34.668,127.93
1573889730,27.344,39.062,96.68,24.902,126.953
1573889730,18.555,37.109,-571.289,2.93,-83.496
1573889730,20.996,31.25,-432.617,16.113,-120.117
1573889730,39.062,34.668,-1.953,42.48,54.688
1573889730,40.039,31.738,125.977,35.645,164.062
1573889730,26.855,26.367,-94.238,12.207,13.672
1573889730,25.879,23.438,-316.406,11.23,-149.414
1573889730,36.621,29.297,217.285,37.109,5.859
1573889730,46.875,36.621,645.996,48.34,181.641
1573889730,35.645,23.926,130.371,22.949,49.805
1573889730,24.902,21.973,-359.375,11.719,-118.164
1573889730,37.598,27.344,121.094,37.598,-30.273
1573889730,50.293,25.879,541.016,54.688,162.109
1573889730,43.457,24.902,119.629,30.762,107.91
1573889730,31.25,31.738,-544.434,6.348,-120.605
1573889730,35.156,37.598,-497.559,20.02,-111.816
1573889730,42.969,29.785,437.5,43.457,131.836
1573889730,36.621,20.996,509.766,34.668,157.715
1573889730,17.578,21.484,-284.668,8.301,-56.641
1573889730,10.254,24.902,-247.07,10.254,-103.516
1573889730,26.367,27.344,541.504,33.203,79.59
1573889730,29.297,22.461,638.184,32.227,182.617
1573889730,11.23,20.508,-165.527,7.812,-14.648
1573889730,4.395,26.367,-396.973,3.418,-156.25
1573889730,19.043,21.973,141.602,28.809,-7.324
1573889730,31.25,19.531,411.133,40.527,163.574
1573889730,18.555,20.508,-302.246,13.672,53.711
1573889730,2.93,18.555,-812.012,-7.324,-145.02
1573889730,12.695,21.484,45.898,20.02,-52.246
1573889730,36.133,20.508,526.855,46.875,131.348
1573889730,25.391,18.066,48.34,24.902,101.074
1573889730,10.254,25.391,-422.852,2.93,-99.121
1573889730,24.902,33.203,-63.965,22.949,-94.238
1573889730,37.598,24.902,564.453,48.828,139.16
1573889730,36.621,19.043,374.512,38.574,176.758
1573889730,28.32,26.855,-254.395,14.648,-27.344
1573889730,31.25,30.762,-315.43,22.949,-89.355
1573889730,46.875,25.879,126.465,48.828,73.73
1573889730,49.316,28.809,1.465,44.922,136.23
1573889730,39.062,32.715,-417.969,21.973,-8.301
1573889730,27.344,27.832,-360.84,11.719,-106.445
1573889730,29.785,20.996,186.035,28.32,26.367
1573889730,39.551,15.137,487.793,41.504,172.852
1573889730,27.832,15.625,47.852,13.184,75.195
1573889730,11.23,23.926,-459.473,-7.812,-81.055
1573889730,18.066,28.809,-103.516,12.207,-29.297
1573889730,31.738,27.832,492.188,32.227,154.297
1573889730,28.32,24.902,296.387,25.879,147.949
1573889730,14.16,20.508,-413.574,5.371,-51.758
1573889730,17.09,24.414,-635.742,11.719,-101.562
1573889730,31.25,30.762,51.758,34.18,101.562
1573889730,38.086,27.832,442.383,38.574,195.801
1573889730,39.551,24.414,-230.957,27.344,-22.949
1573889730,28.809,21.484,-527.344,19.043,-143.066
1573889730,36.621,26.367,187.988,38.086,33.691
1573889730,45.41,32.715,552.734,45.41,180.176
1573889730,25.879,23.438,-161.133,12.695,26.367
1573889730,21.973,25.391,-597.656,5.371,-161.133
1573889730,28.32,23.926,-16.113,28.809,-33.691
1573889730,32.715,25.391,433.105,41.016,167.48
1573889730,25.879,27.344,-176.758,25.879,93.75
1573889730,10.254,16.113,-710.938,4.395,-53.711
1573889730,18.066,20.02,-109.375,20.996,-46.875
1573889730,37.598,28.809,614.258,49.805,132.324
1573889730,33.691,27.832,192.871,33.691,148.438
1573889730,13.672,22.461,-679.199,-1.465,-61.523
1573889730,9.277,18.555,-288.574,1.953,-83.008
1573889730,29.297,23.926,509.766,27.832,112.793
1573889730,34.18,24.902,394.531,24.902,166.992
1573889730,20.02,20.508,-343.75,0.488,-39.062
1573889730,18.555,29.297,-362.793,4.883,-127.441
1573889730,28.32,32.227,354.004,30.273,52.246
1573889730,30.273,20.02,452.148,30.273,196.289
1573889730,18.066,17.578,-314.453,1.953,46.875
1573889730,9.766,19.531,-579.102,-11.719,-128.418
1573889730,24.902,20.02,92.285,17.09,-21.973
1573889730,37.109,20.996,224.121,32.227,140.625
1573889730,29.297,23.926,-203.613,14.648,103.516
1573889730,24.414,32.715,-368.164,6.348,-71.289
1573889730,28.32,29.297,-129.883,19.043,-88.867
1573889730,40.039,28.809,411.621,43.945,117.676
1573889730,41.504,30.762,389.648,38.086,165.527
1573889730,25.879,22.461,-178.223,13.184,-24.902
1573889730,22.949,21.973,-274.414,17.578,-119.141
1573889730,38.086,28.809,227.539,46.387,64.941
1573889730,45.41,31.25,274.902,46.387,183.105
1573889730,28.809,29.297,-281.738,15.137,15.137
1573889730,21.484,31.25,-573.73,9.766,-121.094
1573889730,35.156,39.062,-205.078,34.668,-5.371
1573889730,41.992,37.109,348.145,44.922,148.926
1573889730,31.738,23.926,0.977,19.531,47.363
1573889730,17.09,20.508,-484.375,1.465,-119.141
1573889730,24.414,25.879,-44.434,23.438,-61.035
1573889730,41.504,33.691,620.605,47.852,156.25
1573889730,33.203,35.645,285.156,29.785,126.953
1573889730,14.648,33.691,-427.246,3.418,-92.285
1573889730,19.043,31.738,-293.945,19.043,-98.145
1573889730,34.18,24.902,291.016,39.062,100.586
1573889730,34.18,23.438,223.145,27.832,139.648
1573889730,20.02,22.461,-479.004,-0.977,-41.016
1573889730,16.113,26.367,-382.812,-0.488,-109.375
1573889730,37.598,39.062,508.789,37.109,73.73
1573889730,43.945,38.574,602.539,39.551,203.613
1573889730,26.367,33.203,-362.305,1.465,28.32
1573889730,22.461,29.785,-489.746,-4.395,-104.004
1573889730,36.133,23.438,423.828,29.297,15.625
1573889730,46.387,22.949,673.34,43.945,154.785
1573889730,31.738,24.902,104.492,18.066,84.473
1573889730,15.625,26.367,-417.969,3.418,-139.648
1573889730,26.367,23.926,-12.695,30.273,-100.098
1573889730,44.922,26.367,504.883,54.199,133.789
1573889730,39.551,31.25,24.902,36.621,90.82
1573889730,16.113,23.926,-349.121,8.301,-123.047
1573889730,16.113,26.367,131.836,19.531,-118.164
1573889730,35.645,37.598,785.156,46.875,111.816
1573889730,34.668,34.18,727.539,43.457,174.316
1573889730,13.184,24.902,84.473,14.16,-13.184
1573889730,11.23,27.832,-73.242,15.625,-121.094
1573889730,24.414,30.273,614.258,44.434,53.223
1573889730,25.879,29.785,871.094,42.48,175.781
1573889730,10.254,24.414,183.594,9.766,42.969
1573889730,0,21.973,-125.977,-2.93,-80.566
1573889730,10.742,25.391,153.32,17.578,-38.086
1573889730,18.066,25.879,530.762,28.32,148.438
1573889730,13.672,32.227,474.609,15.137,107.91
1573889730,10.254,29.785,-32.227,-0.488,-81.055
1573889730,17.578,32.715,211.914,17.578,-59.57
1573889730,36.621,39.062,884.766,49.805,138.184
1573889730,37.598,26.367,709.473,39.062,149.414
1573889730,17.578,18.066,-82.52,9.766,-66.406
1573889730,18.555,20.02,-29.297,19.043,-100.098
1573889730,41.016,29.297,599.609,45.41,84.473
1573889730,47.363,34.668,507.812,46.387,153.32
1573889730,40.039,31.738,-347.168,27.832,-32.227
1573889730,39.062,31.25,-670.898,21.973,-137.207
1573889730,53.711,32.227,253.418,49.805,33.691
1573889730,50.293,18.555,731.445,54.688,170.898
1573889730,26.367,14.648,36.621,15.625,45.898
1573889730,19.043,25.879,-350.586,7.812,-107.91
1573889730,33.691,29.785,243.652,38.574,-31.738
1573889730,41.016,29.785,687.5,49.316,154.297
1573889730,29.785,25.391,104.492,26.367,88.379
1573889730,16.113,19.531,-505.371,10.742,-123.047
1573889730,19.043,28.32,-69.336,25.391,-96.191
1573889730,31.738,30.273,514.16,45.41,133.789
1573889730,26.367,20.508,-61.523,27.832,139.16
1573889730,7.324,15.137,-791.992,-4.883,-83.984
1573889730,6.348,17.09,-337.402,0.977,-123.535
1573889730,28.809,27.344,357.422,37.109,58.594
1573889730,41.016,29.785,372.07,44.922,180.176
1573889730,31.25,29.297,-174.805,9.766,26.855
1573889730,24.902,34.18,-331.055,-0.488,-116.211
1573889730,39.551,28.809,206.543,28.32,29.297
1573889730,46.387,16.602,438.965,35.645,186.035
1573889730,32.715,17.578,-50.293,13.184,86.426
1573889730,20.508,23.926,-479.492,-1.465,-118.652
1573889730,30.762,32.715,-295.41,21.484,-80.078
1573889730,43.457,39.551,-67.871,35.156,122.559
1573889730,33.691,32.715,-117.188,16.602,121.582
1573889730,23.926,26.367,-464.844,-0.488,-88.379
1573889730,27.832,24.902,-385.742,9.766,-124.512
1573889730,43.945,31.738,245.605,39.062,111.328
1573889730,48.828,37.598,306.152,37.109,173.34
1573889730,29.785,31.738,-230.469,6.836,-3.906
1573889730,23.438,31.25,-338.379,3.418,-100.586
1573889730,37.598,32.715,283.203,30.762,55.664
1573889730,33.691,24.414,534.668,32.227,190.918
1573889730,14.648,20.02,-22.949,1.953,75.195
1573889730,11.719,28.32,-425.293,-3.906,-69.824
1573889730,25.879,33.203,-17.09,23.926,7.812
1573889730,33.203,34.18,524.902,32.227,193.359
1573889730,25.391,30.273,124.512,12.695,99.121
1573889730,16.113,23.926,-736.816,-2.441,-114.258
1573889730,26.367,29.785,-401.855,17.578,-81.055
1573889730,52.734,35.156,523.926,45.898,158.691
1573889730,52.734,36.133,102.539,28.32,133.789
1573889730,36.133,38.574,-584.473,6.836,-101.562
1573889730,30.762,33.691,-195.801,17.578,-117.188
1573889730,38.574,27.344,597.168,36.621,106.445
1573889730,48.34,38.086,458.984,38.086,160.156
1573889730,34.668,45.41,-358.398,20.02,-28.32
1573889730,32.715,41.016,-529.785,25.391,-143.066
1573889730,44.922,37.109,251.465,49.316,33.691
1573889730,43.457,32.715,495.117,47.363,202.637
1573889730,32.715,28.32,-387.207,19.043,27.344
1573889730,27.832,30.273,-481.445,11.719,-126.465
1573889730,38.574,35.645,360.84,39.551,16.602
1573889730,44.434,37.109,741.211,55.176,210.449
1573889730,32.227,33.691,228.027,27.344,124.512
1573889730,16.113,30.273,-373.047,1.465,-107.422
1573889730,18.555,29.785,-37.109,18.555,-79.59
1573889730,32.715,30.762,532.227,39.062,119.629
1573889730,33.203,29.785,144.043,28.809,116.211
1573889730,17.578,26.855,-528.32,0.977,-66.895
1573889730,13.184,32.227,-280.273,3.906,-116.211
1573889730,35.156,40.527,180.176,39.551,68.848
1573889730,39.551,40.039,76.66,33.203,150.879
1573889730,11.719,30.762,-202.637,-7.324,-11.23
1573889730,3.906,28.809,-328.613,-8.789,-132.812
1573889730,19.531,33.691,207.52,21.973,14.648
1573889730,25.391,32.227,574.707,26.855,173.828
1573889730,13.672,30.762,100.098,6.348,67.383
1573889730,11.23,38.086,-327.148,1.953,-86.914
1573889730,30.762,32.715,57.617,31.25,0
1573889730,43.945,25.391,461.914,48.828,177.246
1573889730,33.203,28.32,85.449,28.32,134.766
1573889730,23.926,31.738,-607.91,12.695,-62.5
1573889730,26.367,31.738,-536.133,27.832,-83.008
1573889730,38.086,32.715,375,50.293,130.371
1573889730,43.457,34.668,419.922,43.945,152.832
1573889730,23.926,27.832,-408.691,11.719,-77.637
1573889730,20.996,25.879,-318.848,14.16,-102.539
1573889730,34.18,32.227,502.441,40.039,94.238
1573889730,33.691,33.691,563.965,37.109,179.688
1573889730,14.16,36.133,-172.363,3.906,10.742
1573889730,2.441,34.668,-395.508,-6.836,-92.285
1573889730,18.555,31.738,124.512,25.879,36.133
1573889730,23.926,30.273,386.23,30.273,162.598
1573889731,12.695,30.273,-403.809,-1.953,40.527
1573889731,4.883,37.109,-847.168,-11.719,-117.676
1573889731,17.578,46.387,41.016,16.602,-35.645
1573889731,31.25,44.922,568.359,31.25,144.531
1573889731,20.996,31.25,102.539,1.465,115.723
1573889731,7.324,28.809,-403.32,-21.973,-79.59
1573889731,9.766,33.203,-68.848,-5.859,-86.426
1573889731,20.02,30.762,466.309,13.184,103.027
1573889731,20.996,35.156,207.52,6.836,121.094
1573889731,11.719,41.016,-396.484,-14.648,-74.219
1573889731,9.277,39.551,-468.262,-6.836,-162.109
1573889731,28.32,28.809,30.762,26.367,23.438
1573889731,36.133,28.32,-35.645,24.414,157.227
1573889731,22.949,33.203,-423.828,-4.883,21.973
1573889731,20.02,25.879,-415.039,-0.977,-104.004
1573889731,40.527,26.367,44.434,38.086,23.438
1573889731,56.641,38.574,488.77,52.734,185.547
1573889731,46.387,43.457,153.809,25.391,100.098
1573889731,32.227,33.203,-332.031,8.789,-101.074
1573889731,37.598,23.926,-59.57,32.715,-72.754
1573889731,45.41,25.391,471.68,49.805,129.883
1573889731,33.691,33.691,311.523,33.691,134.277
1573889731,12.207,38.086,-424.316,10.742,-59.082
1573889731,10.742,40.527,-473.145,13.184,-91.797
1573889731,26.367,33.203,295.41,35.645,99.121
1573889731,31.25,22.949,389.648,28.809,140.625
1573889731,21.973,33.203,-248.047,0.977,-18.066
1573889731,17.09,37.109,-642.578,-3.906,-118.164
1573889731,29.785,29.297,-93.262,18.066,22.461
1573889731,33.203,27.344,416.016,22.461,188.965
1573889731,20.02,32.715,-238.77,2.441,21.484
1573889731,9.766,35.645,-546.875,-7.324,-107.91
1573889731,22.461,33.203,182.617,20.02,23.926
1573889731,42.48,34.668,677.734,46.875,184.57
1573889731,37.598,37.598,-12.207,22.949,101.562
1573889731,20.02,36.621,-894.531,-2.93,-116.699
1573889731,18.066,29.785,-275.391,11.23,-63.477
1573889731,38.086,30.273,624.023,40.527,155.273
1573889731,45.898,37.598,268.555,38.574,144.043
1573889731,25.879,35.645,-399.414,6.836,-48.34
1573889731,23.926,28.809,-114.258,7.324,-69.824
1573889731,43.945,28.809,582.52,39.551,119.141
1573889731,49.805,29.297,472.656,41.016,177.246
1573889731,38.086,30.273,-294.922,15.137,9.766
1573889731,34.668,34.668,-425.781,18.066,-95.215
1573889731,46.875,31.738,302.246,41.504,47.852
1573889731,52.734,32.715,472.168,48.34,184.57
1573889731,39.062,36.133,-277.832,23.438,54.199
1573889731,25.391,33.203,-494.629,10.742,-81.055
1573889731,32.227,28.32,158.691,30.273,-8.789
1573889731,42.48,30.273,216.797,38.574,135.742
1573889731,37.109,29.297,-360.84,23.438,92.773
1573889731,17.578,20.508,-460.449,1.953,-44.434
1573889731,22.949,21.484,-117.188,14.648,-56.641
1573889731,40.039,28.32,389.648,41.992,110.352
1573889731,28.809,21.484,351.074,27.832,153.32
1573889731,6.836,13.184,-250.488,-4.883,-44.922
1573889731,10.742,15.625,-231.934,-1.465,-90.82
1573889731,32.227,19.043,301.27,31.25,86.914
1573889731,38.086,25.879,312.012,32.227,174.805
1573889731,24.902,32.715,-233.398,3.418,10.254
1573889731,23.926,31.738,-448.242,5.859,-143.555
1573889731,45.41,26.367,209.473,37.109,7.324
1573889731,57.129,24.902,742.188,52.246,191.406
1573889731,46.875,28.809,290.039,33.691,67.871
1573889731,38.574,34.668,-389.16,20.508,-122.559
1573889731,45.41,31.738,-134.766,39.551,-40.527
1573889731,57.617,30.762,744.141,62.5,179.199
1573889731,58.594,31.25,545.41,55.176,133.789
1573889731,44.434,21.973,-196.777,30.273,-94.727
1573889731,45.898,17.578,-74.707,41.016,-108.887
1573889731,57.617,16.113,566.406,61.035,103.516
1573889731,55.176,19.043,506.348,45.898,167.48
1573889731,41.992,23.926,-397.949,19.531,-41.504
1573889731,39.551,24.902,-366.699,14.648,-125
1573889731,46.875,24.414,715.82,36.133,67.871
1573889731,43.945,24.414,840.82,33.203,171.387
1573889731,25.391,20.508,135.742,-0.977,20.02
1573889731,18.066,18.555,-33.691,-7.324,-127.441
1573889731,29.297,23.926,644.531,19.531,7.324
1573889731,34.18,24.414,908.691,31.25,172.363
1573889731,17.578,23.926,312.012,5.371,67.383
1573889731,1.465,27.832,-207.031,-12.695,-104.004
1573889731,11.719,32.715,150.391,10.254,-52.246
1573889731,22.949,17.578,662.109,22.461,151.367
1573889731,15.625,6.836,102.051,0,132.324
1573889731,8.301,13.672,-374.512,-13.184,-79.102
1573889731,18.555,25.391,-62.988,3.906,-116.699
1573889731,39.551,35.156,561.035,30.273,99.609
1573889731,47.852,26.855,604.98,32.715,175.293
1573889731,31.25,16.113,73.242,8.789,9.277
1573889731,29.297,24.414,2.441,13.672,-94.238
1573889731,45.898,32.227,491.699,43.457,45.898
1573889731,44.922,23.926,610.84,41.016,161.621
1573889731,31.738,20.996,-72.266,15.625,28.809
1573889731,27.832,26.855,-460.449,15.137,-136.719
1573889731,40.039,25.391,-146.484,37.109,-54.199
1573889731,46.875,20.508,210.938,48.828,131.836
1573889731,36.133,20.996,152.832,30.762,94.238
1573889731,15.625,20.02,-326.66,7.324,-84.473
1573889731,15.137,20.508,-48.34,17.578,-44.434
1573889731,29.297,19.531,529.785,41.504,152.344
1573889731,31.25,18.066,316.895,33.691,140.625
1573889731,25.879,23.926,-353.027,11.719,-55.664
1573889731,20.996,22.949,-296.875,15.137,-97.656
1573889731,29.297,17.09,464.355,34.668,105.957
1573889731,32.715,22.461,378.418,32.227,173.828
1573889731,13.184,27.832,-548.828,3.418,-47.363
1573889731,0.977,21.484,-859.375,-1.465,-159.18
1573889731,11.719,20.02,92.285,21.973,41.504
1573889731,20.02,24.902,591.797,27.832,194.336
1573889731,8.789,23.926,-152.832,5.371,36.133
1573889731,2.441,22.461,-528.32,-0.488,-115.723
1573889731,11.719,24.902,137.207,21.973,3.418
1573889731,23.438,25.879,641.113,40.527,192.871
1573889731,21.484,19.531,98.145,27.344,117.188
1573889731,17.09,20.996,-647.949,13.672,-98.145
1573889731,26.855,26.367,-249.023,31.25,-73.242
1573889731,38.086,25.879,379.395,50.781,121.094
1573889731,43.945,30.273,-177.734,41.992,119.141
1573889731,32.227,39.062,-837.891,17.578,-80.566
1573889731,28.32,35.156,-384.766,17.578,-136.23
1573889731,39.551,21.484,325.195,39.062,49.316
1573889731,40.527,17.578,379.395,34.18,184.57
1573889731,26.367,25.391,-188.965,6.348,15.137
1573889731,25.879,36.133,-319.336,7.324,-119.629
1573889731,44.434,36.133,250,34.18,23.926
1573889731,43.945,30.273,513.184,33.691,182.129
1573889731,26.855,28.32,69.824,5.371,84.473
1573889731,18.555,34.18,-291.504,-7.324,-85.449
1573889731,30.762,45.898,-15.625,12.207,-27.832
1573889731,44.434,43.945,328.125,30.273,153.32
1573889731,31.25,29.785,4.395,6.348,113.281
1573889731,14.648,24.414,-391.602,-18.555,-74.219
1573889731,20.508,20.996,-245.117,0.977,-97.168
1573889731,36.621,26.367,106.445,32.227,80.566
1573889731,34.18,34.18,289.062,30.762,152.832
1573889731,17.09,31.738,-171.875,5.859,-41.992
1573889731,11.719,33.691,-250.488,7.324,-114.746
1573889731,25.391,36.621,402.832,37.598,55.176
1573889731,31.25,29.297,658.691,44.922,180.664
1573889731,24.902,24.414,62.5,26.367,31.738
1573889731,18.555,18.066,-454.59,18.555,-165.039
1573889731,25.391,19.531,-5.371,41.504,-35.645
1573889731,38.574,28.32,473.633,54.688,161.621
1573889731,29.785,32.227,8.301,31.25,72.754
1573889731,19.531,34.18,-731.934,12.207,-120.605
1573889731,29.297,34.18,-327.148,30.762,-71.289
1573889731,41.992,33.691,675.293,51.758,171.387
1573889731,34.668,31.738,426.758,33.691,186.035
1573889731,24.902,28.809,-333.984,6.836,-41.504
1573889731,32.227,30.273,-75.684,15.137,-78.125
1573889731,51.758,38.574,651.367,42.969,120.117
1573889731,51.758,36.621,417.969,34.668,153.809
1573889731,31.738,34.668,-435.059,2.93,-22.949
1573889731,22.949,38.574,-512.695,0,-92.285
1573889731,35.645,39.551,277.832,24.902,65.918
1573889731,40.527,30.273,467.285,26.855,208.496
1573889731,20.996,22.949,-344.238,-7.324,75.684
1573889731,10.254,28.809,-564.453,-16.602,-79.102
1573889731,21.973,37.109,132.812,13.184,0.977
1573889731,27.832,33.691,498.535,21.973,144.531
1573889731,18.555,21.973,61.523,-0.977,94.727
1573889731,9.766,29.785,-354.492,-12.695,-99.609
1573889731,16.602,39.551,32.227,9.766,-63.965
1573889731,36.621,36.133,579.102,39.062,144.531
1573889731,41.016,33.691,91.797,28.32,104.98
1573889731,24.902,35.156,-506.836,0.977,-20.02
1573889731,23.926,33.691,-128.418,12.695,-17.578
1573889731,41.504,31.738,187.988,35.645,83.496
1573889731,44.434,37.109,35.156,33.203,153.32
1573889731,31.25,37.598,-308.594,14.648,-31.738
1573889731,24.902,33.203,-438.965,7.324,-156.738
1573889731,37.598,35.645,116.699,30.762,26.855
1573889731,38.086,31.738,414.062,40.039,187.012
1573889731,23.438,27.832,-49.316,10.254,49.316
1573889731,15.625,23.926,-469.727,-5.371,-121.582
1573889731,21.484,29.785,21.484,15.137,-15.625
1573889731,37.109,41.016,486.816,35.645,171.387
1573889731,28.809,38.086,43.945,20.02,125.977
1573889731,10.742,28.32,-643.555,-6.348,-67.871
1573889731,18.066,26.367,-503.906,8.301,-70.312
1573889731,27.832,29.785,389.16,30.762,132.324
1573889731,25.391,27.832,464.844,20.02,170.41
1573889731,16.113,24.414,-316.406,-2.441,-50.293
1573889731,15.625,24.902,-368.164,4.395,-146.973
1573889731,33.691,31.25,368.652,35.156,27.832
1573889731,39.551,30.762,529.297,33.691,164.062
1573889731,20.508,28.32,-188.477,4.395,17.578
1573889731,11.719,31.25,-471.68,0,-145.02
1573889731,28.32,32.715,133.789,27.344,2.93
1573889731,36.133,34.668,429.688,34.668,184.082
1573889731,21.973,27.832,-133.789,4.395,74.219
1573889731,5.859,29.785,-511.719,-11.23,-104.004
1573889731,15.137,31.738,18.555,10.254,-74.219
1573889731,32.227,24.414,573.73,27.832,143.555
1573889731,28.809,24.902,-127.93,14.648,98.145
1573889731,14.648,28.809,-839.355,-6.836,-139.16
1573889731,18.066,34.18,-152.344,9.766,-82.031
1573889731,33.691,40.527,478.027,38.574,119.629
1573889731,22.949,31.25,213.867,25.879,135.742
1573889731,0.488,16.113,-307.617,-7.324,-39.551
1573889731,-0.488,17.578,-412.109,-8.789,-129.395
1573889731,21.973,25.391,39.062,19.531,48.828
1573889731,33.203,28.809,247.559,19.531,168.945
1573889731,18.066,34.18,-200.684,-11.23,9.277
1573889731,12.695,32.715,-371.582,-14.648,-139.648
1573889731,30.762,20.996,-5.371,16.602,-24.414
1573889731,48.34,21.973,127.441,31.738,156.738
1573889731,41.992,33.691,-62.012,13.184,99.121
1573889731,25.391,37.109,-352.539,-3.418,-92.285
1573889731,22.949,34.18,-46.875,10.254,-52.246
1573889731,33.203,30.762,546.387,28.32,160.156
1573889731,30.273,19.043,292.48,12.207,145.02
1573889731,11.719,13.672,-502.441,-14.648,-72.266
1573889731,9.277,20.508,-592.285,-6.348,-95.215
1573889731,29.785,28.32,66.895,27.344,89.355
1573889731,35.645,28.32,289.551,29.785,155.762
1573889731,21.484,23.438,-298.34,1.953,-23.438
1573889731,15.625,24.414,-424.316,-0.488,-149.414
1573889731,30.762,30.762,381.348,31.738,53.223
1573889731,41.016,30.273,768.555,39.062,230.469
1573889731,29.785,24.414,-12.207,16.113,62.5
1573889731,23.926,31.738,-472.168,13.672,-110.84
1573889731,36.133,36.133,167.969,38.086,-10.254
1573889731,49.805,25.391,723.633,50.781,202.637
1573889731,39.062,17.09,54.688,24.902,124.023
1573889731,20.996,18.555,-943.848,-0.977,-137.695
1573889731,25.391,25.391,-386.719,20.02,-85.938
1573889731,49.316,30.273,619.141,55.176,168.457
1573889731,48.828,30.273,364.746,41.992,173.828
1573889731,22.949,23.926,-422.852,5.371,-45.898
1573889731,18.066,15.625,-345.703,12.695,-113.281
1573889731,36.621,13.184,405.762,40.039,67.383
1573889731,38.086,15.137,457.52,33.691,178.223
1573889731,26.367,26.855,-171.875,8.301,23.438
1573889731,19.043,29.785,-210.938,3.906,-90.82
1573889731,26.367,20.996,414.062,26.855,36.133
1573889731,37.598,15.137,516.602,40.527,171.875
1573889731,29.297,10.254,-191.895,18.066,41.992
1573889731,15.137,12.207,-409.668,0,-105.957
1573889731,22.949,20.02,315.918,20.508,7.324
1573889731,36.621,22.461,442.871,41.016,146.973
1573889731,26.367,18.555,-75.684,15.137,77.637
1573889731,17.578,25.879,-208.496,-1.953,-78.125
1573889731,32.715,30.273,95.703,25.391,-80.078
1573889731,45.898,21.484,539.551,45.41,104.98
1573889731,33.203,15.137,491.699,25.391,149.414
1573889731,20.996,20.02,5.371,5.371,-54.199
1573889731,31.25,18.066,-12.695,20.508,-131.348
1573889731,49.316,12.695,529.785,45.898,70.312
1573889731,56.641,16.113,584.473,46.875,181.152
1573889731,38.086,13.184,62.012,20.508,0
1573889731,28.32,13.184,-215.82,10.742,-140.137
1573889731,39.062,15.137,95.215,30.762,-19.531
1573889731,45.898,16.113,644.043,41.992,152.832
1573889732,34.18,20.02,405.273,20.02,83.984
1573889732,27.344,24.902,-74.219,7.324,-75.195
1573889732,42.48,21.973,345.703,34.668,-18.555
1573889732,49.805,10.742,-997.07,48.34,186.035
1573889732,36.621,11.719,515.137,24.414,121.582
1573889732,19.531,13.184,-275.879,0,-101.562
1573889732,20.508,12.207,-39.551,6.836,-83.008
1573889732,33.691,14.16,565.43,29.785,112.793
1573889732,28.32,22.949,473.633,17.09,139.16
1573889732,9.766,29.297,-454.102,-14.648,-69.336
1573889732,4.883,18.066,-503.906,-10.742,-146.973
1573889732,15.625,8.789,482.91,17.578,37.598
1573889732,20.996,12.695,671.387,20.02,177.734
1573889732,10.742,18.066,1.953,-6.348,19.043
1573889732,5.859,15.137,-216.797,-12.695,-138.672
1573889732,19.043,25.391,451.172,14.16,-3.418
1573889732,29.785,33.203,709.961,24.902,153.32
1573889732,19.531,23.926,119.141,2.441,59.57
1573889732,12.695,20.02,-345.703,-9.277,-58.105
1573889732,22.461,20.996,2.441,15.625,-15.137
1573889732,33.203,22.949,420.898,34.18,127.441
1573889732,33.203,29.785,-117.188,21.484,91.309
1573889732,26.367,40.039,-534.18,8.789,-92.773
1573889732,30.762,40.039,-107.422,19.043,-110.84
1573889732,38.086,34.668,478.516,41.504,88.379
1573889732,30.762,27.832,443.359,31.25,169.434
1573889732,14.648,25.879,-119.629,0.977,-10.742
1573889732,15.625,35.156,-200.195,7.812,-105.469
1573889732,34.18,38.574,369.629,38.086,51.758
1573889732,42.969,35.645,522.949,41.504,169.434
1573889732,31.738,41.504,-244.629,18.066,5.371
1573889732,19.043,39.062,-636.23,0,-146.973
1573889732,27.344,29.297,-240.234,17.578,-31.738
1573889732,38.574,30.273,28.809,31.25,136.23
1573889732,29.785,31.25,-201.66,7.324,51.27
1573889732,13.672,34.18,-643.066,-16.113,-144.531
1573889732,16.113,39.062,-262.207,-1.465,-76.172
1573889732,30.273,41.992,508.789,23.438,158.203
1573889732,23.438,40.527,360.84,12.695,157.227
1573889732,12.207,42.48,-356.445,-6.348,-26.367
1573889732,11.719,36.621,-308.594,1.953,-80.078
1573889732,22.461,25.879,414.551,26.855,84.961
1573889732,28.809,28.809,357.422,28.32,177.734
1573889732,23.926,36.133,-532.715,3.906,-24.902
1573889732,23.926,40.527,-900.879,1.953,-189.941
1573889732,34.18,40.039,-0.488,34.18,1.953
1573889732,49.805,41.992,566.406,48.34,165.039
1573889732,42.969,37.598,-131.348,25.879,23.438
1573889732,24.902,26.855,-583.496,13.184,-115.234
1573889732,29.297,27.344,77.148,35.645,-31.25
1573889732,44.922,30.273,691.406,52.734,158.203
1573889732,36.133,29.297,224.609,32.715,108.398
1573889732,19.531,31.738,-371.094,10.742,-83.008
1573889732,22.949,33.691,10.742,21.484,-68.359
1573889732,32.227,34.668,529.297,42.969,116.211
1573889732,29.785,35.645,-21.973,30.273,121.094
1573889732,10.742,29.297,-741.211,-2.441,-87.891
1573889732,6.836,33.691,-298.828,2.93,-126.465
1573889732,27.344,35.156,450.684,33.691,55.176
1573889732,33.203,27.832,435.059,32.227,149.902
1573889732,17.09,26.855,-101.562,-1.465,14.648
1573889732,12.695,33.203,-224.121,-3.906,-123.047
1573889732,30.762,40.527,283.691,24.902,-1.465
1573889732,37.109,37.598,514.648,33.203,161.133
1573889732,19.531,31.738,67.383,1.953,65.918
1573889732,2.93,33.691,-340.82,-16.113,-101.562
1573889732,12.207,34.668,-112.305,10.254,-50.293
1573889732,29.297,36.621,212.402,25.879,131.348
1573889732,21.973,30.273,93.75,8.301,107.422
1573889732,12.207,24.902,-291.992,-6.836,-95.215
1573889732,20.508,31.738,-195.312,6.836,-125
1573889732,34.668,35.156,416.504,30.273,90.82
1573889732,32.227,34.18,439.941,19.531,144.043
1573889732,24.414,37.598,-190.43,1.465,-42.969
1573889732,28.32,39.551,-333.984,12.207,-131.348
1573889732,41.992,37.109,250.977,40.039,28.32
1573889732,46.875,35.156,541.016,45.41,169.922
1573889732,32.715,29.785,-145.02,21.484,34.668
1573889732,30.273,29.785,-625.977,23.926,-105.957
1573889732,41.504,22.949,-23.438,49.805,1.465
1573889732,42.48,17.09,608.398,53.711,198.242
1573889732,34.668,24.902,178.223,33.691,101.562
1573889732,25.391,31.738,-769.531,14.648,-149.414
1573889732,26.855,36.621,-492.676,30.273,-112.793
1573889732,36.621,34.18,520.996,48.34,136.23
1573889732,35.156,24.414,272.461,33.203,139.16
1573889732,18.066,22.949,-479.004,11.719,-66.406
1573889732,18.555,31.25,-155.762,18.555,-68.359
1573889732,35.156,34.18,594.727,43.457,118.652
1573889732,34.668,31.738,433.105,37.598,167.969
1573889732,21.484,31.25,-402.832,12.207,-7.324
1573889732,10.742,33.203,-592.773,2.93,-123.047
1573889732,19.043,33.203,77.148,22.461,26.855
1573889732,30.762,30.762,149.902,28.809,135.254
1573889732,15.137,29.297,-651.855,-3.906,-18.066
1573889732,6.348,31.738,-641.113,-12.695,-124.023
1573889732,24.902,31.25,186.523,16.113,-6.836
1573889732,43.457,34.18,539.062,35.156,162.598
1573889732,29.785,34.18,133.789,13.672,131.348
1573889732,10.254,28.809,-262.207,-7.812,-47.852
1573889732,20.02,29.297,54.199,12.695,-46.387
1573889732,43.945,32.227,545.41,44.434,138.672
1573889732,39.551,28.32,145.508,33.691,135.254
1573889732,24.414,34.18,-530.762,8.301,-42.969
1573889732,33.691,39.062,-188.477,25.879,-56.641
1573889732,50.781,32.227,236.328,52.734,99.609
1573889732,50.781,22.461,12.695,46.875,141.113
1573889732,35.645,19.043,-286.133,22.461,-14.16
1573889732,26.855,22.949,-301.27,18.555,-87.891
1573889732,36.621,25.391,302.734,44.434,71.289
1573889732,43.945,23.438,597.168,46.387,183.594
1573889732,32.227,25.879,52.246,19.531,52.734
1573889732,26.367,29.297,-450.195,11.23,-128.906
1573889732,35.156,30.273,13.184,33.203,-39.062
1573889732,43.457,26.855,478.516,44.434,170.41
1573889732,31.738,20.02,-17.578,17.09,78.613
1573889732,15.625,23.438,-667.48,-9.277,-132.324
1573889732,20.996,23.926,-586.914,-2.441,-90.82
1573889732,34.18,26.367,270.02,20.996,113.281
1573889732,33.203,34.18,306.152,15.625,121.094
1573889732,15.137,23.926,-599.121,-18.066,-63.965
1573889732,11.719,17.09,-576.172,-10.254,-97.656
1573889732,30.273,28.809,362.793,28.32,63.477
1573889732,39.551,34.668,538.086,37.598,165.039
1573889732,23.926,24.902,-137.207,16.113,38.086
1573889732,12.695,20.508,-386.23,9.277,-108.887
1573889732,26.367,22.461,96.68,36.133,-8.301
1573889732,39.551,23.438,435.547,49.805,175.781
1573889732,37.598,25.879,-309.57,29.297,59.57
1573889732,31.25,28.809,-826.66,16.113,-101.562
1573889732,42.969,31.25,34.18,41.016,-20.508
1573889732,59.57,32.227,610.352,62.988,149.414
1573889732,55.664,29.785,128.906,46.387,115.723
1573889732,37.109,23.926,-358.887,21.973,-49.316
1573889732,41.992,29.785,-36.133,35.156,-59.57
1573889732,59.082,31.738,376.465,61.035,96.191
1573889732,52.246,22.461,254.883,48.828,155.762
1573889732,33.691,20.02,-217.773,19.043,-0.488
1573889732,33.203,26.855,-291.504,23.926,-86.914
1573889732,46.875,29.785,138.184,49.805,49.316
1573889732,53.223,34.18,77.148,51.27,145.02
1573889732,42.48,36.133,-276.855,28.809,30.273
1573889732,28.32,24.902,-336.426,18.066,-128.906
1573889732,35.156,18.066,157.227,38.086,-19.043
1573889732,43.945,21.484,510.254,45.41,151.367
1573889732,29.785,23.438,81.055,14.648,56.641
1573889732,8.789,30.273,-315.43,-9.766,-85.938
1573889732,15.137,32.227,4.395,6.348,-47.363
1573889732,31.738,21.973,546.875,27.344,140.625
1573889732,24.414,13.672,221.191,13.672,115.723
1573889732,12.695,18.066,-537.598,-3.906,-77.148
1573889732,24.414,25.879,-612.793,14.16,-82.031
1573889732,37.109,23.438,50.781,38.086,100.586
1573889732,31.738,19.531,411.133,24.902,166.992
1573889732,19.531,24.414,-208.008,0.977,-14.16
1573889732,17.09,21.484,-421.387,6.836,-129.395
1573889732,27.344,15.625,244.141,33.691,4.395
1573889732,33.691,23.926,589.844,41.016,159.18
1573889732,28.809,30.273,-62.988,20.508,42.969
1573889732,22.949,23.438,-542.969,10.254,-131.348
1573889732,30.762,26.855,112.793,31.25,-34.668
1573889732,40.527,34.668,675.781,45.41,155.762
1573889732,31.738,24.414,-6.348,21.484,70.801
1573889732,13.672,10.742,-916.016,-3.418,-119.141
1573889732,16.602,9.766,-380.371,14.648,-73.73
1573889732,36.621,19.043,642.578,39.062,146.484
1573889732,33.691,23.438,416.504,26.367,143.555
1573889732,16.113,23.926,-268.066,1.465,-54.199
1573889732,23.438,32.227,8.301,13.672,-74.707
1573889732,36.621,34.668,712.402,41.016,86.426
1573889732,35.156,21.973,662.598,36.133,166.016
1573889732,20.508,12.207,-67.871,7.324,-22.461
1573889732,11.719,16.113,-125,4.395,-124.512
1573889732,28.809,27.832,575.684,35.645,60.059
1573889732,33.203,23.438,578.125,38.574,176.27
1573889732,18.555,18.555,-29.297,6.836,62.012
1573889732,3.418,21.973,-150.879,-8.789,-86.426
1573889732,10.742,26.367,460.938,9.277,-0.977
1573889732,29.785,29.297,715.332,30.762,172.363
1573889732,23.438,21.484,266.602,14.16,102.051
1573889732,11.719,17.578,-38.574,-8.789,-65.43
1573889732,18.066,15.137,170.41,8.301,-81.055
1573889732,37.109,20.996,708.496,36.133,108.398
1573889732,34.18,26.855,672.852,26.855,162.598
1573889732,16.602,26.367,41.992,1.465,-40.527
1573889732,16.113,29.297,14.16,5.859,-90.82
1573889732,33.203,28.809,511.719,31.738,73.73
1573889732,43.457,31.25,546.875,36.621,186.035
1573889732,26.367,30.762,22.461,8.301,44.922
1573889732,14.648,23.438,-358.398,-3.906,-149.414
1573889732,29.785,26.855,-41.504,20.02,-42.969
1573889732,35.645,29.297,550.293,28.809,154.297
1573889732,30.762,27.832,156.738,6.348,39.551
1573889732,19.531,26.855,-440.43,-11.23,-135.254
1573889732,17.09,20.996,48.34,4.395,-61.523
1573889732,30.762,24.902,677.734,30.273,119.629
1573889732,30.273,33.203,385.742,21.484,105.469
1573889732,8.789,27.344,-348.633,-9.277,-105.957
1573889732,2.93,20.996,-248.535,-3.906,-107.422
1573889732,19.043,22.461,373.535,22.461,89.355
1573889732,16.602,24.902,285.156,10.254,122.07
1573889732,-1.465,24.414,-608.887,-20.02,-77.148
1573889732,0.977,20.508,-716.309,-14.648,-160.156
1573889732,19.043,18.066,298.828,17.578,26.367
1573889732,25.879,19.043,505.371,20.996,152.344
1573889732,22.949,24.902,-189.941,3.906,20.996
1573889732,19.043,29.297,-366.699,-0.488,-116.699
1573889732,31.738,26.855,226.074,19.043,0.977
1573889732,44.434,23.438,561.523,37.109,190.918
1573889732,34.18,20.508,61.035,18.555,90.332
1573889732,27.832,18.066,-543.945,2.93,-105.469
1573889732,37.598,19.043,-125,22.949,-34.668
1573889732,51.27,25.391,414.551,44.434,147.461
1573889732,48.34,29.785,-183.105,32.227,97.656
1573889732,27.832,29.785,-706.543,3.906,-126.465
1573889732,20.508,27.832,-296.387,8.301,-138.184
1573889732,37.109,29.785,378.418,41.016,109.863
1573889732,41.504,25.879,315.43,40.527,176.27
1573889732,23.926,17.578,-219.238,9.766,13.184
1573889732,17.578,15.625,-309.082,5.371,-97.168
1573889732,32.715,22.461,205.566,30.273,36.621
1573889732,37.109,29.785,471.68,31.738,201.66
1573889732,19.531,31.738,-246.582,6.348,30.762
1573889732,14.16,33.203,-675.293,1.465,-119.629
1573889732,22.949,27.832,-302.246,24.414,-16.113
1573889732,38.086,25.391,62.988,38.574,130.371
1573889732,29.297,27.344,-37.598,20.996,62.012
1573889732,18.555,29.785,-525.879,10.254,-119.629
1573889732,31.25,36.133,-229.98,31.25,-73.242
1573889732,41.504,39.551,529.785,51.758,129.395
1573889732,35.156,35.156,437.012,36.621,152.832
1573889732,15.137,30.273,-271.484,7.812,-33.691
1573889732,8.301,26.855,-279.785,14.16,-109.863
1573889732,26.855,30.273,408.203,40.527,50.781
1573889732,35.156,33.203,419.434,43.457,160.156
1573889732,24.902,36.133,-397.949,21.973,-11.719
1573889732,18.066,35.156,-829.59,10.254,-152.344
1573889732,23.926,28.32,38.574,29.297,20.996
1573889732,37.598,28.32,665.527,43.457,182.129
1573889732,29.785,34.668,-15.625,18.555,40.039
1573889732,20.508,35.156,-475.586,7.324,-148.926
1573889732,35.156,31.738,232.422,31.738,-25.879
1573889732,46.387,31.738,830.078,44.434,194.336
1573889732,38.086,28.809,300.781,25.879,116.211
1573889732,27.344,29.297,-343.75,5.371,-102.051
1573889732,35.156,25.879,31.738,20.508,-80.078
1573889732,47.852,29.785,555.664,43.945,104.98
1573889732,41.992,38.086,25.879,28.32,128.418
1573889732,24.902,32.227,-660.645,-1.465,-56.152
1573889732,18.066,26.855,-293.457,4.883,-143.066
1573889732,24.902,30.273,466.797,30.762,49.805
1573889732,22.461,30.273,504.395,23.926,181.152
1573889732,10.742,29.785,-93.75,-2.441,8.789
1573889732,7.324,31.25,-259.766,-7.324,-150.879
1573889732,17.09,31.738,325.684,16.602,15.625
1573889732,30.273,31.738,604.98,33.203,187.5
1573889733,21.973,28.809,54.688,12.207,47.852
1573889733,16.113,33.691,-315.918,3.418,-120.117
1573889733,31.25,41.504,-30.273,29.785,-34.18
1573889733,38.086,40.527,352.051,37.598,162.598
1573889733,31.738,38.574,213.379,16.113,131.348
1573889733,17.09,36.133,-252.441,-3.906,-62.012
1573889733,22.461,38.086,-219.238,6.836,-91.797
1573889733,44.434,44.922,40.039,31.738,64.941
1573889733,44.922,45.41,209.473,27.832,174.805
1573889733,29.297,34.668,-239.258,4.883,12.207
1573889733,25.391,28.809,-437.012,5.371,-118.164
1573889733,37.598,32.715,310.059,32.227,69.336
1573889733,47.852,35.156,637.207,41.992,212.891
1573889733,31.25,41.016,14.16,11.23,52.246
1573889733,17.09,42.48,-478.027,-3.906,-120.605
1573889733,26.367,37.598,-33.203,23.438,0
1573889733,33.691,34.18,477.539,36.621,168.945
1573889733,27.832,31.25,125,16.113,92.285
1573889733,13.672,27.832,-662.109,-7.324,-66.406
1573889733,17.578,28.32,-397.461,7.812,-47.852
1573889733,32.715,32.227,571.289,34.18,154.785
1573889733,31.25,36.621,322.266,23.926,158.691
1573889733,14.648,34.668,-392.09,-1.953,-34.668
1573889733,9.766,32.227,-239.746,6.348,-86.426
1573889733,26.367,32.715,412.109,34.18,94.238
1573889733,30.762,28.809,382.812,32.227,168.945
1573889733,15.137,25.879,-480.957,7.812,-24.414
1573889733,15.137,23.438,-596.191,8.301,-111.328
1573889733,34.18,24.414,267.09,37.598,42.969
1573889733,48.828,32.227,401.367,50.781,158.203
1573889733,41.016,34.668,-439.941,27.344,23.438
1573889733,28.32,30.273,-570.801,15.625,-125
1573889733,38.574,25.879,225.586,41.504,-11.23
1573889733,48.828,21.973,454.102,53.711,152.344
1573889733,36.133,21.484,-159.668,26.855,78.613
1573889733,24.902,29.297,-434.57,9.277,-90.82
1573889733,34.18,39.062,-38.086,28.32,-82.52
1573889733,39.551,33.203,471.191,45.41,110.84
1573889733,34.668,24.902,124.023,32.715,114.746
1573889733,20.02,28.809,-532.227,9.277,-52.246
1573889733,16.602,31.25,-460.938,5.371,-103.027
1573889733,36.133,23.438,99.609,28.809,55.664
1573889733,41.992,25.879,337.891,30.762,188.965
1573889733,29.297,36.133,-142.578,5.371,3.906
1573889733,19.043,36.621,-304.199,5.371,-123.535
1573889733,28.809,31.738,24.414,35.645,25.879
1573889733,28.32,23.438,289.062,39.551,182.617
1573889733,16.113,28.32,47.852,18.066,73.73
1573889733,7.812,30.762,-467.773,3.906,-137.695
1573889733,13.672,25.879,-74.707,24.902,-67.383
1573889733,27.832,29.297,433.594,45.41,153.32
1573889733,23.926,30.762,56.152,23.926,111.328
1573889733,17.09,32.227,-540.039,4.883,-79.102
1573889733,27.832,32.227,-561.035,22.461,-107.422
1573889733,47.363,32.715,243.164,51.758,82.031
1573889733,43.457,29.297,413.086,38.086,148.926
1573889733,27.344,28.32,-296.875,5.859,-23.438
1573889733,27.832,40.527,-269.043,20.02,-79.102
1573889733,49.316,46.387,513.184,57.129,88.867
1573889733,53.711,44.922,624.512,54.688,191.406
1573889733,37.109,40.527,-145.02,27.344,7.324
1573889733,29.785,33.691,-431.152,18.555,-139.16
1573889733,39.551,35.645,224.609,41.992,40.039
1573889733,46.875,36.621,499.023,53.711,192.383
1573889733,33.203,30.762,-324.219,23.438,66.895
1573889733,18.555,32.715,-813.965,5.371,-104.004
1573889733,27.344,46.387,30.762,30.273,-35.156
1573889733,41.992,61.523,548.34,52.246,150.391
1573889733,31.25,60.547,82.52,29.297,106.445
1573889733,11.719,48.828,-349.121,-1.953,-70.312
1573889733,13.184,47.363,11.719,10.254,-62.988
1573889733,30.762,55.664,576.66,38.574,127.441
1573889733,27.344,57.129,406.738,27.832,180.176
1573889733,7.324,56.641,-229.004,-4.883,-25.879
1573889733,5.371,59.57,-401.855,0.488,-128.418
1573889733,24.414,60.059,46.387,29.785,34.18
1573889733,29.785,64.453,39.551,26.855,145.996
1573889733,16.113,63.965,-364.258,1.465,11.23
1573889733,10.254,61.523,-353.516,-1.953,-130.371
1573889733,24.414,60.547,166.992,23.926,-12.695
1573889733,40.039,59.57,559.082,36.621,167.48
1573889733,34.668,67.383,148.438,15.137,102.051
1573889733,27.832,68.848,-364.258,2.441,-67.383
1573889733,37.109,68.848,-3.418,26.367,-40.527
1573889733,51.27,67.871,601.562,46.875,156.25
1573889733,44.922,66.406,407.715,31.25,148.438
1573889733,29.785,68.359,-291.504,9.277,-43.457
1573889733,36.621,67.383,-503.906,23.438,-104.98
1573889733,52.246,63.965,80.566,44.434,62.012
1573889733,52.246,54.688,451.172,39.062,148.438
1573889733,40.527,52.246,-128.418,17.578,-30.762
1573889733,34.18,55.664,-327.148,17.09,-139.648
1573889733,43.457,56.152,442.383,43.457,37.109
1573889733,54.199,57.617,837.402,54.199,199.219
1573889733,42.969,51.27,163.086,29.785,53.711
1573889733,24.414,47.852,-338.379,13.184,-141.602
1573889733,34.668,55.176,161.133,38.574,-56.152
1573889733,45.898,49.805,669.922,56.152,120.117
1573889733,34.668,37.109,119.141,26.367,67.871
1573889733,19.531,38.086,-706.543,2.93,-114.258
1573889733,21.484,45.898,-68.359,20.996,-51.27
1573889733,37.109,51.27,885.254,44.922,160.645
1573889733,35.645,47.852,543.457,31.25,131.836
1573889733,21.484,39.062,-156.25,5.859,-69.824
1573889733,23.926,40.527,83.496,18.066,-97.656
1573889733,39.062,44.434,812.012,47.363,99.609
1573889733,40.039,38.086,709.473,43.945,162.598
1573889733,27.832,32.715,-24.414,20.02,-20.996
1573889733,24.414,33.203,-64.941,20.508,-112.793
1573889733,41.016,39.551,637.695,49.316,56.641
1573889733,54.688,41.016,741.699,60.547,191.406
1573889733,39.062,27.344,-67.383,32.715,31.738
1573889733,24.414,21.484,-489.746,15.625,-133.301
1573889733,38.574,26.367,156.25,41.016,-19.531
1573889733,47.852,28.32,470.215,56.152,163.086
1573889733,36.133,26.367,-5.371,30.762,104.004
1573889733,23.438,27.344,-222.656,14.16,-87.402
1573889733,29.785,31.738,132.324,37.109,-56.641
1573889733,39.551,30.762,712.891,52.246,156.738
1573889733,39.062,32.715,583.496,36.621,169.922
1573889733,21.973,25.879,-82.52,11.23,-47.363
1573889733,11.719,15.137,-139.648,9.277,-105.469
1573889733,31.738,21.484,315.918,39.062,60.059
1573889733,37.109,27.832,356.934,43.945,158.691
1573889733,20.508,25.391,-114.746,18.555,15.625
1573889733,18.066,26.855,-495.117,14.16,-138.184
1573889733,33.691,33.203,-222.168,39.551,-35.645
1573889733,38.086,30.762,344.727,53.223,138.184
1573889733,32.227,31.738,87.891,37.598,64.941
1573889733,24.414,27.832,-378.906,19.043,-80.078
1573889733,31.25,17.09,-8.301,33.691,-45.41
1573889733,48.828,20.508,649.902,60.547,148.926
1573889733,43.945,25.391,353.027,42.48,124.512
1573889733,31.738,24.902,-375.488,20.02,-71.289
1573889733,36.621,25.391,-333.984,37.109,-80.566
1573889733,49.316,30.762,364.746,60.547,130.859
1573889733,54.199,28.32,452.148,59.57,181.641
1573889733,42.969,20.996,-601.074,32.227,-79.59
1573889733,35.156,19.043,-754.883,28.32,-144.043
1573889733,50.293,19.531,180.664,57.617,54.688
1573889733,55.664,23.438,281.738,60.059,166.504
1573889733,43.457,25.391,-360.84,32.227,18.066
1573889733,36.621,21.973,-491.699,24.902,-111.328
1573889733,50.293,24.414,193.848,50.781,12.695
1573889733,56.641,26.855,499.512,54.688,174.316
1573889733,39.062,19.043,-62.988,26.367,86.914
1573889733,28.809,16.602,-641.113,14.16,-106.934
1573889733,36.133,27.832,-236.328,35.645,-52.734
1573889733,46.387,26.855,412.598,51.758,171.875
1573889733,35.645,18.555,-92.285,29.785,144.531
1573889733,18.066,21.484,-577.637,7.324,-62.988
1573889733,24.414,24.902,-173.34,22.461,-97.656
1573889733,42.969,21.484,441.895,48.34,103.516
1573889733,48.828,21.484,385.742,44.922,172.363
1573889733,33.203,22.461,-243.164,15.625,5.859
1573889733,28.809,24.414,-318.848,14.16,-97.656
1573889733,51.27,32.227,289.551,48.828,32.715
1573889733,57.617,29.785,593.262,52.246,201.172
1573889733,38.086,25.391,-146.973,18.555,33.203
1573889733,27.344,20.508,-556.152,6.836,-120.117
1573889733,42.969,17.578,-106.445,37.109,-1.953
1573889733,54.199,14.16,251.465,55.176,158.691
1573889733,41.504,13.672,170.898,33.203,103.027
1573889733,31.738,19.531,-334.473,19.043,-99.121
1573889733,39.062,20.02,-27.832,38.086,-46.875
1573889733,58.105,22.949,663.086,62.988,143.066
1573889733,60.059,26.367,535.645,52.734,158.691
1573889733,43.457,27.344,-204.102,22.949,-58.105
1573889733,42.969,27.344,-313.477,28.32,-132.812
1573889733,52.734,18.066,425.293,56.641,96.191
1573889733,48.828,16.113,511.23,49.805,188.477
1573889733,36.621,23.926,-267.09,20.508,13.672
1573889733,31.25,23.926,-807.129,13.184,-128.418
1573889733,43.457,24.414,-136.23,36.621,-0.977
1573889733,50.781,25.879,666.992,50.781,185.059
1573889733,38.086,20.996,149.414,26.367,92.773
1573889733,22.461,17.578,-330.078,9.277,-90.332
1573889733,33.691,20.508,291.992,32.227,-9.766
1573889733,56.641,25.391,884.766,58.105,199.219
1573889733,51.27,24.414,323.73,47.363,108.398
1573889733,35.645,20.508,-350.586,24.414,-97.656
1573889733,39.551,26.855,35.156,33.203,-62.988
1573889733,53.711,28.32,559.082,57.617,125.977
1573889733,51.27,23.438,41.016,46.387,145.02
1573889733,37.598,22.461,-637.207,20.996,-47.363
1573889733,39.551,20.02,-316.895,29.297,-136.23
1573889733,51.758,16.602,494.141,57.129,67.871
1573889733,56.641,22.461,373.047,57.129,185.059
1573889733,40.527,22.461,-390.625,28.32,-16.602
1573889733,29.785,21.973,-312.988,20.508,-125.977
1573889733,47.852,32.227,293.457,47.852,18.066
1573889733,57.617,28.32,554.199,59.082,183.105
1573889733,39.551,20.996,20.996,27.344,43.457
1573889733,27.832,23.438,-422.363,8.789,-151.367
1573889733,41.016,26.367,-103.027,33.691,-57.129
1573889733,54.199,24.902,77.637,51.758,112.305
1573889733,41.016,25.879,-98.145,28.32,76.66
1573889733,22.461,32.715,-457.52,6.348,-93.75
1573889733,29.785,30.762,-368.164,20.02,-95.703
1573889733,48.34,23.438,328.125,44.434,88.867
1573889733,52.246,20.508,344.727,41.992,119.141
1573889733,40.527,23.438,-267.578,20.02,-51.27
1573889733,35.645,31.25,-367.676,22.461,-135.742
1573889733,47.852,41.016,310.059,49.316,50.781
1573889733,54.688,40.039,673.34,54.688,216.797
1573889733,38.086,23.438,26.855,21.973,40.527
1573889733,26.367,17.09,-544.434,3.418,-152.832
1573889733,38.086,24.902,-105.957,28.809,-32.715
1573889733,50.293,28.809,468.262,52.246,155.273
1573889733,41.992,26.855,109.375,35.156,88.867
1573889733,23.926,23.926,-566.406,10.742,-93.75
1573889733,33.691,27.344,-189.941,30.762,-62.5
1573889733,53.223,31.25,507.812,56.641,140.625
1573889733,46.387,30.762,149.902,40.039,102.051
1573889733,30.762,28.809,-708.008,10.742,-98.145
1573889733,33.203,28.32,-500,18.555,-115.723
1573889733,54.199,28.32,467.773,49.316,92.773
1573889733,59.57,30.273,419.434,47.852,163.574
1573889733,45.898,34.668,-459.473,20.508,-45.898
1573889733,36.133,29.297,-581.543,18.066,-120.605
1573889733,47.852,30.762,324.707,42.969,79.59
1573889733,54.199,30.273,498.535,42.969,188.965
1573889733,31.25,20.996,-316.895,13.672,22.461
1573889733,16.602,23.438,-452.637,4.883,-98.145
1573889733,24.902,26.367,279.785,28.809,15.137
1573889733,38.086,23.926,517.09,46.875,165.527
1573889733,39.062,22.461,-358.887,33.203,53.711
1573889733,25.391,26.367,-765.625,14.648,-124.023
1573889733,30.273,25.391,-76.172,28.32,-48.828
1573889733,51.27,24.414,576.66,53.711,164.062
1573889733,44.922,26.367,226.074,37.598,165.039
1573889733,27.832,24.414,-460.938,11.719,-3.418
1573889733,27.344,21.973,-323.73,19.531,-76.172
1573889733,43.457,21.973,88.379,44.434,50.781
1573889733,48.34,30.762,64.453,42.48,143.066
1573889733,30.762,32.227,-200.684,17.09,2.93
1573889733,24.902,20.508,-313.965,12.207,-111.816
1573889733,35.156,17.578,216.797,34.668,20.508
1573889733,48.828,29.785,576.66,47.363,175.293
1573889733,42.969,37.598,69.824,29.297,46.387
1573889733,24.902,20.996,-439.453,6.836,-135.742
1573889733,29.297,12.695,-158.691,21.973,-70.312
1573889733,46.875,23.438,293.457,46.875,133.301
1573889733,34.18,27.344,66.895,26.855,117.676
1573889733,13.184,30.762,-505.859,2.93,-78.125
1573889733,21.484,30.273,-513.184,15.625,-101.074
1573889733,32.227,26.367,281.25,33.691,90.332
1573889733,23.438,20.996,417.48,19.043,141.113
1573889733,12.695,19.531,-336.426,-4.395,-44.922
1573889733,18.555,24.414,-317.871,7.324,-90.332
1573889733,35.156,27.344,539.062,34.668,105.469
1573889733,43.457,36.133,625.488,41.504,179.688
1573889733,26.367,44.434,-138.184,13.672,15.625
1573889733,19.531,36.621,-410.645,5.371,-128.906
1573889733,36.133,27.344,71.289,37.598,-24.902
1573889733,38.574,24.902,390.137,42.48,170.41
1573889734,27.344,26.367,-347.168,20.02,55.176
1573889734,15.137,31.25,-824.707,0,-107.422
1573889734,20.02,38.574,41.992,22.461,-20.996
1573889734,38.574,40.039,663.574,47.852,155.762
1573889734,33.691,31.738,271.484,24.414,143.066
1573889734,20.02,23.926,-254.395,2.441,-33.691
1573889734,30.273,29.785,71.289,19.043,-45.41
1573889734,46.875,36.621,640.137,47.852,134.766
1573889734,45.41,36.133,420.898,42.969,170.41
1573889734,29.297,34.18,-121.094,12.207,13.184
1573889734,24.414,37.109,-139.648,11.23,-37.598
1573889734,42.969,40.039,267.578,41.016,63.965
1573889734,44.922,32.715,212.402,41.016,149.902
1573889734,27.344,33.203,-194.336,12.695,26.855
1573889734,25.879,34.668,-262.207,6.836,-104.004
1573889734,34.668,28.809,265.625,26.855,10.254
1573889734,47.363,32.227,706.543,42.969,169.922
1573889734,44.922,32.227,367.676,28.32,96.191
1573889734,32.227,31.25,-94.727,11.23,-89.844
1573889734,40.039,32.715,195.801,30.273,-64.453
1573889734,57.129,33.691,768.555,51.27,139.16
1573889734,48.34,32.227,579.102,30.762,135.254
1573889734,31.25,31.738,-162.109,10.254,-61.035
1573889734,34.668,33.691,-331.543,24.902,-91.797
1573889734,35.156,29.785,261.23,40.039,71.777
1573889734,34.668,31.738,643.555,37.598,165.039
1573889734,31.738,32.715,91.797,20.02,-7.812
1573889734,22.461,24.902,-98.633,11.719,-104.492
1573889734,30.762,25.391,526.367,26.855,57.129
1573889734,30.762,23.438,797.852,31.738,178.223
1573889734,22.461,23.926,216.309,16.113,53.711
1573889734,17.09,23.438,-201.172,6.348,-89.355
1573889734,25.391,25.879,351.074,24.414,-14.16
1573889734,43.457,27.832,814.453,45.898,146.973
1573889734,44.434,21.484,160.645,35.645,78.613
1573889734,30.273,21.973,-479.492,13.672,-76.172
1573889734,33.203,23.926,85.938,27.832,-26.855
1573889734,47.852,23.926,832.52,53.223,166.504
1573889734,43.945,20.508,376.465,39.062,145.508
1573889734,29.785,18.066,-678.223,9.766,-92.773
1573889734,23.438,28.32,-380.859,11.23,-120.117
1573889734,36.133,34.668,581.055,38.086,90.332
1573889734,41.504,23.438,506.348,39.062,164.551
1573889734,19.531,10.254,-339.355,7.324,-10.254
1573889734,12.695,13.672,-457.52,0.977,-136.23
1573889734,28.809,19.531,323.73,33.203,24.902
1573889734,31.738,25.879,521.484,43.945,197.754
1573889734,22.461,31.738,-246.094,18.555,48.828
1573889734,15.625,26.367,-574.707,8.789,-136.23
1573889734,28.32,22.949,118.652,34.18,-31.25
1573889734,38.086,19.531,287.598,42.969,133.789
1573889734,23.438,14.648,-291.016,16.113,69.336
1573889734,9.766,20.02,-434.082,0,-55.176
1573889734,22.461,27.832,-63.477,18.066,-32.227
1573889734,41.504,32.227,403.32,46.387,113.77
1573889734,27.832,30.762,259.766,30.762,125.977
1573889734,5.371,28.32,-357.422,-5.859,-70.312
1573889734,14.16,30.273,-483.887,6.348,-142.09
1573889734,35.156,25.879,50.293,37.109,53.223
1573889734,34.18,26.367,188.965,28.809,177.246
1573889734,21.484,32.227,-295.898,3.418,22.461
1573889734,23.438,35.645,-593.75,-1.465,-125
1573889734,30.273,31.25,-305.664,15.625,-14.648
1573889734,36.621,28.32,256.348,28.809,160.645
1573889734,30.762,35.645,20.508,10.742,79.59
1573889734,21.973,41.992,-562.012,-1.953,-128.418
1573889734,30.273,38.086,-186.523,19.531,-78.613
1573889734,38.086,28.809,520.996,37.109,147.949
1573889734,35.156,24.414,192.383,22.461,103.516
1573889734,21.484,27.344,-524.902,2.441,-104.492
1573889734,19.043,29.297,-374.512,10.742,-88.379
1573889734,36.133,23.926,265.137,34.18,111.328
1573889734,36.621,25.391,156.25,31.738,143.066
1573889734,20.508,30.762,-718.262,6.836,-68.359
1573889734,16.113,30.762,-700.684,5.859,-118.652
1573889734,32.227,34.18,405.762,35.156,84.961
1573889734,40.039,35.156,641.602,38.086,187.5
1573889734,21.973,29.785,-141.113,8.789,16.602
1573889734,6.348,30.762,-379.883,0.977,-130.371
1573889734,15.137,36.133,308.594,25.879,-0.488
1573889734,30.273,34.18,658.691,46.387,179.199
1573889734,21.973,27.344,152.832,28.32,114.258
1573889734,3.418,23.926,-458.496,3.418,-85.938
1573889734,10.742,31.738,-101.562,18.555,-56.641
1573889734,31.25,35.645,539.062,42.48,153.809
1573889734,28.809,27.832,8.789,26.367,121.094
1573889734,11.23,24.902,-532.715,-0.977,-39.551
1573889734,16.113,35.156,-85.938,13.184,-50.293
1573889734,38.574,37.109,577.148,46.387,105.957
1573889734,46.875,30.273,522.949,43.945,171.875
1573889734,31.738,33.203,-72.266,13.672,-8.789
1573889734,19.043,26.855,-180.176,8.301,-104.98
1573889734,35.156,19.043,437.5,31.738,56.152
1573889734,52.246,28.809,614.746,39.062,188.965
1573889734,38.574,33.203,-95.215,10.254,63.965
1573889734,25.879,29.297,-471.191,0.977,-104.004
1573889734,31.25,25.391,-172.363,21.484,-59.57
1573889734,37.109,22.949,246.582,33.203,130.859
1573889734,30.762,24.902,194.824,24.414,97.168
1573889734,18.555,30.762,-306.152,5.859,-98.633
1573889734,27.344,34.668,-208.496,22.461,-92.773
1573889734,47.852,36.133,400.879,53.223,121.094
1573889734,46.387,36.133,410.645,40.527,138.672
1573889734,35.156,39.062,-280.273,16.602,-58.105
1573889734,39.551,36.133,-276.367,28.809,-101.562
1573889734,50.293,34.668,467.285,51.758,68.359
1573889734,48.828,40.039,473.145,49.805,154.785
1573889734,28.809,41.992,-397.949,21.973,1.465
1573889734,18.555,39.062,-654.297,11.719,-116.211
1573889734,31.25,34.18,230.957,35.645,26.855
1573889734,40.039,30.762,715.332,47.363,183.594
1573889734,26.855,30.762,-72.266,18.555,52.246
1573889734,15.137,32.715,-805.664,-1.465,-122.07
1573889734,35.645,38.574,-118.652,30.762,-51.27
1573889734,49.805,38.086,621.582,56.152,138.672
1573889734,32.715,34.668,94.238,28.32,86.914
1573889734,15.137,25.391,-574.707,1.465,-121.094
1573889734,12.207,18.066,-180.664,14.16,-111.328
1573889734,28.809,25.879,440.43,41.016,110.84
1573889734,27.832,27.832,-72.754,30.762,122.07
1573889734,12.695,27.344,-806.152,1.465,-57.129
1573889734,16.113,30.762,-334.473,13.184,-88.867
1573889734,31.738,26.855,439.941,46.387,65.918
1573889734,41.016,28.32,438.477,47.852,165.527
1573889734,27.832,36.133,-83.008,21.484,59.082
1573889734,18.555,30.762,-186.523,16.602,-59.082
1573889734,34.18,30.273,265.625,46.875,11.719
1573889734,43.457,32.227,464.844,55.176,148.438
1573889734,27.832,24.414,3.418,23.926,56.152
1573889734,15.137,25.391,-403.809,8.789,-82.52
1573889734,26.855,27.344,-157.227,30.273,-17.09
1573889734,43.457,25.879,190.43,47.852,118.652
1573889734,37.109,30.273,51.758,33.691,109.375
1573889734,17.578,32.227,-286.133,9.277,-35.645
1573889734,23.926,29.297,-212.891,21.484,-68.359
1573889734,46.387,26.367,90.82,43.945,89.355
1573889734,39.551,23.926,180.176,35.645,160.156
1573889734,19.043,20.508,-293.945,11.719,-62.012
1573889734,17.09,20.02,-517.09,11.719,-140.137
1573889734,35.156,26.367,143.066,43.945,82.52
1573889734,39.062,27.832,543.945,51.27,186.523
1573889734,21.973,29.297,-32.715,23.438,41.504
1573889734,13.672,29.297,-477.051,14.648,-95.703
1573889734,21.484,28.809,-86.426,40.527,-17.09
1573889734,35.645,28.32,362.305,57.617,139.648
1573889734,29.785,22.461,15.137,31.738,84.961
1573889734,14.648,23.438,-473.145,6.348,-71.777
1573889734,21.973,26.367,-140.137,23.926,-51.27
1573889734,41.016,31.738,607.91,51.758,169.434
1573889734,38.086,38.574,369.141,37.598,154.297
1573889734,18.066,39.551,-642.09,0.488,-77.637
1573889734,19.043,36.133,-490.723,9.277,-104.98
1573889734,35.645,32.715,471.68,41.016,95.703
1573889734,32.715,30.762,480.469,29.785,191.406
1573889734,17.09,22.949,-373.047,0.977,-3.418
1573889734,18.066,20.02,-631.348,4.883,-140.625
1573889734,36.621,35.645,115.234,38.574,9.277
1573889734,48.34,43.945,418.945,51.27,170.898
1573889734,33.203,29.297,-430.664,19.531,47.363
1573889734,19.531,22.461,-724.121,5.859,-136.719
1573889734,33.203,23.926,67.383,35.645,-54.199
1573889734,42.969,20.996,588.867,48.828,173.828
1573889734,32.227,24.902,172.852,23.926,123.047
1573889734,17.578,34.668,-303.711,3.906,-85.449
1573889734,24.414,41.992,4.395,23.926,-84.473
1573889734,41.504,35.645,544.434,50.293,126.953
1573889734,35.156,25.879,249.023,37.598,164.551
1573889734,22.461,25.391,-561.523,12.695,-72.266
1573889734,24.414,23.438,-422.363,21.484,-124.512
1573889734,41.016,25.391,74.707,50.781,51.758
1573889734,45.898,31.738,17.09,44.922,133.301
1573889734,28.32,37.598,-111.816,9.277,67.383
1573889734,25.879,45.41,-150.879,12.207,-34.668
1573889734,37.598,42.969,201.66,42.969,22.461
1573889734,37.598,26.855,478.027,44.922,152.344
1573889734,20.508,25.879,104.492,16.602,66.406
1573889734,14.16,33.691,-364.746,3.418,-92.285
1573889734,29.785,33.691,16.113,27.832,-34.668
1573889734,40.039,34.668,441.895,49.805,120.605
1573889734,35.645,41.992,42.969,32.715,96.191
1573889734,20.996,42.48,-494.141,8.301,-59.082
1573889734,26.367,35.645,-411.133,23.926,-67.383
1573889734,48.828,36.133,340.82,53.223,94.727
1573889734,47.852,37.109,471.191,43.457,128.906
1573889734,34.18,39.062,-163.086,16.602,-10.742
1573889734,35.645,45.898,-113.281,22.461,-62.5
1573889734,51.27,49.805,690.918,50.781,82.031
1573889734,53.711,42.969,699.219,51.27,162.598
1573889734,37.109,37.598,-90.332,26.367,10.254
1573889734,27.344,32.227,-204.102,15.625,-106.445
1573889734,39.062,29.785,396.484,36.621,27.832
1573889734,50.781,40.527,757.812,49.805,191.406
1573889734,42.48,38.574,5.371,27.832,51.758
1573889734,31.738,27.832,-629.883,12.695,-149.414
1573889734,42.48,30.273,173.34,40.527,-75.684
1573889734,66.406,38.574,856.934,73.242,142.09
1573889734,65.918,41.016,476.074,57.617,127.441
1573889734,44.922,49.316,-20.508,23.926,-34.18
1573889734,43.457,45.41,297.852,33.203,-43.945
1573889734,53.711,33.691,816.895,54.199,110.84
1573889734,52.734,39.551,635.254,42.48,153.32
1573889734,35.156,38.086,-42.48,13.184,-29.785
1573889734,21.484,28.809,-144.043,11.719,-94.727
1573889734,33.203,28.809,333.984,41.016,39.551
1573889734,39.551,29.785,260.254,42.48,133.789
1573889734,26.855,34.668,-208.008,17.09,-26.855
1573889734,16.113,39.551,-263.672,11.719,-188.477
1573889734,25.391,36.621,313.965,35.645,-30.762
1573889734,33.203,31.738,781.25,48.828,182.617
1573889734,20.996,29.297,323.242,24.414,59.082
1573889734,9.277,27.344,-234.375,7.812,-150.391
1573889734,16.602,20.02,90.332,27.344,-83.984
1573889734,34.668,19.531,669.434,48.34,131.348
1573889734,30.762,27.344,502.441,35.645,137.695
1573889734,12.207,29.785,-328.125,10.254,-75.195
1573889734,16.113,32.227,-306.641,16.113,-107.422
1573889734,34.18,34.668,435.547,41.992,82.52
1573889734,40.527,33.203,394.531,41.504,138.184
1573889734,36.133,34.18,-148.438,23.926,-28.32
1573889734,34.668,40.527,-601.562,28.32,-162.598
1573889734,42.48,43.945,-138.184,45.41,-25.391
1573889734,44.434,30.273,557.129,42.969,176.27
1573889734,33.691,20.996,-2.93,21.484,53.223
1573889734,21.484,23.926,-476.074,5.371,-100.586
1573889734,29.785,25.879,192.871,23.438,9.766
1573889734,49.316,27.832,690.43,46.875,162.598
1573889734,47.852,29.297,-12.695,33.203,74.707
1573889734,36.621,29.297,-721.68,14.16,-121.582
1573889734,41.504,37.109,-142.09,33.203,-62.012
1573889734,58.105,42.969,614.746,65.43,136.23
1573889734,53.711,40.527,220.703,51.758,134.766
1573889734,37.598,37.109,-796.387,21.973,-91.797
1573889734,33.691,30.762,-543.457,31.25,-134.766
1573889734,46.387,26.855,435.059,58.594,89.844
1573889734,45.898,26.855,408.691,56.641,187.5
1573889734,25.879,25.391,-310.547,25.391,12.207
1573889734,17.578,24.414,-408.691,14.648,-115.234
1573889734,30.762,26.855,237.305,42.48,20.508
1573889734,36.133,28.809,330.566,45.898,145.508
1573889734,16.602,29.785,-321.289,12.695,66.406
1573889734,12.695,31.738,-596.68,5.371,-96.68
1573889734,20.996,28.32,101.074,26.367,-14.648
1573889734,30.273,31.25,281.738,37.598,142.09
1573889734,29.297,28.809,-332.52,20.508,99.121
1573889734,14.16,25.879,-423.34,4.395,-29.785
1573889734,26.367,30.762,-153.32,24.902,-74.219
1573889734,43.457,29.785,364.258,47.363,115.234
1573889734,36.621,29.785,397.949,37.109,174.316
1573889734,23.926,28.32,-166.504,13.672,-19.043
1573889734,26.367,31.738,-264.16,20.02,-117.676
1573889734,48.34,38.086,199.219,51.27,50.781
1573889734,53.711,31.738,289.551,51.758,154.785
1573889734,36.621,25.879,-153.32,22.949,4.883
1573889734,30.273,29.297,-410.645,16.602,-112.793
1573889734,42.969,32.715,-159.18,40.039,-11.719
1573889734,47.363,29.785,314.453,46.875,169.434
1573889735,34.668,22.949,78.613,19.531,72.754
1573889735,18.066,27.344,-471.68,0.977,-140.137
1573889735,21.973,30.762,7.324,19.043,-41.016
1573889735,34.18,28.809,714.844,38.086,174.805
1573889735,25.879,24.414,332.52,22.461,148.438
1573889735,16.602,18.066,-354.492,-2.441,-43.457
1573889735,23.438,19.531,-270.02,10.742,-93.262
1573889735,31.738,22.461,327.637,32.227,96.68
1573889735,27.832,28.32,433.105,24.414,184.57
1573889735,16.602,28.32,-416.504,-2.93,-2.441
1573889735,12.695,28.32,-590.82,-3.906,-90.332
1573889735,28.809,37.598,449.219,31.25,74.707
1573889735,35.645,34.668,674.805,39.062,188.477
1573889735,21.484,28.809,-129.883,11.23,10.742
1573889735,14.648,30.273,-347.656,4.395,-112.305
1573889735,32.227,35.156,373.535,38.574,33.203
1573889735,46.387,27.832,691.406,56.152,189.453
1573889735,37.109,18.555,126.465,29.297,105.957
1573889735,23.438,25.391,-444.824,6.836,-70.312
1573889735,32.227,31.25,-144.043,30.273,-40.527
1573889735,51.27,26.367,305.664,53.711,125
1573889735,44.922,23.438,-14.16,40.527,117.188
1573889735,24.902,24.902,-416.992,13.672,-62.012
1573889735,25.879,29.297,-146.973,20.996,-108.887
1573889735,43.945,31.738,331.055,50.781,62.988
1573889735,40.527,25.879,84.961,35.645,156.738
1573889735,21.484,25.391,-376.465,5.371,-19.043
1573889735,18.555,29.785,-328.125,6.348,-134.277
1573889735,32.227,34.18,313.965,33.203,56.641
1573889735,37.109,31.738,576.172,44.434,204.59
1573889735,18.555,22.949,-124.023,8.789,57.617
1573889735,1.953,21.484,-605.469,-9.766,-117.676
1573889735,14.648,26.367,-78.125,17.578,-24.414
1573889735,28.32,28.32,375,32.227,164.062
1573889735,16.113,29.297,114.746,8.301,119.629
1573889735,2.441,27.832,-312.012,-8.789,-69.824
1573889735,10.742,28.32,-379.395,9.766,-83.984
1573889735,27.344,27.832,83.496,38.086,99.121
1573889735,24.902,23.926,300.293,33.203,147.949
1573889735,13.184,25.879,-338.379,6.348,-45.898
1573889735,19.043,25.879,-437.5,11.719,-101.562
1573889735,35.156,27.832,334.473,40.039,77.148
1573889735,38.086,27.344,415.039,36.621,166.992
1573889735,23.926,24.414,-437.988,10.742,-15.137
1573889735,17.578,24.414,-869.141,6.348,-161.133
1573889735,30.762,22.949,-47.363,29.785,-4.395
1573889735,41.016,24.414,656.25,46.387,187.5
1573889735,35.645,27.344,41.016,26.855,87.402
1573889735,24.414,26.367,-480.469,11.23,-70.312
1573889735,30.273,28.32,141.113,31.25,-10.742
1573889735,50.293,35.156,769.531,55.176,181.152
1573889735,46.387,36.133,281.25,35.156,130.859
1573889735,30.762,36.621,-401.367,10.742,-85.449
1573889735,35.156,36.621,-144.043,25.879,-91.309
1573889735,47.363,30.273,339.844,44.922,87.891
1573889735,45.898,23.926,-41.992,31.25,127.441
1573889735,24.414,22.949,-737.793,-3.418,-41.992
1573889735,23.926,25.879,-313.965,6.348,-69.336
1573889735,48.828,29.297,473.633,46.875,73.242
1573889735,50.293,27.832,486.328,43.457,168.945
1573889735,38.086,25.879,-131.348,18.555,16.602
1573889735,30.273,24.414,-315.43,10.254,-126.953
1573889735,40.039,24.414,109.375,31.738,-7.812
1573889735,46.875,24.414,375.977,43.945,160.645
1573889735,30.762,20.996,17.09,18.555,77.637
1573889735,18.066,23.926,-352.051,3.418,-99.121
1573889735,25.391,29.297,-97.656,23.438,-44.434
1573889735,37.109,28.32,82.031,42.969,121.094
1573889735,30.762,24.902,-13.672,24.414,132.324
1573889735,21.973,25.391,-251.465,8.301,-22.949
1573889735,33.203,29.785,-171.875,30.762,-78.125
1573889735,50.293,33.691,378.906,57.617,90.332
1573889735,44.922,30.762,453.125,47.852,167.48
1573889735,28.809,30.762,-177.246,21.484,-17.09
1573889735,24.902,31.25,-345.703,21.973,-114.258
1573889735,36.621,27.832,308.105,41.504,58.594
1573889735,39.551,23.926,539.551,37.598,196.777
1573889735,22.949,20.02,-174.316,9.277,37.109
1573889735,17.578,21.484,-599.609,-3.418,-116.699
1573889735,29.785,25.391,-39.062,22.461,20.508
1573889735,37.598,28.32,557.129,39.551,195.312
1573889735,26.367,29.785,200.195,17.09,110.84
1573889735,11.719,26.855,-615.234,-2.93,-79.102
1573889735,20.996,29.297,-324.707,13.184,-54.688
1573889735,38.574,32.227,614.746,41.016,143.555
1573889735,37.598,25.391,373.535,31.25,144.043
1573889735,24.414,22.949,-350.098,6.348,-45.898
1573889735,25.391,29.785,-193.359,15.137,-101.074
1573889735,43.457,26.855,548.34,41.992,92.773
1573889735,50.781,20.996,482.91,41.016,168.945
1573889735,35.645,21.973,-337.891,7.324,13.672
1573889735,32.227,26.855,-537.598,3.418,-83.984
1573889735,46.387,32.227,229.98,31.25,53.711
1573889735,53.711,31.738,496.582,36.621,179.199
1573889735,38.574,29.297,-415.039,9.766,22.949
1573889735,23.438,27.832,-634.766,-2.93,-128.906
1573889735,30.273,25.879,143.555,19.531,-41.992
1573889735,40.527,22.949,615.234,37.598,172.852
1573889735,34.668,21.973,177.734,23.438,121.094
1573889735,20.508,20.508,-329.102,1.465,-90.82
1573889735,26.367,20.508,-24.414,17.578,-88.867
1573889735,42.969,29.785,521.973,44.922,116.699
1573889735,39.551,34.668,240.234,33.691,150.879
1573889735,27.344,33.691,-456.055,8.789,-53.223
1573889735,21.484,29.785,-279.785,10.254,-141.113
1573889735,28.32,26.855,209.473,30.273,35.156
1573889735,30.762,28.32,209.473,28.32,147.461
1573889735,18.555,26.367,-57.129,3.906,20.02
1573889735,19.043,22.949,-166.992,4.395,-103.516
1573889735,37.109,27.344,413.574,28.32,15.625
1573889735,45.898,30.273,800.781,37.598,174.805
1573889735,38.574,28.32,338.867,18.555,49.316
1573889735,30.762,27.832,-98.145,3.906,-106.934
1573889735,40.527,29.297,356.934,28.809,-16.602
1573889735,53.711,28.32,792.969,48.828,157.227
1573889735,44.922,23.438,411.133,29.785,115.723
1573889735,30.273,22.949,-171.387,10.742,-80.078
1573889735,37.598,26.855,-221.68,27.832,-113.281
1573889735,51.27,29.297,590.332,54.688,96.191
1573889735,48.34,32.227,820.801,45.898,175.781
1573889735,28.809,29.785,-1.465,18.066,-32.227
1573889735,23.438,30.762,-46.387,18.555,-110.352
1573889735,38.086,35.645,737.305,43.457,47.852
1573889735,42.969,29.297,909.18,46.875,172.852
1573889735,35.156,29.785,180.176,21.484,11.23
1573889735,29.297,36.133,-106.445,15.137,-128.418
1573889735,36.133,29.297,458.984,40.527,28.32
1573889735,51.758,27.832,842.773,55.176,207.031
1573889735,46.387,32.227,113.281,32.715,91.309
1573889735,28.32,32.227,-585.449,5.371,-116.699
1573889735,29.785,34.668,176.27,20.508,-60.059
1573889735,39.551,31.25,841.797,39.062,145.02
1573889735,34.668,28.809,419.434,19.531,127.93
1573889735,21.973,31.738,-207.52,-3.418,-93.75
1573889735,24.902,33.203,-77.148,13.672,-134.277
1573889735,41.016,32.227,550.781,46.387,101.562
1573889735,46.387,27.344,577.148,45.898,187.988
1573889735,34.668,26.367,-38.086,20.508,1.465
1573889735,30.273,31.738,-208.008,19.043,-89.844
1573889735,47.363,36.133,243.164,50.781,30.273
1573889735,55.664,36.621,131.836,56.641,121.582
1573889735,41.016,34.668,-343.75,28.32,13.184
1573889735,29.785,31.738,-312.988,17.578,-122.559
1573889735,40.527,37.109,146.484,38.574,-29.785
1573889735,50.293,36.621,543.457,55.176,163.086
1573889735,32.715,29.785,146.484,28.809,70.312
1573889735,14.648,32.715,-349.609,5.859,-105.957
1573889735,20.996,31.25,0,27.344,-38.086
1573889735,34.668,26.367,620.605,49.316,173.828
1573889735,24.414,25.391,317.871,30.762,151.855
1573889735,1.953,23.438,-430.664,-0.488,-36.133
1573889735,12.695,27.832,-631.836,9.766,-117.676
1573889735,30.762,32.227,-157.227,38.086,11.719
1573889735,34.18,35.156,299.316,39.062,152.832
1573889735,23.926,34.668,-170.41,14.648,18.555
1573889735,15.625,28.809,-399.414,6.348,-82.031
1573889735,29.297,29.297,239.258,32.227,46.387
1573889735,38.574,31.738,595.215,43.945,192.383
1573889735,36.621,32.227,-40.039,26.367,66.406
1573889735,36.621,33.691,-605.469,21.484,-147.461
1573889735,48.828,37.598,-61.523,42.969,-68.848
1573889735,61.035,35.156,483.887,56.152,147.461
1573889735,53.711,27.832,-106.445,34.18,109.375
1573889735,41.016,28.809,-889.16,9.766,-93.75
1573889735,47.363,34.18,-424.316,26.367,-93.262
1573889735,59.082,32.715,476.562,49.316,112.305
1573889735,51.758,29.297,162.598,29.785,112.305
1573889735,35.645,30.273,-754.883,-4.395,-57.129
1573889735,32.715,34.668,-457.031,0,-88.867
1573889735,40.527,30.273,444.336,31.25,63.477
1573889735,41.016,24.414,441.406,32.227,166.504
1573889735,22.461,26.367,-243.652,2.93,-3.906
1573889735,13.184,27.832,-321.289,-0.977,-122.07
1573889735,28.809,30.273,345.703,30.273,26.367
1573889735,38.574,30.762,502.93,42.48,170.898
1573889735,24.902,27.344,-180.664,15.137,62.012
1573889735,14.16,31.25,-522.949,1.953,-131.348
1573889735,31.738,34.18,156.25,34.668,-37.109
1573889735,47.852,29.785,395.508,53.223,151.855
1573889735,37.109,28.32,-192.383,31.25,91.309
1573889735,25.879,33.203,-381.348,20.02,-68.848
1573889735,38.574,40.039,-58.105,37.598,-81.543
1573889735,55.664,41.504,516.113,59.57,122.559
1573889735,53.223,36.133,558.594,50.781,208.984
1573889735,35.645,27.832,-47.852,26.367,-2.441
1573889735,36.133,28.809,-243.652,31.25,-134.277
1573889735,55.664,27.832,258.301,57.129,57.129
1573889735,60.547,23.438,372.559,54.688,196.777
1573889735,40.527,21.973,-124.023,21.973,46.387
1573889735,32.227,25.391,-426.27,14.648,-117.188
1573889735,47.363,31.738,-198.73,39.062,-7.324
1573889735,54.688,32.227,349.121,48.34,188.965
1573889735,41.504,27.832,70.312,20.02,95.703
1573889735,29.297,31.738,-621.094,1.953,-145.996
1573889735,33.691,36.621,-153.32,21.484,-90.82
1573889735,41.016,40.527,634.766,39.062,153.809
1573889735,33.203,38.086,418.945,22.949,154.297
1573889735,13.184,31.738,-302.734,-6.836,-48.828
1573889735,10.254,31.738,-282.227,2.93,-78.613
1573889735,19.531,30.762,332.52,28.32,116.211
1573889735,16.113,26.855,294.922,20.508,155.273
1573889735,4.395,22.949,-487.793,-5.859,-39.551
1573889735,3.906,23.926,-498.535,-2.93,-86.914
1573889735,20.02,23.926,378.906,27.344,76.172
1573889735,27.832,24.902,623.535,32.715,194.824
1573889735,14.648,21.973,-337.402,8.789,52.246
1573889735,8.789,20.996,-850.098,2.93,-109.863
1573889735,20.508,26.855,-16.113,32.715,1.953
1573889735,29.785,28.32,506.348,49.805,183.594
1573889735,22.461,26.367,28.32,27.344,104.004
1573889735,11.719,27.344,-548.828,8.301,-75.195
1573889735,19.043,27.344,-188.965,20.996,-48.34
1573889735,31.738,24.902,519.531,41.992,169.922
1573889735,30.273,26.855,23.438,30.762,152.832
1573889735,18.555,28.32,-545.898,7.812,-58.105
1573889735,19.043,33.203,-210.938,15.137,-82.52
1573889735,36.621,34.18,315.43,41.992,76.66
1573889735,40.039,27.832,317.871,40.527,138.672
1573889735,24.902,25.879,-165.039,10.742,5.371
1573889735,17.09,23.926,-278.809,7.324,-104.004
1573889735,28.809,25.879,217.285,30.762,1.465
1573889735,41.504,27.344,397.949,37.109,145.02
1573889735,25.879,21.973,-236.816,10.254,42.48
1573889735,11.719,22.949,-660.156,-6.836,-119.141
1573889735,22.461,25.879,-304.199,15.625,-40.039
1573889735,33.691,28.809,144.531,32.227,140.625
1573889735,25.391,30.273,98.633,14.16,99.609
1573889735,12.695,30.762,-329.59,-2.93,-69.824
1573889735,19.043,29.785,-152.344,11.23,-77.637
1573889735,29.297,31.738,476.074,36.133,99.121
1573889735,31.738,35.645,395.508,33.203,133.301
1573889735,24.902,33.203,-361.328,12.207,-79.102
1573889735,22.949,32.715,-417.48,15.625,-147.949
1573889735,44.922,33.691,394.043,46.875,65.43
1573889735,53.711,32.227,460.938,50.781,175.293
1573889735,39.551,32.227,-386.23,25.391,18.066
1573889735,44.434,28.32,-770.02,32.715,-78.125
1573889735,62.5,27.832,49.805,64.941,46.875
1573889735,57.129,37.109,619.141,58.105,163.086
1573889735,30.762,35.156,-9.766,13.672,78.125
1573889735,24.414,36.133,-515.137,0,-92.773
1573889735,38.574,40.527,51.758,21.973,-48.34
1573889735,47.363,36.621,675.781,41.504,164.062
1573889735,42.48,32.227,196.289,27.344,105.469
1573889735,22.949,26.855,-500.977,0.977,-105.469
1573889735,20.02,29.297,-203.125,14.16,-100.586
1573889735,32.227,28.809,376.953,40.039,92.285
1573889735,24.902,30.273,-43.457,26.855,128.418
1573889735,10.254,29.297,-842.773,-3.906,-75.195
1573889735,8.301,30.762,-440.918,1.465,-119.629
1573889735,22.461,33.691,328.613,31.738,62.5
1573889735,34.668,35.156,316.895,35.645,162.598
1573889735,23.438,34.18,-216.309,7.324,17.578
1573889735,19.531,31.738,-346.191,0.977,-109.375
1573889735,29.785,33.203,193.848,25.879,1.953
1573889735,36.133,32.227,457.031,37.109,153.809
1573889736,25.391,33.691,47.852,11.23,89.844
1573889736,11.719,35.156,-310.059,-9.277,-63.477
1573889736,26.367,36.621,-56.152,16.113,-24.414
1573889736,44.922,37.109,125.488,38.574,127.93
1573889736,40.527,35.156,-34.18,26.855,115.723
1573889736,27.832,35.156,-304.199,12.695,-51.758
1573889736,30.273,37.598,-277.344,26.367,-112.793
1573889736,47.852,41.016,337.891,53.711,62.988
1573889736,54.688,41.504,418.945,52.246,157.715
1573889736,41.016,40.039,-273.438,24.414,-15.625
1573889736,34.18,41.016,-389.648,21.484,-127.441
1573889736,45.898,41.016,310.547,43.457,47.363
1573889736,48.34,36.621,639.16,47.363,194.824
1573889736,34.668,34.668,-23.438,20.508,51.758
1573889736,23.926,35.156,-707.52,3.418,-91.309
1573889736,28.809,33.691,-311.523,19.043,-21.484
1573889736,39.062,33.203,424.316,33.203,131.836
1573889736,31.25,32.227,59.57,12.695,59.082
1573889736,12.695,32.227,-616.211,-11.23,-158.691
1573889736,15.137,31.738,-252.441,1.953,-125.488
1573889736,34.18,32.715,508.301,29.785,98.145
1573889736,34.18,35.156,362.793,20.02,158.203
1573889736,23.926,37.109,-314.941,-5.859,-18.066
1573889736,34.18,38.574,-294.922,11.719,-96.191
1573889736,47.363,36.621,396.484,44.922,70.312
1573889736,48.34,34.668,425.293,44.434,147.949
1573889736,36.133,35.156,-373.047,20.996,-9.277
1573889736,25.879,37.598,-567.871,15.137,-118.164
1573889736,38.574,41.016,281.25,41.504,45.41
1573889736,54.199,41.016,625,58.594,186.035
1573889736,43.457,38.574,-3.906,32.227,63.477
1573889736,29.297,40.039,-240.234,14.648,-75.684
1573889736,38.574,43.457,343.262,38.086,-18.066
1573889736,56.152,47.363,633.789,57.617,145.508
1573889736,42.48,45.898,-53.223,26.855,87.891
1573889736,20.996,39.551,-395.02,-7.324,-90.332
1573889736,27.344,40.039,164.551,10.254,-59.57
1573889736,34.18,44.434,732.91,29.785,135.254
1573889736,28.809,49.316,426.758,14.648,139.648
1573889736,17.578,50.293,-214.355,-5.371,-28.32
1573889736,12.695,47.852,-79.102,-2.441,-62.5
1573889736,23.438,49.805,387.695,19.043,69.824
1573889736,25.391,50.293,407.715,21.484,167.48
1573889736,14.16,50.781,130.859,-1.953,27.832
1573889736,2.441,51.758,66.895,-14.648,-83.496
1573889736,14.16,55.664,439.941,8.301,2.93
1573889736,27.344,59.57,740.234,21.484,141.113
1573889736,16.113,58.105,369.141,0.977,56.641
1573889736,11.719,58.105,-120.117,-5.371,-108.398
1573889736,22.949,58.105,296.875,20.508,-32.227
1573889736,39.062,53.223,774.902,42.48,165.527
1573889736,32.715,50.781,433.594,23.926,147.949
1573889736,16.602,55.664,-238.77,-5.371,-67.383
1573889736,24.414,57.129,-349.121,9.277,-99.609
1573889736,42.969,57.129,453.613,44.434,103.027
1573889736,47.852,58.105,637.695,48.34,136.719
1573889736,28.809,60.059,-137.207,15.137,-43.457
1573889736,26.367,59.082,-149.902,15.137,-91.797
1573889736,44.434,54.199,632.812,49.316,54.688
1573889736,44.922,52.734,749.512,48.828,149.414
1573889736,23.926,51.758,51.758,6.348,38.086
1573889736,10.742,53.223,-225.586,-12.207,-86.426
1573889736,23.926,51.758,202.148,17.09,-5.859
1573889736,32.715,49.805,593.262,29.297,174.316
1573889736,20.996,45.898,-44.922,2.93,91.309
1573889736,-3.906,37.109,-756.348,-26.855,-93.262
1573889736,-4.883,34.18,-94.727,-11.23,-45.898
1573889736,13.184,38.086,438.965,17.09,127.441
1573889736,12.207,39.062,108.887,6.348,120.117
1573889736,3.906,41.504,-350.586,-12.207,-55.664
1573889736,7.324,43.945,-78.613,3.418,-83.008
1573889736,19.043,41.504,474.609,32.227,75.195
1573889736,19.043,37.598,360.84,26.367,154.297
1573889736,9.766,40.039,-187.988,4.883,-5.371
1573889736,17.09,45.41,-365.234,13.184,-117.676
1573889736,35.156,49.805,92.773,38.086,26.855
1573889736,43.457,52.246,44.922,41.504,121.094
1573889736,34.668,51.758,-380.859,20.996,18.555
1573889736,34.668,55.664,-373.535,15.137,-118.164
1573889736,49.316,55.664,82.52,38.574,-31.25
1573889736,58.105,51.758,520.996,56.152,175.293
1573889736,46.387,49.805,139.16,36.621,129.395
1573889736,29.785,46.387,-359.863,14.648,-34.668
1573889736,36.133,44.434,-100.586,30.273,-47.852
1573889736,53.223,44.922,400.391,55.664,112.793
1573889736,45.898,42.48,328.125,40.039,163.574
1573889736,18.555,36.621,-390.625,7.812,-15.137
1573889736,18.555,32.227,-608.887,9.766,-105.957
1573889736,39.062,34.18,130.371,36.621,73.242
1573889736,39.062,32.715,467.773,39.062,190.918
1573889736,20.508,31.738,-158.203,10.254,-13.672
1573889736,12.695,35.156,-727.051,-1.953,-178.223
1573889736,24.414,41.016,-212.402,19.043,-14.16
1573889736,31.738,44.922,565.918,31.738,195.312
1573889736,18.555,37.109,83.984,5.859,77.148
1573889736,9.766,35.645,-584.961,-10.254,-139.648
1573889736,17.578,38.086,-119.141,13.184,-62.012
1573889736,28.32,36.133,681.641,25.879,179.199
1573889736,21.484,31.25,238.77,3.418,143.555
1573889736,9.766,26.855,-758.789,-16.113,-83.984
1573889736,10.254,31.25,-378.418,-1.953,-98.145
1573889736,22.461,34.18,653.32,26.855,130.371
1573889736,25.879,31.25,489.746,21.484,179.688
1573889736,12.207,30.273,-292.969,-2.93,-45.898
1573889736,6.836,29.297,-178.223,3.906,-125.488
1573889736,17.578,25.879,570.801,34.18,73.242
1573889736,23.926,20.508,584.473,42.48,172.363
1573889736,15.137,20.02,-107.422,18.066,17.09
1573889736,8.301,23.438,-235.352,12.207,-93.75
1573889736,20.508,23.438,362.793,38.086,9.766
1573889736,40.039,26.855,491.211,52.246,146.973
1573889736,39.551,29.785,-254.395,35.645,37.598
1573889736,29.297,29.785,-577.148,18.555,-133.789
1573889736,35.645,33.691,113.281,37.598,-45.898
1573889736,47.363,35.645,435.059,54.199,133.301
1573889736,43.945,37.598,-21.973,32.715,87.891
1573889736,30.273,39.551,-358.398,9.277,-97.168
1573889736,34.668,39.062,-140.625,23.438,-117.676
1573889736,44.922,37.598,409.18,45.898,89.844
1573889736,36.133,33.691,398.438,30.273,159.668
1573889736,20.996,32.715,-154.785,2.93,-20.508
1573889736,21.484,32.715,-277.344,6.836,-98.633
1573889736,36.133,35.156,91.797,32.715,62.012
1573889736,39.551,40.039,306.152,33.691,180.664
1573889736,22.461,33.691,-106.934,4.883,53.711
1573889736,11.719,26.367,-609.375,-5.371,-120.117
1573889736,19.531,26.367,-121.094,16.602,-22.461
1573889736,28.809,30.762,561.035,36.133,181.641
1573889736,20.02,32.715,201.172,17.09,87.402
1573889736,5.371,29.297,-533.691,-5.859,-104.98
1573889736,9.277,29.785,-358.398,9.766,-46.387
1573889736,28.32,34.18,445.312,35.156,138.184
1573889736,27.832,36.621,345.703,28.32,146.484
1573889736,10.254,28.32,-316.895,4.883,-25.879
1573889736,12.207,19.043,-415.039,14.648,-115.234
1573889736,26.367,24.902,180.664,41.992,75.195
1573889736,23.926,30.273,392.578,28.32,176.27
1573889736,10.254,25.879,-497.559,-6.348,-28.809
1573889736,10.742,24.414,-785.645,0.488,-119.141
1573889736,21.484,21.484,184.57,34.668,61.035
1573889736,24.902,20.996,521.484,36.621,191.895
1573889736,10.254,21.973,-104.004,3.418,63.477
1573889736,-1.465,19.043,-366.699,-8.301,-67.383
1573889736,12.207,23.926,246.094,15.625,13.672
1573889736,33.203,30.273,656.25,37.598,186.035
1573889736,31.738,27.832,151.367,26.367,129.883
1573889736,19.043,27.344,-458.984,7.324,-53.711
