timestamps,TP9,AF7,AF8,TP10,Right AUX
1574211221.389,18.066,32.227,-15.137,7.812,87.402
1574211221.393,-0.488,30.762,-435.059,-4.883,-228.516
1574211221.397,19.043,19.531,-0.488,7.324,-123.047
1574211221.401,39.551,13.184,480.957,22.461,264.160
1574211221.405,29.785,21.973,138.184,14.648,192.871
1574211221.409,7.324,32.227,-427.734,-4.395,-144.531
1574211221.413,16.602,29.297,-232.910,6.348,-197.754
1574211221.416,47.363,22.461,416.504,29.297,180.176
1574211221.420,49.316,25.391,313.965,31.738,274.414
1574211221.424,18.555,35.156,-470.215,7.812,-115.234
1574211221.428,2.930,29.297,-386.719,0.977,-234.863
1574211221.432,35.645,17.578,405.273,29.297,85.449
1574211221.436,53.711,19.043,418.457,39.551,327.148
1574211221.440,25.879,23.926,-208.496,22.461,0.000
1574211221.444,12.695,26.367,-354.492,15.137,-249.512
1574211221.448,43.457,22.949,193.359,39.551,-14.648
1574211221.452,65.918,21.973,457.031,60.059,337.402
1574211221.456,45.410,34.668,-72.266,41.992,103.027
1574211221.459,24.902,40.527,-464.355,22.461,-264.648
1574211221.463,39.551,35.156,12.207,33.203,-113.281
1574211221.467,58.594,36.133,455.078,51.758,260.742
1574211221.471,55.664,42.969,155.273,45.410,181.641
1574211221.475,24.902,44.922,-282.227,19.531,-130.859
1574211221.479,13.672,35.645,-75.684,13.672,-112.793
1574211221.483,49.805,28.809,319.824,40.039,193.848
1574211221.487,52.734,39.551,208.496,39.551,259.766
1574211221.491,22.461,44.922,-175.781,12.207,-30.762
1574211221.495,11.230,36.621,-286.133,5.371,-174.805
1574211221.498,32.227,26.855,255.859,24.902,75.684
1574211221.502,50.781,29.297,455.078,35.156,339.844
1574211221.506,23.926,41.504,-128.418,12.207,21.973
1574211221.510,3.906,45.898,-419.434,0.977,-284.180
1574211221.514,20.996,37.598,2.441,10.742,-103.516
1574211221.518,29.297,28.320,455.566,19.531,283.691
1574211221.522,11.719,29.785,156.738,15.625,113.770
1574211221.526,-8.789,33.691,-392.090,-6.348,-244.629
1574211221.530,-0.977,24.414,-100.586,-0.488,-177.246
1574211221.534,31.250,14.160,496.094,29.785,223.145
1574211221.538,31.250,22.949,263.672,26.367,203.613
1574211221.541,0.000,33.203,-374.512,3.418,-213.379
1574211221.545,-2.441,25.391,-249.023,1.953,-264.648
1574211221.549,24.902,19.043,328.613,20.508,102.051
1574211221.553,31.738,21.973,336.426,23.438,268.555
1574211221.557,8.301,24.414,-291.504,-1.953,-67.871
1574211221.561,-8.789,24.414,-393.555,-11.719,-248.535
1574211221.565,17.578,18.066,315.430,18.555,21.973
1574211221.569,40.527,14.648,540.039,41.016,319.336
1574211221.573,17.578,26.855,-116.211,25.879,51.758
1574211221.577,-3.906,31.250,-425.293,5.859,-203.613
1574211221.581,18.066,19.043,155.273,25.879,-49.316
1574211221.584,44.922,17.578,545.898,53.223,318.359
1574211221.588,31.250,30.273,139.160,48.340,195.801
1574211221.592,8.301,34.180,-354.980,29.785,-173.828
1574211221.596,25.391,26.367,-121.582,38.574,-136.719
1574211221.600,58.594,22.461,413.574,67.871,226.074
1574211221.604,58.105,30.762,167.969,63.965,247.559
1574211221.608,24.414,34.668,-381.836,35.645,-83.008
1574211221.612,19.531,33.691,-167.969,34.668,-212.891
1574211221.616,48.828,33.203,351.562,58.594,72.266
1574211221.620,59.570,29.297,363.281,69.824,280.273
1574211221.623,40.527,34.180,-163.086,49.805,-63.965
1574211221.627,29.785,40.039,-309.082,35.156,-270.508
1574211221.631,54.199,32.715,166.992,55.176,-23.438
1574211221.635,66.895,33.203,427.246,65.918,296.387
1574211221.639,39.551,43.945,14.160,41.992,82.520
1574211221.643,21.484,48.828,-392.578,26.855,-220.215
1574211221.647,41.016,44.434,-84.961,40.527,-121.094
1574211221.651,56.641,36.621,380.371,48.340,255.859
1574211221.655,39.062,37.109,225.586,34.180,185.547
1574211221.659,9.766,45.410,-274.414,10.742,-184.570
1574211221.663,10.254,34.180,-137.207,9.766,-159.668
1574211221.666,35.156,22.461,420.898,29.785,222.168
1574211221.670,28.320,27.832,368.652,28.320,301.758
1574211221.674,1.953,35.156,-275.879,5.859,-117.676
1574211221.678,1.953,35.156,-329.590,0.488,-275.879
1574211221.682,29.785,25.879,303.711,21.973,80.078
1574211221.686,41.016,23.438,435.059,32.227,314.453
1574211221.690,13.672,39.062,-182.617,12.695,20.508
1574211221.694,0.000,39.062,-547.852,-1.953,-246.094
1574211221.698,28.320,23.926,57.129,9.766,-39.062
1574211221.702,41.016,23.438,562.012,29.785,323.242
1574211221.706,23.926,33.691,42.480,22.461,120.605
1574211221.709,0.977,38.086,-428.223,1.953,-209.473
1574211221.713,3.906,21.973,-0.977,10.742,-131.348
1574211221.717,35.156,11.719,495.117,32.227,260.742
1574211221.721,38.086,20.996,151.855,27.832,243.164
1574211221.725,6.348,27.832,-390.625,9.277,-155.762
1574211221.729,1.953,30.762,-190.430,6.348,-256.836
1574211221.733,37.598,27.832,411.133,31.738,158.203
1574211221.737,53.223,28.320,230.957,48.340,277.832
1574211221.741,22.461,40.039,-363.770,23.438,-107.422
1574211221.745,5.371,41.016,-243.164,13.672,-239.258
1574211221.748,46.387,32.227,344.727,38.086,63.965
1574211221.752,70.312,32.227,434.570,51.758,348.145
1574211221.756,36.621,37.598,-120.605,33.691,24.902
1574211221.760,14.648,35.156,-349.609,20.020,-261.719
1574211221.764,44.434,24.902,131.348,42.480,-52.246
1574211221.768,74.707,23.926,487.793,61.035,293.457
1574211221.772,60.059,36.133,103.516,51.758,137.207
1574211221.776,29.785,43.945,-358.398,36.621,-193.359
1574211221.780,34.180,34.180,-39.062,41.992,-125.488
1574211221.784,69.336,29.297,460.449,62.988,258.789
1574211221.788,70.312,41.504,196.289,59.570,223.633
1574211221.791,40.039,44.922,-278.320,36.621,-151.855
1574211221.795,38.574,41.016,-157.715,41.504,-217.773
1574211221.799,64.941,34.180,260.254,65.918,100.098
1574211221.803,65.918,28.809,355.957,59.082,286.621
1574211221.807,37.109,39.062,-61.523,37.109,-31.250
1574211221.811,25.391,37.109,-294.922,34.668,-226.562
1574211221.815,49.316,20.996,219.238,50.781,21.973
1574211221.819,66.406,22.949,547.852,59.570,344.727
1574211221.823,40.039,38.574,42.969,36.133,92.773
1574211221.827,5.859,44.922,-379.883,8.789,-237.793
1574211221.831,28.320,37.598,5.371,26.855,-97.656
1574211221.834,56.152,32.715,458.984,49.316,277.832
1574211221.838,38.086,37.598,182.617,31.250,185.059
1574211221.842,12.695,42.480,-387.695,8.789,-207.031
1574211221.846,15.625,34.668,-185.059,15.137,-236.328
1574211221.850,39.062,24.414,546.875,39.062,198.730
1574211221.854,34.668,29.297,404.297,37.598,250.000
1574211221.858,2.930,34.668,-265.137,8.789,-169.922
1574211221.862,7.812,31.250,-216.797,3.906,-276.855
1574211221.866,33.203,21.484,430.664,28.809,115.234
1574211221.870,39.062,22.461,462.891,39.551,338.379
1574211221.873,13.672,30.762,-172.852,20.020,-35.156
1574211221.877,-2.441,31.738,-352.051,9.766,-239.746
1574211221.881,30.273,21.973,184.570,29.785,1.465
1574211221.885,50.293,12.207,497.559,51.270,325.684
1574211221.889,26.367,20.996,-62.012,41.016,124.023
1574211221.893,1.953,32.715,-406.250,22.461,-206.055
1574211221.897,20.996,28.320,108.398,36.621,-145.996
1574211221.901,56.152,21.973,503.906,61.523,259.766
1574211221.905,52.734,32.715,169.434,60.059,212.402
1574211221.909,23.926,41.992,-321.777,37.598,-202.148
1574211221.913,34.180,32.715,-110.840,38.574,-224.121
1574211221.916,67.871,22.461,406.250,61.035,171.387
1574211221.920,70.312,28.320,318.359,68.359,282.715
1574211221.924,35.156,36.621,-274.414,47.363,-71.777
1574211221.928,24.902,35.645,-269.043,36.133,-201.660
1574211221.932,67.383,31.738,269.043,55.664,88.379
1574211221.936,77.637,30.762,354.004,60.547,285.645
1574211221.940,48.828,37.598,-63.477,40.039,-13.184
1574211221.944,25.879,33.203,-279.785,24.414,-226.562
1574211221.948,45.410,30.762,46.875,36.621,-57.617
1574211221.952,61.035,34.668,382.812,48.828,277.832
1574211221.956,40.527,37.598,140.625,34.668,142.090
1574211221.959,17.090,43.945,-339.355,18.555,-219.727
1574211221.963,25.879,34.180,-43.457,24.414,-158.691
1574211221.967,57.617,26.855,494.141,41.504,276.367
1574211221.971,53.223,41.504,166.504,40.039,196.289
1574211221.975,24.902,45.410,-378.418,16.602,-150.391
1574211221.979,23.926,34.668,-273.926,11.230,-164.062
1574211221.983,45.410,27.832,308.594,27.832,119.629
1574211221.987,37.109,24.902,441.895,29.785,284.180
1574211221.991,9.766,35.156,-211.426,12.207,-70.801
1574211221.995,7.812,37.109,-393.555,4.395,-249.512
1574211221.998,37.109,21.973,293.457,26.367,70.801
1574211222.002,53.711,14.160,476.562,45.410,329.590
1574211222.006,21.484,22.461,-175.781,21.484,7.324
1574211222.010,-1.953,35.156,-389.648,5.859,-227.051
1574211222.014,23.926,33.203,137.207,28.809,-61.523
1574211222.018,38.574,23.926,472.656,40.039,290.527
1574211222.022,18.066,28.809,9.766,21.973,165.039
1574211222.026,-14.160,34.668,-490.723,-4.883,-204.102
1574211222.030,-7.324,25.879,-39.551,2.441,-156.738
1574211222.034,32.715,18.555,504.883,31.738,222.168
1574211222.038,32.227,22.949,238.770,35.156,244.141
1574211222.041,14.648,32.715,-326.660,24.902,-150.879
1574211222.045,20.020,27.832,-224.609,23.438,-274.902
1574211222.049,45.410,19.043,355.469,34.668,101.562
1574211222.053,55.664,30.762,370.117,38.086,299.316
1574211222.057,20.996,41.992,-238.770,15.137,-71.777
1574211222.061,13.672,44.922,-396.973,6.348,-295.410
1574211222.065,48.340,43.457,149.414,27.832,-35.156
1574211222.069,59.570,44.922,331.543,31.250,310.059
1574211222.073,33.691,53.711,-97.656,2.930,57.617
1574211222.077,9.277,51.270,-311.035,-11.719,-248.047
1574211222.081,31.738,46.387,42.480,6.836,-103.516
1574211222.084,54.688,51.758,429.688,13.184,281.250
1574211222.088,38.086,60.059,134.277,-2.930,160.645
1574211222.092,12.207,57.129,-369.629,-16.113,-233.887
1574211222.096,11.719,38.086,-198.242,-16.113,-217.773
1574211222.100,29.297,39.551,346.191,-6.836,190.918
1574211222.104,23.438,52.734,289.062,-13.672,271.484
1574211222.108,-5.371,62.012,-315.430,-30.273,-161.621
1574211222.112,-7.812,62.012,-421.387,-37.109,-285.156
1574211222.116,21.484,46.875,156.738,-21.973,101.562
1574211222.120,33.691,45.898,436.035,-0.977,349.609
1574211222.123,14.160,54.688,-111.328,-10.254,8.789
1574211222.127,-10.742,50.781,-397.461,-33.691,-208.984
1574211222.131,-7.812,42.480,97.656,-33.691,-4.883
1574211222.135,9.766,34.668,458.496,-19.043,332.520
1574211222.139,0.488,51.270,0.977,-20.996,136.719
1574211222.143,-20.508,62.988,-457.520,-40.039,-210.938
1574211222.147,-6.348,50.781,-57.617,-32.715,-103.027
1574211222.151,25.879,44.922,440.430,-2.930,280.762
1574211222.155,32.227,50.293,145.508,-0.488,230.957
1574211222.159,10.254,63.477,-445.801,-25.391,-146.484
1574211222.163,4.395,62.500,-306.152,-28.320,-217.285
1574211222.166,32.227,33.691,383.789,5.371,186.523
1574211222.170,41.504,25.391,328.613,15.137,319.336
1574211222.174,10.254,54.199,-442.383,-25.879,-66.406
1574211222.178,-4.883,60.059,-414.062,-48.340,-251.953
1574211222.182,22.461,43.945,294.434,-14.648,46.875
1574211222.186,39.062,45.410,376.953,8.789,314.941
1574211222.190,15.625,46.387,-161.133,-10.254,31.250
1574211222.194,-0.488,36.621,-395.020,-18.555,-257.324
1574211222.198,25.879,32.715,91.797,10.742,-75.195
1574211222.202,44.434,34.180,409.668,32.227,312.500
1574211222.206,27.832,47.363,-46.875,9.766,139.160
1574211222.209,14.160,48.828,-487.793,-6.836,-217.285
1574211222.213,27.832,38.086,-93.262,8.789,-157.715
1574211222.217,49.316,39.062,348.145,32.715,203.613
1574211222.221,45.898,33.203,71.289,32.715,192.383
1574211222.225,17.090,33.203,-274.902,11.230,-113.770
1574211222.229,23.926,41.992,-190.918,16.602,-200.684
1574211222.233,53.711,29.785,318.848,38.086,113.281
1574211222.237,54.688,31.250,383.789,42.480,296.875
1574211222.241,24.902,44.922,-177.734,16.602,-41.992
1574211222.245,16.602,39.551,-331.543,5.859,-247.070
1574211222.248,45.410,26.367,206.543,31.250,29.297
1574211222.252,58.105,28.809,426.270,40.527,349.609
1574211222.256,32.227,38.086,-98.145,15.137,77.637
1574211222.260,6.836,40.039,-396.484,-2.930,-218.750
1574211222.264,33.203,26.855,-58.594,11.230,-99.609
1574211222.268,60.059,25.879,396.973,27.832,259.766
1574211222.272,41.992,38.086,208.496,18.555,181.152
1574211222.276,17.578,33.203,-369.141,0.488,-181.152
1574211222.280,22.461,27.832,-156.738,3.906,-187.500
1574211222.284,46.875,32.227,439.453,27.344,188.965
1574211222.288,45.410,47.363,259.277,34.668,247.070
1574211222.291,17.578,49.316,-341.797,13.184,-137.207
1574211222.295,26.855,39.551,-241.211,14.160,-236.816
1574211222.299,53.223,29.297,327.637,35.645,122.070
1574211222.303,47.363,33.691,377.930,35.645,300.293
1574211222.307,25.879,46.387,-230.957,13.184,-37.598
1574211222.311,9.277,44.434,-465.820,-11.719,-247.559
1574211222.315,24.902,33.691,220.703,6.348,-19.531
1574211222.319,45.898,35.645,544.434,41.504,325.684
1574211222.323,27.832,46.387,-1.953,6.836,125.000
1574211222.327,9.277,48.340,-397.461,-24.414,-223.145
1574211222.331,24.414,37.598,51.270,3.418,-107.422
1574211222.334,47.363,27.832,507.812,29.297,324.219
1574211222.338,31.250,36.133,122.070,11.719,207.520
1574211222.342,4.395,42.969,-432.129,-11.719,-187.012
1574211222.346,12.695,29.297,-213.867,5.371,-182.617
1574211222.350,37.598,17.578,399.414,32.227,207.031
1574211222.354,37.109,18.555,212.402,31.738,288.086
1574211222.358,12.207,14.160,-355.957,10.254,-96.680
1574211222.362,7.812,14.160,-200.195,16.113,-237.305
1574211222.366,36.621,15.137,297.363,45.898,53.711
1574211222.370,49.316,21.973,395.020,49.316,321.289
1574211222.373,26.367,33.203,-76.660,34.668,62.012
1574211222.377,9.766,26.367,-342.285,27.832,-216.797
1574211222.381,37.598,21.973,120.605,44.922,-18.555
1574211222.385,67.383,24.414,460.938,65.430,348.633
1574211222.389,50.781,25.391,36.133,57.129,117.188
1574211222.393,26.855,28.320,-416.504,38.086,-236.816
1574211222.397,46.875,26.367,-112.793,50.293,-115.723
1574211222.401,70.312,16.113,363.281,62.012,267.090
1574211222.405,51.270,24.414,238.770,49.316,195.801
1574211222.409,22.949,46.875,-248.047,31.738,-171.875
1574211222.413,26.855,46.387,-185.059,25.391,-221.191
1574211222.416,58.594,36.133,395.996,50.293,150.879
1574211222.420,60.059,35.645,416.992,51.270,307.617
1574211222.424,26.855,49.805,-213.379,18.066,-89.355
1574211222.428,18.066,55.176,-318.848,10.254,-264.160
1574211222.432,41.016,45.898,271.484,30.273,42.969
1574211222.436,56.641,44.922,478.027,40.039,345.215
1574211222.440,40.527,46.387,-123.535,26.367,25.391
1574211222.444,22.949,37.598,-504.395,0.000,-222.168
1574211222.448,37.598,30.273,67.871,5.371,-11.230
1574211222.452,53.223,33.203,587.402,30.273,325.195
1574211222.456,36.133,39.551,69.824,22.461,143.066
1574211222.459,11.230,38.086,-430.664,-0.977,-250.488
1574211222.463,27.832,31.250,-37.598,7.324,-218.750
1574211222.467,56.641,26.367,508.301,27.832,206.055
1574211222.471,48.340,35.156,267.578,22.949,281.738
1574211222.475,20.508,46.387,-313.965,3.418,-73.730
1574211222.479,15.625,37.109,-177.246,3.418,-180.176
1574211222.483,40.527,29.785,410.645,32.715,145.996
1574211222.487,53.711,35.156,302.734,46.387,294.922
1574211222.491,23.926,37.109,-346.680,15.625,-68.848
1574211222.495,4.883,32.227,-298.828,1.953,-275.391
1574211222.498,27.832,21.973,307.129,24.902,-20.020
1574211222.502,54.688,29.297,450.195,47.363,285.645
1574211222.506,40.527,45.898,-31.738,45.410,37.598
1574211222.510,8.301,32.715,-346.680,29.785,-254.395
1574211222.514,22.461,14.160,63.477,37.109,-108.398
1574211222.518,46.875,10.742,494.629,51.270,252.930
1574211222.522,38.574,21.973,163.086,48.828,145.508
1574211222.526,13.672,29.297,-266.113,33.691,-155.762
1574211222.530,23.438,18.555,-36.133,46.387,-145.508
1574211222.534,49.805,12.695,437.988,72.266,208.008
1574211222.538,39.551,18.555,286.621,69.336,271.484
1574211222.541,14.648,25.391,-215.332,46.387,-88.379
1574211222.545,18.555,19.043,-148.926,47.852,-159.668
1574211222.549,51.270,10.742,256.836,72.754,113.281
1574211222.553,60.059,15.625,373.535,72.754,312.988
1574211222.557,36.621,20.508,-49.316,59.570,-29.297
1574211222.561,32.227,19.043,-323.242,55.176,-288.086
1574211222.565,51.270,10.742,195.801,64.453,-18.066
1574211222.569,62.012,5.859,520.020,75.684,322.266
1574211222.573,44.922,19.531,75.195,60.059,91.309
1574211222.577,26.855,28.809,-330.566,42.480,-222.656
1574211222.581,47.363,16.602,-10.742,54.199,-126.465
1574211222.584,69.824,13.672,488.770,65.430,267.578
1574211222.588,63.965,22.949,270.020,64.453,226.562
1574211222.592,38.574,29.297,-340.332,40.527,-156.250
1574211222.596,32.227,21.973,-220.703,36.133,-203.613
1574211222.600,59.082,12.695,547.363,68.848,203.613
1574211222.604,63.965,17.090,435.059,69.336,302.734
1574211222.608,32.715,28.320,-311.523,36.621,-137.695
1574211222.612,18.066,19.043,-246.094,36.621,-255.371
1574211222.616,35.156,10.254,420.898,55.176,92.773
1574211222.620,44.922,18.066,509.766,57.129,320.801
1574211222.623,20.996,25.391,-108.398,41.992,16.602
1574211222.627,7.324,23.926,-395.020,27.344,-261.719
1574211222.631,27.344,16.113,138.184,41.992,-92.773
1574211222.635,40.527,14.160,546.875,43.457,321.777
1574211222.639,25.391,21.973,15.137,19.043,121.582
1574211222.643,3.906,24.414,-387.695,10.742,-273.926
1574211222.647,7.324,9.277,124.512,22.461,-157.227
1574211222.651,26.367,3.906,554.199,30.762,265.137
1574211222.655,38.574,19.531,267.090,51.758,253.906
1574211222.659,13.184,35.156,-267.090,31.738,-173.340
1574211222.663,5.371,33.203,-132.324,18.555,-246.582
1574211222.666,42.480,23.438,414.551,46.387,167.969
1574211222.670,47.852,19.531,359.375,48.340,301.758
1574211222.674,1.953,27.832,-223.633,20.996,-51.270
1574211222.678,-8.789,28.320,-300.781,-1.953,-244.629
1574211222.682,25.879,19.043,202.637,24.902,-9.277
1574211222.686,33.203,17.578,357.422,39.551,286.133
1574211222.690,20.020,25.879,19.043,26.367,23.438
1574211222.694,-3.906,32.715,-247.559,6.836,-272.949
1574211222.698,4.395,24.414,115.234,8.789,-86.426
1574211222.702,41.504,23.438,506.836,29.785,299.316
1574211222.706,16.113,38.086,170.898,7.812,145.996
1574211222.709,-12.207,46.387,-305.176,-13.184,-189.941
1574211222.713,-0.977,36.133,-63.477,-4.883,-152.832
1574211222.717,38.086,33.691,468.262,17.578,223.633
1574211222.721,46.875,43.945,258.301,18.555,262.207
1574211222.725,-7.812,44.434,-284.180,-9.277,-93.262
1574211222.729,1.953,51.270,-322.266,-3.906,-238.770
1574211222.733,49.316,49.316,279.785,15.625,86.426
1574211222.737,44.434,43.457,465.820,13.672,323.730
1574211222.741,18.555,48.828,-197.266,-1.953,-10.254
1574211222.745,1.465,42.969,-354.492,-22.461,-242.676
1574211222.748,29.297,31.738,235.352,-0.977,-7.324
1574211222.752,53.711,35.156,496.582,24.414,331.543
1574211222.756,31.738,38.574,-44.922,-0.488,103.027
1574211222.760,17.090,38.086,-437.988,-12.695,-252.930
1574211222.764,19.531,29.785,-0.977,-3.418,-165.039
1574211222.768,38.086,26.855,431.152,13.672,273.926
1574211222.772,38.086,37.109,31.738,8.789,212.891
1574211222.776,14.160,43.457,-501.953,-6.836,-171.387
1574211222.780,16.113,36.133,-118.652,-2.441,-190.918
1574211222.784,24.902,26.855,483.398,2.441,218.750
1574211222.788,23.438,27.832,253.906,-0.488,265.625
1574211222.791,-0.488,26.367,-326.660,-22.949,-131.348
1574211222.795,0.488,33.691,-274.414,-19.043,-216.797
1574211222.799,45.898,37.109,309.570,20.508,107.422
1574211222.803,49.805,22.461,402.344,19.531,347.168
1574211222.807,10.254,33.691,-179.688,-17.578,-6.348
1574211222.811,-3.906,47.363,-371.582,-32.227,-241.699
1574211222.815,18.066,40.039,98.633,-9.277,3.418
1574211222.819,40.527,38.086,256.836,5.859,302.246
1574211222.823,27.832,41.504,-121.094,-13.672,68.359
1574211222.827,1.953,38.086,-329.590,-25.879,-238.281
1574211222.831,11.719,37.598,-22.461,-11.719,-139.160
1574211222.834,50.293,35.645,407.227,12.695,266.602
1574211222.838,51.270,33.691,167.969,13.672,201.660
1574211222.842,14.648,43.457,-361.816,-9.277,-206.543
1574211222.846,11.230,44.434,-223.145,-8.789,-210.449
1574211222.850,49.316,33.691,291.504,13.184,181.641
1574211222.854,57.129,38.086,277.344,22.949,302.734
1574211222.858,30.273,50.293,-228.027,-2.441,-53.223
1574211222.862,21.973,47.852,-420.898,-9.277,-244.629
1574211222.866,41.016,37.109,112.793,23.926,55.176
1574211222.870,55.176,38.086,485.352,41.504,368.652
1574211222.873,37.109,44.922,-36.621,18.066,70.312
1574211222.877,22.949,46.387,-417.480,1.465,-233.887
1574211222.881,32.715,39.551,43.945,21.973,-84.473
1574211222.885,46.387,32.715,488.770,38.574,317.871
1574211222.889,37.598,30.273,85.938,25.879,166.016
1574211222.893,18.066,35.645,-396.973,5.371,-173.828
1574211222.897,28.809,35.156,-82.031,20.508,-107.422
1574211222.901,55.176,23.438,421.387,45.898,238.281
1574211222.905,45.410,32.227,218.750,35.156,258.789
1574211222.909,14.160,43.945,-359.375,9.277,-76.172
1574211222.913,17.090,36.621,-263.672,11.719,-149.902
1574211222.916,47.363,22.949,339.844,34.668,173.828
1574211222.920,50.781,24.902,380.371,32.715,337.402
1574211222.924,30.762,36.621,-343.750,11.230,-55.176
1574211222.928,20.508,35.156,-438.965,-1.465,-311.035
1574211222.932,34.668,21.484,311.035,18.555,1.953
1574211222.936,41.504,25.391,444.336,40.527,321.777
1574211222.940,15.625,37.109,-91.797,19.043,76.172
1574211222.944,3.906,35.645,-345.215,-0.488,-214.844
1574211222.948,28.809,25.879,97.168,17.578,-77.637
1574211222.952,55.176,19.531,452.637,39.551,319.336
1574211222.956,49.805,25.391,32.715,31.738,181.641
1574211222.959,15.137,27.832,-397.461,9.277,-146.973
1574211222.963,20.020,27.344,-107.422,19.043,-127.441
1574211222.967,57.129,36.133,353.516,44.922,226.562
1574211222.971,45.898,37.598,188.477,24.902,255.371
1574211222.975,8.301,31.250,-209.473,-7.812,-98.145
1574211222.979,15.137,29.297,-164.062,1.465,-208.984
1574211222.983,54.199,32.227,317.871,32.715,87.891
1574211222.987,54.688,39.062,404.785,40.039,303.223
1574211222.991,23.926,40.039,-117.188,17.090,-20.508
1574211222.995,21.973,42.480,-321.289,17.090,-253.906
1574211222.998,47.852,36.133,186.035,38.574,-10.254
1574211223.002,66.895,34.180,452.637,46.875,345.215
1574211223.006,45.898,43.945,-29.297,36.133,108.887
1574211223.010,24.902,34.668,-347.656,19.043,-208.984
1574211223.014,47.852,29.297,-71.777,31.738,-107.910
1574211223.018,73.242,34.180,408.691,53.223,270.508
1574211223.022,62.500,39.551,276.855,43.945,258.789
1574211223.026,33.203,43.945,-333.496,23.438,-128.418
1574211223.030,42.969,34.180,-154.785,25.879,-184.570
1574211223.034,74.219,30.273,509.277,51.758,239.258
1574211223.038,73.242,40.039,387.207,62.012,308.594
1574211223.041,45.410,40.527,-259.277,42.480,-84.473
1574211223.045,38.574,29.297,-267.578,30.762,-197.754
1574211223.049,66.895,24.414,272.461,55.664,83.496
1574211223.053,77.148,27.832,440.430,66.895,335.938
1574211223.057,53.711,36.621,-129.395,47.363,31.738
1574211223.061,40.039,41.992,-451.172,33.691,-250.977
1574211223.065,55.664,33.203,195.312,48.828,-58.105
1574211223.069,64.941,26.367,570.312,67.871,319.336
1574211223.073,55.664,32.227,59.570,51.758,125.488
1574211223.077,39.551,34.180,-411.133,35.156,-248.047
1574211223.081,49.316,22.461,-28.809,45.410,-167.969
1574211223.084,74.219,16.113,514.648,65.918,261.719
1574211223.088,64.941,31.738,214.844,59.570,196.289
1574211223.092,37.598,52.246,-307.617,26.367,-178.711
1574211223.096,34.180,44.922,-155.762,24.414,-150.879
1574211223.100,55.176,26.367,372.559,48.828,165.527
1574211223.104,63.477,34.180,224.609,50.293,244.141
1574211223.108,27.344,38.574,-310.547,20.020,-85.449
1574211223.112,20.020,29.785,-170.898,26.367,-187.012
1574211223.116,66.406,25.391,313.477,58.105,83.008
1574211223.120,66.895,18.066,422.363,52.734,330.566
1574211223.123,15.137,22.461,-51.758,22.461,44.434
1574211223.127,-2.441,28.809,-357.910,0.977,-285.156
1574211223.131,26.367,21.973,54.688,19.531,-101.074
1574211223.135,35.645,8.301,418.945,35.156,289.062
1574211223.139,18.066,18.555,116.699,16.602,165.039
1574211223.143,1.953,38.086,-364.746,0.488,-180.664
1574211223.147,13.672,34.180,-175.293,10.254,-180.664
1574211223.151,41.016,27.344,342.285,23.926,198.730
1574211223.155,39.062,31.250,301.758,21.484,246.582
1574211223.159,12.695,42.480,-231.445,8.301,-124.512
1574211223.163,10.254,40.039,-242.676,4.883,-230.957
1574211223.166,36.133,24.414,333.496,23.926,122.559
1574211223.170,44.922,23.926,377.441,29.785,292.969
1574211223.174,20.996,44.434,-208.984,10.742,-63.965
1574211223.178,11.230,46.875,-367.676,5.371,-261.719
1574211223.182,41.016,31.250,192.871,27.344,-8.789
1574211223.186,57.617,25.391,481.934,40.527,341.797
1574211223.190,41.016,39.062,-73.730,30.273,96.680
1574211223.194,27.344,47.363,-548.828,15.137,-216.797
1574211223.198,42.969,38.574,-60.547,20.996,-90.820
1574211223.202,64.453,31.250,528.809,42.480,269.531
1574211223.206,52.734,37.598,154.785,36.133,203.125
1574211223.209,25.391,37.109,-391.113,14.648,-149.902
1574211223.213,28.320,22.949,-115.723,25.391,-189.941
1574211223.217,57.617,20.996,439.941,45.898,187.988
1574211223.221,54.688,32.715,260.742,44.922,275.391
1574211223.225,22.949,44.922,-316.895,25.391,-78.125
1574211223.229,21.973,43.945,-245.117,21.484,-223.633
1574211223.233,54.199,28.809,313.477,42.480,71.777
1574211223.237,63.965,27.344,333.496,53.711,315.430
1574211223.241,33.691,28.320,-187.012,35.645,32.227
1574211223.245,19.531,28.809,-358.398,19.531,-264.160
1574211223.248,37.109,33.203,157.227,37.109,-66.895
1574211223.252,55.664,28.320,395.508,53.711,310.059
1574211223.256,37.109,29.297,-84.961,33.203,109.863
1574211223.260,7.324,29.297,-285.645,11.230,-151.855
1574211223.264,25.879,15.625,83.008,26.367,-83.496
1574211223.268,55.664,14.160,453.125,49.805,263.184
1574211223.272,44.922,26.855,173.828,40.039,178.711
1574211223.276,14.648,25.879,-324.219,12.207,-256.836
1574211223.280,27.832,19.043,-125.000,20.508,-246.582
1574211223.284,63.965,19.531,384.766,49.316,165.527
1574211223.288,58.105,25.879,298.340,45.898,293.457
1574211223.291,29.297,33.691,-215.820,24.414,-52.734
1574211223.295,27.344,33.691,-255.371,18.555,-207.031
1574211223.299,52.246,31.250,281.250,33.203,88.867
1574211223.303,64.941,32.715,412.109,41.016,335.938
1574211223.307,36.133,33.203,-112.305,19.531,6.348
1574211223.311,11.719,36.133,-408.203,2.441,-296.875
1574211223.315,38.086,31.250,17.578,20.508,-105.957
1574211223.319,55.176,20.508,500.000,33.691,314.941
1574211223.323,34.668,31.250,141.602,21.484,176.270
1574211223.327,14.160,41.992,-417.969,7.812,-189.941
1574211223.331,25.391,33.691,-223.633,16.113,-159.180
1574211223.334,48.340,22.461,436.035,33.691,255.859
1574211223.338,43.457,24.414,352.051,29.297,275.391
1574211223.342,21.973,37.598,-349.121,12.207,-129.883
1574211223.346,26.367,23.926,-298.340,12.207,-226.562
1574211223.350,52.734,8.789,459.961,34.180,162.598
1574211223.354,54.199,26.367,440.430,44.434,292.480
1574211223.358,20.508,35.156,-261.230,15.625,-104.492
1574211223.362,10.742,29.785,-357.910,4.395,-258.301
1574211223.366,39.551,21.484,285.156,28.809,38.086
1574211223.370,55.176,21.973,487.305,43.457,338.379
1574211223.373,35.156,41.992,-73.242,30.273,78.613
1574211223.377,12.207,47.852,-429.199,8.789,-238.770
1574211223.381,25.879,32.227,22.461,17.578,-101.074
1574211223.385,52.734,21.484,475.098,42.969,290.527
1574211223.389,42.969,27.344,1.465,32.715,153.809
1574211223.393,20.996,41.992,-423.828,5.859,-169.434
1574211223.397,26.855,27.344,-11.230,15.137,-149.902
1574211223.401,48.828,17.578,440.430,39.062,203.613
1574211223.405,44.434,30.762,254.395,36.621,271.973
1574211223.409,10.254,37.109,-278.320,9.766,-129.883
1574211223.413,1.465,32.227,-212.891,-0.488,-246.094
1574211223.416,39.551,25.879,305.664,29.785,99.609
1574211223.420,56.152,31.250,337.402,45.410,285.156
1574211223.424,33.203,34.180,-224.121,20.996,-64.941
1574211223.428,15.137,22.461,-337.891,1.953,-244.629
1574211223.432,43.457,27.832,155.762,17.090,-4.883
1574211223.436,59.082,38.574,337.402,29.297,290.039
1574211223.440,27.832,35.156,7.324,21.484,45.410
1574211223.444,12.207,32.715,-298.340,17.578,-268.555
1574211223.448,30.273,22.949,33.691,28.809,-126.953
1574211223.452,57.617,21.973,466.797,47.363,270.996
1574211223.456,56.152,31.738,191.895,47.363,185.547
1574211223.459,32.227,32.227,-328.125,29.785,-198.730
1574211223.463,26.855,21.484,-126.465,30.762,-194.824
1574211223.467,57.129,18.555,424.316,51.270,187.500
1574211223.471,65.918,24.902,278.809,61.035,255.371
1574211223.475,38.574,37.109,-284.668,41.992,-101.562
1574211223.479,38.086,37.109,-365.723,28.809,-259.766
1574211223.483,69.824,18.555,249.512,48.828,40.527
1574211223.487,79.590,25.391,541.504,60.059,339.844
1574211223.491,56.152,42.969,-87.402,33.691,11.230
1574211223.495,32.715,37.109,-401.367,16.113,-294.922
1574211223.498,47.852,30.762,169.434,36.621,-62.012
1574211223.502,72.266,37.109,519.043,52.246,330.566
1574211223.506,49.316,48.340,4.883,33.203,115.234
1574211223.510,19.043,52.246,-399.414,13.672,-243.652
1574211223.514,42.969,46.387,29.297,37.598,-136.719
1574211223.518,75.684,36.621,479.980,58.594,287.598
1574211223.522,58.105,41.016,115.723,37.109,225.586
1574211223.526,26.855,50.781,-439.453,16.113,-184.082
1574211223.530,26.367,43.457,-164.062,20.508,-231.934
1574211223.534,61.523,45.410,478.027,50.781,166.992
1574211223.538,65.430,42.480,402.832,51.270,330.566
1574211223.541,30.762,45.410,-224.121,14.160,-40.527
1574211223.545,21.973,43.457,-276.855,1.953,-240.723
1574211223.549,42.480,27.344,273.926,23.438,41.016
1574211223.553,50.293,32.227,419.434,32.227,331.543
1574211223.557,31.250,38.574,-91.309,13.672,33.691
1574211223.561,12.695,35.156,-353.516,-1.953,-270.020
1574211223.565,26.367,37.109,69.336,15.625,-96.191
1574211223.569,52.734,46.387,342.285,37.598,281.738
1574211223.573,32.715,46.875,30.762,13.672,139.648
1574211223.577,3.906,45.410,-263.184,-3.906,-214.844
1574211223.581,23.926,37.109,-6.836,14.160,-177.246
1574211223.584,54.199,30.762,451.660,31.738,240.723
1574211223.588,42.969,35.156,235.352,21.973,242.188
1574211223.592,13.672,45.410,-265.137,-3.418,-159.180
1574211223.596,20.508,45.410,-183.105,-5.371,-249.023
1574211223.600,41.016,26.855,372.070,13.672,134.277
1574211223.604,43.945,32.227,433.105,22.949,313.477
1574211223.608,26.855,42.969,-151.855,8.789,-97.656
1574211223.612,20.996,35.645,-383.789,5.371,-301.270
1574211223.616,49.805,25.879,146.484,24.414,19.043
1574211223.620,64.453,25.879,537.109,36.133,334.473
1574211223.623,39.551,26.367,81.055,23.438,95.215
1574211223.627,23.438,32.715,-342.285,9.277,-218.262
1574211223.631,43.457,30.273,72.266,23.438,-114.746
1574211223.635,65.430,19.531,562.012,41.016,300.781
1574211223.639,56.641,37.598,182.129,39.062,167.969
1574211223.643,34.668,49.316,-373.047,28.809,-256.836
1574211223.647,37.598,34.668,-82.031,31.738,-205.566
1574211223.651,66.406,25.391,503.418,54.688,227.051
1574211223.655,70.312,35.156,317.871,55.664,280.273
1574211223.659,41.016,45.410,-303.223,35.156,-108.398
1574211223.663,37.598,40.527,-284.668,29.297,-228.516
1574211223.666,57.617,28.809,321.289,51.758,92.285
1574211223.670,64.453,26.367,459.961,62.012,324.219
1574211223.674,37.598,41.992,-234.375,35.645,-17.090
1574211223.678,13.672,39.062,-387.207,19.043,-279.297
1574211223.682,37.109,25.391,326.172,37.109,-11.719
1574211223.686,59.570,30.273,545.410,54.688,352.539
1574211223.690,37.109,42.480,25.391,37.598,118.652
1574211223.694,7.812,41.016,-302.246,12.695,-202.637
1574211223.698,25.879,35.156,72.754,27.344,-84.961
1574211223.702,61.035,31.738,447.266,57.129,297.852
1574211223.706,44.434,33.203,128.418,41.016,222.168
1574211223.709,0.977,34.180,-351.074,3.906,-163.574
1574211223.713,4.395,22.461,-75.684,11.230,-178.711
1574211223.717,42.969,23.438,400.391,38.574,196.289
1574211223.721,48.340,32.227,181.152,29.785,265.137
1574211223.725,19.043,31.738,-232.910,3.418,-115.234
1574211223.729,14.648,29.785,-173.828,2.930,-237.305
1574211223.733,49.316,27.832,321.777,28.809,97.656
1574211223.737,59.570,35.156,426.270,42.969,333.496
1574211223.741,25.879,43.457,-83.496,17.090,-15.625
1574211223.745,11.230,42.480,-318.848,0.488,-264.648
1574211223.748,41.016,42.480,117.676,29.297,-73.730
1574211223.752,66.406,43.945,461.914,49.316,316.406
1574211223.756,42.480,44.922,61.035,31.250,155.762
1574211223.760,12.207,43.457,-390.625,12.695,-242.676
1574211223.764,32.715,38.086,-135.742,22.949,-188.477
1574211223.768,60.547,32.227,414.062,41.016,205.566
1574211223.772,41.016,30.273,345.215,35.645,240.234
1574211223.776,14.648,40.527,-283.691,19.043,-149.414
1574211223.780,24.414,38.574,-211.914,21.484,-244.141
1574211223.784,51.758,31.738,442.871,48.828,161.621
1574211223.788,53.223,24.902,427.246,55.664,333.008
1574211223.791,25.391,24.902,-208.496,32.227,-12.695
1574211223.795,18.555,35.645,-314.941,23.438,-209.473
1574211223.799,46.875,32.227,228.027,49.316,54.688
1574211223.803,61.035,23.926,442.383,60.547,342.285
1574211223.807,36.621,37.109,-97.168,38.574,62.500
1574211223.811,22.461,47.363,-484.375,23.926,-232.910
1574211223.815,40.039,31.738,90.820,40.039,-94.238
1574211223.819,59.082,20.508,564.453,59.082,301.270
1574211223.823,40.527,23.926,130.859,38.086,179.199
1574211223.827,12.695,38.574,-354.004,13.672,-210.449
1574211223.831,22.461,40.527,-41.992,21.973,-190.430
1574211223.834,44.434,23.926,461.426,38.574,219.727
1574211223.838,36.621,26.855,262.207,28.320,265.625
1574211223.842,22.461,41.992,-306.152,7.812,-158.203
1574211223.846,33.691,39.062,-290.039,15.625,-291.992
1574211223.850,55.176,21.973,326.660,40.527,111.328
1574211223.854,62.012,28.809,291.016,38.086,317.871
1574211223.858,35.156,40.039,-301.758,12.207,-88.867
1574211223.862,16.113,35.645,-256.348,5.371,-256.836
1574211223.866,41.504,18.066,221.191,25.879,21.973
1574211223.870,55.664,12.695,374.512,36.621,324.707
1574211223.873,32.227,37.109,-45.898,18.066,76.172
1574211223.877,13.184,41.992,-321.777,6.836,-263.672
1574211223.881,21.973,36.133,36.621,19.043,-137.695
1574211223.885,42.969,29.785,445.312,32.715,287.598
1574211223.889,40.039,31.250,158.691,24.902,187.012
1574211223.893,19.043,43.945,-349.121,13.184,-179.199
1574211223.897,24.902,37.109,-199.219,23.438,-169.434
1574211223.901,53.223,27.832,310.059,42.480,202.637
1574211223.905,45.410,30.273,329.590,31.738,276.367
1574211223.909,16.602,33.203,-191.895,2.441,-109.375
1574211223.913,13.184,27.344,-243.164,-1.465,-218.262
1574211223.916,32.715,13.184,300.293,21.973,91.309
1574211223.920,40.039,17.578,441.406,31.738,328.125
1574211223.924,20.508,37.598,-164.062,13.672,-5.859
1574211223.928,1.953,37.109,-428.223,2.930,-290.039
1574211223.932,22.949,21.484,161.133,20.996,-41.016
1574211223.936,45.410,17.578,477.539,37.109,338.867
1574211223.940,23.926,31.250,-41.992,23.926,122.070
1574211223.944,7.812,42.969,-536.133,7.812,-221.191
1574211223.948,27.832,34.668,-111.328,19.043,-137.695
1574211223.952,44.434,22.949,508.301,33.203,255.859
1574211223.956,34.668,29.785,209.473,23.926,240.234
1574211223.959,11.230,33.691,-375.000,4.395,-148.926
1574211223.963,23.438,26.855,-182.129,11.230,-238.770
1574211223.967,54.199,23.926,418.457,41.016,170.898
1574211223.971,54.688,16.113,279.785,45.410,290.039
1574211223.975,30.762,20.996,-326.660,29.297,-149.902
1574211223.979,24.414,38.574,-285.645,22.461,-308.594
1574211223.983,47.852,35.156,289.062,35.156,47.363
1574211223.987,60.547,35.645,351.074,49.316,337.891
1574211223.991,40.039,47.852,-250.977,31.250,-20.996
1574211223.995,15.137,41.016,-340.820,7.324,-309.570
1574211223.998,28.320,24.414,218.262,20.020,-51.270
1574211224.002,57.129,21.973,454.102,44.434,308.105
1574211224.006,43.945,30.762,58.594,30.273,152.832
1574211224.010,16.602,32.227,-353.027,10.742,-233.887
1574211224.014,28.809,24.414,-48.340,28.320,-167.969
1574211224.018,56.641,28.320,419.922,51.270,273.438
1574211224.022,50.293,29.297,178.711,42.480,234.375
1574211224.026,10.742,31.250,-309.570,8.789,-129.883
1574211224.030,8.789,40.039,-195.312,8.301,-183.105
1574211224.034,43.457,32.715,300.781,36.621,165.039
1574211224.038,44.922,27.832,275.391,40.039,334.961
1574211224.041,21.973,31.250,-255.371,17.090,-61.523
1574211224.045,18.066,33.691,-302.734,12.695,-257.812
1574211224.049,44.922,29.297,121.094,35.156,0.977
1574211224.053,59.082,27.832,389.648,40.527,328.125
1574211224.057,33.691,39.062,47.852,23.926,87.891
1574211224.061,16.602,43.457,-381.348,15.625,-277.832
1574211224.065,32.227,27.832,13.184,29.785,-142.090
1574211224.069,56.152,23.438,505.859,44.434,283.691
1574211224.073,40.527,36.133,189.453,31.738,202.637
1574211224.077,5.859,36.133,-391.602,7.812,-220.215
1574211224.081,19.531,32.227,-193.359,16.113,-234.863
1574211224.084,46.875,28.809,405.762,40.039,216.309
1574211224.088,35.156,30.762,307.617,36.621,286.621
1574211224.092,14.160,40.527,-296.387,16.113,-107.910
1574211224.096,18.066,37.109,-272.949,16.602,-222.168
1574211224.100,44.434,21.973,396.484,36.133,136.230
1574211224.104,49.805,25.879,474.121,40.527,345.215
1574211224.108,28.809,39.551,-237.305,18.555,-5.859
1574211224.112,17.578,37.109,-444.336,1.953,-228.027
1574211224.116,38.086,38.086,255.371,21.973,9.277
1574211224.120,52.734,43.945,523.438,39.551,331.543
1574211224.123,33.691,43.457,20.508,25.879,137.695
1574211224.127,17.090,42.480,-358.398,14.648,-181.152
1574211224.131,23.926,33.203,17.090,27.832,-114.258
1574211224.135,48.828,30.273,522.949,50.781,300.293
1574211224.139,42.969,38.086,100.098,45.898,204.102
1574211224.143,15.625,42.480,-416.504,21.484,-215.332
1574211224.147,18.066,35.645,-0.488,25.879,-206.543
1574211224.151,51.270,32.715,460.449,54.688,183.105
1574211224.155,56.641,31.250,328.125,57.617,319.336
1574211224.159,25.391,31.738,-180.176,34.180,-62.988
1574211224.163,14.160,23.438,-211.914,26.855,-263.184
1574211224.166,45.898,17.578,317.383,49.316,95.215
1574211224.170,71.777,30.762,408.203,61.035,357.422
1574211224.174,45.410,39.551,-153.320,39.062,14.648
1574211224.178,21.973,31.250,-338.379,26.855,-256.836
1574211224.182,46.875,19.043,155.762,41.992,-31.250
1574211224.186,66.406,22.949,380.859,50.293,311.523
1574211224.190,45.410,35.645,71.289,30.273,83.496
1574211224.194,20.508,40.039,-285.156,10.254,-260.254
1574211224.198,33.203,35.156,-12.695,22.461,-162.598
1574211224.202,61.035,27.832,483.398,47.852,252.441
1574211224.206,48.828,28.320,282.227,40.039,267.578
1574211224.209,24.414,26.855,-324.707,18.066,-135.742
1574211224.213,26.367,23.926,-200.684,21.484,-235.840
1574211224.217,47.852,28.809,423.340,41.016,167.969
1574211224.221,48.340,33.691,309.570,43.945,287.598
1574211224.225,19.043,41.504,-253.906,20.508,-83.008
1574211224.229,17.578,42.969,-383.301,9.766,-266.602
1574211224.233,41.504,33.203,173.828,28.809,-3.906
1574211224.237,42.480,28.809,550.293,39.062,348.633
1574211224.241,16.113,36.621,-35.645,20.996,84.473
1574211224.245,7.812,42.480,-411.621,9.277,-230.957
1574211224.248,47.852,38.574,125.977,41.016,-35.156
1574211224.252,68.848,29.297,506.836,64.941,343.750
1574211224.256,34.180,30.273,11.719,37.598,121.582
1574211224.260,-6.348,33.691,-396.973,4.883,-190.918
1574211224.264,12.207,21.484,-59.082,34.668,-105.957
1574211224.268,49.805,16.602,405.273,62.012,245.605
1574211224.272,39.551,22.461,164.062,37.109,257.812
1574211224.276,5.859,26.367,-452.148,11.719,-142.090
1574211224.280,-1.465,20.508,-187.012,1.465,-235.352
1574211224.284,18.066,10.742,478.516,25.391,142.578
1574211224.288,33.691,17.090,378.418,47.852,324.707
1574211224.291,11.719,23.438,-231.445,32.715,-68.848
1574211224.295,1.465,13.672,-306.641,38.574,-294.922
1574211224.299,32.715,2.930,247.559,62.988,-16.602
1574211224.303,49.316,4.883,456.055,66.406,329.590
1574211224.307,29.785,10.254,-15.137,54.688,56.641
1574211224.311,0.977,8.789,-315.430,33.691,-266.602
1574211224.315,21.484,6.348,70.312,62.500,-106.934
1574211224.319,48.828,2.441,375.488,78.613,284.668
1574211224.323,29.297,10.742,66.406,53.711,169.922
1574211224.327,11.719,20.020,-233.887,53.711,-206.543
1574211224.331,32.227,8.301,4.883,70.312,-187.012
1574211224.334,64.941,0.488,473.145,87.891,229.004
1574211224.338,66.406,4.883,358.398,87.891,305.664
1574211224.342,42.480,17.090,-202.148,77.148,-63.965
1574211224.346,39.062,18.066,-254.883,73.242,-221.191
1574211224.350,62.012,4.395,284.668,78.613,89.844
1574211224.354,71.777,2.930,442.383,83.984,342.285
1574211224.358,42.969,18.555,-83.984,61.035,42.480
1574211224.362,35.645,32.227,-404.785,52.246,-223.145
1574211224.366,62.988,23.926,38.086,64.941,-41.504
1574211224.370,72.754,18.555,505.371,72.266,321.289
1574211224.373,53.223,24.902,102.051,60.059,94.238
1574211224.377,33.203,27.832,-383.301,36.133,-252.930
1574211224.381,46.875,23.438,-9.766,46.387,-130.859
1574211224.385,77.148,22.949,527.344,74.219,265.137
1574211224.389,64.941,32.715,240.723,63.477,212.402
1574211224.393,33.691,32.227,-329.590,33.203,-183.105
1574211224.397,39.062,21.484,-139.648,38.086,-218.750
1574211224.401,64.453,16.602,465.820,62.988,205.078
1574211224.405,64.453,23.438,345.703,60.547,303.223
1574211224.409,43.457,37.109,-311.523,37.109,-104.980
1574211224.413,39.062,37.598,-333.008,34.668,-249.512
1574211224.416,54.199,25.391,324.219,63.477,62.988
1574211224.420,65.430,24.902,508.301,68.848,358.887
1574211224.424,52.246,41.992,-174.805,49.316,24.414
1574211224.428,41.504,44.922,-385.742,40.039,-286.133
1574211224.432,53.711,29.297,227.539,51.758,-53.711
1574211224.436,79.590,25.391,452.637,70.312,298.828
1574211224.440,63.965,34.668,72.266,53.711,165.039
1574211224.444,18.066,38.574,-274.902,27.832,-140.137
1574211224.448,33.203,31.250,-4.883,37.598,-145.996
1574211224.452,68.359,23.926,428.223,68.359,243.652
1574211224.456,59.570,24.902,147.461,61.523,238.770
1574211224.459,29.785,34.668,-370.117,34.668,-156.738
1574211224.463,31.738,33.691,-170.898,43.457,-221.191
1574211224.467,63.965,24.414,344.238,76.172,131.836
1574211224.471,76.660,31.738,271.484,70.801,296.387
1574211224.475,31.738,37.109,-148.438,33.691,-34.668
1574211224.479,8.789,32.715,-230.957,29.297,-233.398
1574211224.483,37.109,25.879,235.352,47.852,17.578
1574211224.487,51.270,23.438,484.863,54.199,355.957
1574211224.491,38.574,35.156,-41.504,50.781,77.637
1574211224.495,22.949,34.668,-388.672,32.227,-229.492
1574211224.498,29.785,21.973,93.262,28.320,-46.387
1574211224.502,58.105,23.926,442.871,46.387,297.852
1574211224.506,50.781,32.715,93.262,41.992,179.688
1574211224.510,26.367,40.039,-379.883,23.926,-208.008
1574211224.514,31.738,32.227,-213.867,28.320,-230.957
1574211224.518,47.852,20.996,370.605,40.527,181.641
1574211224.522,47.852,25.391,352.539,41.504,237.305
1574211224.526,37.109,34.180,-282.227,31.250,-162.109
1574211224.530,30.273,34.668,-249.023,15.137,-240.234
1574211224.534,37.598,23.926,366.699,24.902,110.352
1574211224.538,59.082,28.320,413.574,45.898,313.965
1574211224.541,31.738,40.527,-202.637,27.344,-21.973
1574211224.545,-3.906,33.691,-388.672,2.441,-271.973
1574211224.549,22.949,22.461,133.301,21.973,-38.086
1574211224.553,46.387,22.461,401.855,41.016,321.777
1574211224.557,35.645,40.039,-111.328,23.926,67.383
1574211224.561,20.020,51.270,-528.809,0.977,-272.949
1574211224.565,26.367,38.086,32.227,13.672,-133.789
1574211224.569,55.176,33.203,544.922,41.504,288.574
1574211224.573,54.688,40.039,144.043,47.363,193.848
1574211224.577,21.484,37.598,-372.559,29.297,-241.699
1574211224.581,22.461,28.320,-65.430,27.832,-195.312
1574211224.584,60.059,25.391,466.309,52.246,248.047
1574211224.588,55.664,30.273,267.578,52.246,280.762
1574211224.592,24.902,39.062,-280.762,40.039,-94.238
1574211224.596,36.133,36.621,-270.508,39.551,-193.848
1574211224.600,64.941,23.438,298.340,46.387,93.262
1574211224.604,68.848,28.809,329.590,57.129,316.406
1574211224.608,47.852,38.574,-195.312,43.945,-22.949
1574211224.612,26.855,38.574,-244.141,32.227,-298.828
1574211224.616,43.457,29.785,211.426,51.758,-68.848
1574211224.620,64.941,21.484,482.422,57.617,325.195
1574211224.623,46.387,26.367,95.703,40.527,145.996
1574211224.627,18.555,30.762,-309.570,26.855,-247.559
1574211224.631,38.574,22.949,-9.277,39.551,-184.082
1574211224.635,66.895,21.973,447.266,62.012,241.211
1574211224.639,61.035,33.691,237.305,49.805,203.613
1574211224.643,30.273,37.109,-293.457,22.461,-157.715
1574211224.647,21.484,30.273,-204.102,20.508,-209.961
1574211224.651,48.340,23.438,306.641,38.086,151.367
1574211224.655,48.828,25.391,404.297,38.574,323.730
1574211224.659,27.832,41.016,-131.348,19.043,-88.867
1574211224.663,21.973,38.574,-316.895,10.254,-312.500
1574211224.666,35.645,16.602,276.367,29.297,30.762
1574211224.670,41.992,17.090,513.184,38.574,345.215
1574211224.674,24.414,30.762,-27.344,20.508,90.820
1574211224.678,9.766,32.715,-385.742,12.207,-239.746
1574211224.682,25.879,22.461,89.355,25.391,-107.422
1574211224.686,46.387,20.508,500.488,32.715,310.059
1574211224.690,26.855,27.832,34.668,17.090,131.836
1574211224.694,6.836,38.574,-524.414,8.301,-270.508
1574211224.698,21.973,28.809,-135.742,13.184,-208.496
1574211224.702,48.340,15.625,569.824,33.203,253.906
1574211224.706,49.316,22.461,266.602,38.574,220.703
1574211224.709,21.973,31.738,-354.980,11.230,-209.473
1574211224.713,20.508,32.227,-163.574,5.371,-202.637
1574211224.717,51.758,30.273,378.906,28.809,167.480
1574211224.721,67.383,38.086,302.734,36.621,296.875
1574211224.725,44.434,42.969,-231.934,21.484,-87.891
1574211224.729,28.809,40.527,-264.160,18.066,-265.137
1574211224.733,54.688,32.715,279.785,41.992,20.508
1574211224.737,76.172,32.227,390.625,57.129,323.730
1574211224.741,51.758,38.574,-182.617,39.062,39.062
1574211224.745,20.020,36.133,-361.328,20.508,-287.598
1574211224.748,42.480,30.273,146.973,41.016,-106.934
1574211224.752,71.777,28.320,464.355,61.035,292.480
1574211224.756,53.223,35.156,106.934,46.387,170.410
1574211224.760,26.855,37.598,-313.965,26.367,-217.285
1574211224.764,38.574,25.391,-88.867,36.133,-229.980
1574211224.768,66.406,17.090,418.945,59.570,193.359
1574211224.772,55.176,24.902,280.762,50.781,262.695
1574211224.776,18.555,35.156,-295.898,29.297,-187.988
1574211224.780,17.578,34.180,-220.703,24.414,-304.688
1574211224.784,44.434,24.902,337.402,45.898,88.379
1574211224.788,47.852,18.555,388.184,51.270,332.031
1574211224.791,20.508,25.391,-107.910,20.996,-19.043
1574211224.795,9.766,28.809,-262.207,11.230,-266.602
1574211224.799,32.227,23.438,139.160,30.273,-0.977
1574211224.803,44.434,22.949,432.617,38.086,356.445
1574211224.807,23.438,26.855,89.355,27.832,110.840
1574211224.811,-0.488,26.855,-361.328,2.930,-256.836
1574211224.815,7.324,16.602,0.977,12.695,-118.164
1574211224.819,31.250,11.719,505.859,40.039,309.570
1574211224.823,26.855,23.438,210.449,34.180,229.004
1574211224.827,-1.953,29.785,-328.613,6.836,-132.812
1574211224.831,-1.465,18.555,-186.035,8.301,-164.062
1574211224.834,31.738,13.184,384.766,39.062,197.266
1574211224.838,36.133,20.508,387.695,38.086,325.195
1574211224.842,7.812,34.180,-257.812,14.160,-72.266
1574211224.846,4.395,32.227,-368.164,1.953,-265.625
1574211224.850,29.297,20.508,371.094,27.832,83.984
1574211224.854,42.969,17.090,523.438,46.875,349.609
1574211224.858,22.461,15.137,-107.422,19.531,27.344
1574211224.862,10.742,21.973,-350.586,8.789,-239.746
1574211224.866,35.645,23.438,175.293,33.691,-30.762
1574211224.870,56.641,23.438,494.141,51.270,339.355
1574211224.873,41.016,36.133,27.344,40.527,161.133
1574211224.877,16.602,41.016,-420.898,17.578,-209.961
1574211224.881,30.762,31.250,-59.570,25.391,-157.227
1574211224.885,60.547,24.414,495.117,55.664,274.902
1574211224.889,57.617,34.180,130.859,53.711,228.516
1574211224.893,26.855,42.480,-397.949,23.438,-186.523
1574211224.897,25.879,34.180,-66.406,27.344,-220.703
1574211224.901,56.641,21.484,433.105,59.082,159.180
1574211224.905,62.988,27.832,341.797,59.570,312.012
1574211224.909,33.691,43.457,-184.082,33.691,-35.645
1574211224.913,23.438,46.387,-256.348,26.367,-222.656
1574211224.916,51.270,37.598,245.605,49.805,54.688
1574211224.920,66.406,38.086,399.414,58.594,333.008
1574211224.924,40.527,47.852,-122.070,31.250,51.758
1574211224.928,9.766,31.250,-408.691,11.719,-249.512
1574211224.932,29.297,20.508,7.812,29.785,-102.051
1574211224.936,50.293,32.227,360.840,44.922,270.508
1574211224.940,26.855,41.016,165.527,30.273,185.547
1574211224.944,7.812,41.504,-315.430,11.719,-214.844
1574211224.948,24.414,33.203,-104.980,18.555,-229.492
1574211224.952,51.270,29.785,470.215,44.434,218.750
1574211224.956,43.457,35.645,304.688,41.016,267.578
1574211224.959,14.160,45.410,-270.020,21.973,-93.750
1574211224.963,14.648,35.645,-255.371,20.020,-239.746
1574211224.967,45.898,27.344,308.105,41.016,72.754
1574211224.971,56.152,37.598,328.125,51.270,294.434
1574211224.975,27.832,41.016,-196.289,24.902,-7.324
1574211224.979,12.695,35.156,-431.641,7.812,-245.117
1574211224.983,30.762,21.484,97.168,21.484,-28.320
1574211224.987,43.945,19.531,524.414,37.109,318.359
1574211224.991,28.809,35.156,-12.695,19.043,78.125
1574211224.995,9.766,43.457,-405.762,-3.418,-240.234
1574211224.998,23.438,34.668,32.715,13.184,-126.465
1574211225.002,48.340,23.438,451.660,35.645,278.809
1574211225.006,38.574,37.598,102.051,28.809,196.289
1574211225.010,15.625,52.734,-384.277,8.301,-201.660
1574211225.014,27.344,46.387,-105.957,14.648,-208.984
1574211225.018,56.641,37.598,407.715,41.992,205.078
1574211225.022,60.547,40.039,199.219,42.480,292.969
1574211225.026,36.133,47.363,-395.020,15.625,-98.633
1574211225.030,30.273,42.969,-234.863,15.625,-269.043
1574211225.034,57.129,30.273,406.738,42.969,91.797
1574211225.038,62.988,29.297,396.484,48.340,336.426
1574211225.041,38.574,40.527,-174.805,28.809,-0.977
1574211225.045,28.320,40.039,-341.309,20.508,-278.809
1574211225.049,49.805,32.227,169.922,36.133,-57.129
1574211225.053,66.406,34.668,480.957,51.758,349.609
1574211225.057,47.363,41.504,9.277,35.645,155.273
1574211225.061,24.902,42.969,-390.137,15.625,-215.820
1574211225.065,35.645,34.668,-8.789,33.203,-139.648
1574211225.069,63.965,32.227,361.816,54.199,270.508
1574211225.073,58.105,35.645,127.441,44.922,250.977
1574211225.077,24.414,34.180,-240.723,24.414,-131.836
1574211225.081,25.879,36.621,-143.066,25.879,-239.746
1574211225.084,54.199,33.691,367.188,44.434,160.645
1574211225.088,57.617,37.598,353.027,43.945,298.340
1574211225.092,30.273,46.387,-206.055,22.949,-88.867
1574211225.096,23.926,45.410,-296.875,21.484,-281.250
1574211225.100,49.805,36.621,249.023,43.945,22.461
1574211225.104,59.570,34.180,440.430,52.246,311.523
1574211225.108,39.062,41.504,-70.312,34.668,1.465
1574211225.112,22.949,43.457,-415.527,22.949,-263.672
1574211225.116,38.574,34.180,-7.812,33.691,-78.613
1574211225.120,54.199,26.855,500.000,43.457,300.781
1574211225.123,42.969,33.691,156.250,31.738,148.438
1574211225.127,21.973,36.133,-357.910,16.602,-194.336
1574211225.131,24.414,27.832,-42.480,23.438,-148.438
1574211225.135,41.992,21.973,466.309,36.133,226.074
1574211225.139,37.109,25.391,240.723,31.738,249.023
1574211225.143,13.184,29.785,-305.176,10.742,-125.977
1574211225.147,15.137,27.832,-186.035,14.648,-195.312
1574211225.151,47.852,27.832,405.273,41.992,180.664
1574211225.155,52.246,32.715,355.957,44.434,316.895
1574211225.159,24.414,40.527,-305.176,19.531,-79.590
1574211225.163,12.207,37.598,-367.188,7.812,-282.227
1574211225.166,31.738,26.855,276.367,26.855,-0.488
1574211225.170,48.828,29.785,451.660,42.969,318.359
1574211225.174,33.203,42.969,-201.660,29.297,4.395
1574211225.178,14.160,41.504,-424.805,12.207,-305.176
1574211225.182,31.250,28.320,182.617,25.391,-108.887
1574211225.186,57.617,27.832,488.770,42.969,282.715
1574211225.190,45.898,36.133,101.562,31.738,179.199
1574211225.194,20.508,39.062,-308.594,9.277,-183.594
1574211225.198,28.809,29.297,-31.738,17.090,-166.504
1574211225.202,55.176,17.090,420.410,44.434,221.191
1574211225.206,57.617,23.438,182.617,45.898,260.742
1574211225.209,24.902,36.133,-332.520,20.508,-145.996
1574211225.213,15.625,31.250,-179.199,15.625,-276.367
1574211225.217,48.828,26.367,328.125,41.016,96.680
1574211225.221,55.664,27.344,292.480,45.898,286.621
1574211225.225,26.855,36.621,-139.648,26.855,-30.273
1574211225.229,19.531,41.016,-269.531,20.508,-252.441
1574211225.233,47.852,26.855,211.426,40.527,-43.945
1574211225.237,67.871,23.926,481.934,53.711,307.617
1574211225.241,46.875,36.133,60.547,34.180,106.934
1574211225.245,23.438,39.551,-316.895,15.625,-207.520
1574211225.248,39.551,32.715,26.855,29.785,-117.676
1574211225.252,62.500,28.809,439.941,48.828,278.320
1574211225.256,51.758,37.109,129.883,39.551,184.082
1574211225.260,30.273,45.898,-345.215,18.555,-217.285
1574211225.264,30.762,41.016,-188.965,17.578,-199.707
1574211225.268,47.363,30.273,380.859,38.086,187.988
1574211225.272,45.410,29.297,400.879,39.062,298.828
1574211225.276,20.020,40.039,-244.629,15.625,-83.984
1574211225.280,18.066,41.504,-327.148,14.160,-256.836
1574211225.284,41.016,29.785,310.547,36.621,86.914
1574211225.288,43.457,21.973,463.867,39.551,347.168
1574211225.291,17.578,32.227,-145.996,13.184,12.695
1574211225.295,2.930,38.086,-379.883,-2.441,-233.398
1574211225.299,22.461,29.785,118.652,8.301,-36.133
1574211225.303,40.039,24.414,444.824,21.973,321.777
1574211225.307,23.926,35.645,-3.418,12.695,128.906
1574211225.311,-0.488,39.551,-386.230,-6.836,-199.707
1574211225.315,12.207,30.273,36.621,6.836,-102.539
1574211225.319,41.016,26.855,499.512,31.738,288.086
1574211225.323,40.039,37.109,106.934,28.809,230.957
1574211225.327,14.160,41.504,-483.398,5.859,-165.039
1574211225.331,15.137,32.715,-145.020,11.230,-201.172
1574211225.334,48.828,29.297,443.848,40.039,182.617
1574211225.338,58.105,29.297,287.598,40.039,312.012
1574211225.342,26.367,30.273,-308.594,15.137,-66.895
1574211225.346,10.254,28.809,-335.938,5.859,-280.762
1574211225.350,38.086,24.902,231.445,26.855,14.648
1574211225.354,56.152,28.320,318.848,39.062,317.871
1574211225.358,32.715,35.156,-169.922,18.066,0.000
1574211225.362,13.184,38.574,-280.762,7.812,-290.527
1574211225.366,39.551,30.273,146.973,30.762,-71.289
1574211225.370,62.988,22.949,440.430,51.270,320.312
1574211225.373,39.062,28.809,83.008,32.715,187.988
1574211225.377,8.301,38.086,-339.844,7.324,-165.527
1574211225.381,24.414,39.062,-99.609,22.949,-155.273
1574211225.385,52.246,34.180,391.602,44.922,251.465
1574211225.389,44.434,38.086,199.707,35.156,248.535
1574211225.393,20.996,47.363,-387.695,16.113,-191.406
1574211225.397,27.832,44.434,-319.336,17.090,-267.578
1574211225.401,52.734,27.344,249.512,35.156,127.441
1574211225.405,46.387,24.902,408.203,35.645,328.613
1574211225.409,16.113,32.715,-131.836,16.602,-69.336
1574211225.413,8.789,29.297,-332.520,12.695,-285.645
1574211225.416,33.691,24.414,223.145,32.227,12.695
1574211225.420,46.387,24.414,479.980,45.410,317.871
1574211225.424,26.855,32.715,-10.254,29.785,78.613
1574211225.428,4.883,34.668,-338.379,12.207,-170.898
1574211225.432,24.414,26.855,62.500,29.785,-53.711
1574211225.436,48.828,18.555,478.516,46.387,309.570
1574211225.440,35.645,24.902,105.957,33.203,218.750
1574211225.444,17.090,38.574,-494.141,14.160,-164.551
1574211225.448,20.996,29.785,-200.195,13.184,-169.922
1574211225.452,41.016,20.020,486.328,32.715,237.793
1574211225.456,44.922,31.250,281.250,38.086,288.574
1574211225.459,19.043,39.062,-303.711,15.137,-120.117
1574211225.463,16.602,34.180,-215.332,9.277,-239.746
1574211225.467,49.805,22.949,371.094,33.691,111.816
1574211225.471,59.570,28.320,392.578,48.340,366.699
1574211225.475,39.551,47.363,-209.473,27.344,2.930
1574211225.479,30.273,43.457,-334.473,13.184,-244.141
1574211225.483,51.270,29.785,207.031,37.109,5.371
1574211225.487,74.707,32.227,371.094,70.312,331.543
1574211225.491,52.246,41.504,-159.180,49.316,83.984
1574211225.495,18.066,39.551,-352.539,14.160,-236.328
1574211225.498,34.180,32.227,101.074,31.738,-101.562
1574211225.502,56.152,28.320,434.082,46.875,269.531
1574211225.506,50.293,34.668,131.836,37.598,209.473
1574211225.510,31.250,38.574,-347.656,22.949,-168.945
1574211225.514,22.949,27.344,-125.977,23.926,-198.242
1574211225.518,52.734,24.902,415.039,49.316,197.754
1574211225.522,62.988,35.156,300.781,57.129,287.109
1574211225.526,30.762,44.434,-247.559,32.715,-124.512
1574211225.530,24.902,39.551,-275.879,24.414,-305.664
1574211225.534,53.711,28.809,248.535,44.434,28.320
1574211225.538,62.012,31.250,389.648,45.898,341.309
1574211225.541,35.156,39.551,-84.961,24.902,29.297
1574211225.545,20.508,40.527,-300.781,16.602,-227.051
1574211225.549,40.039,30.762,64.453,26.367,-33.203
1574211225.553,51.758,20.996,426.758,36.133,316.406
1574211225.557,36.621,30.762,91.797,28.809,130.371
1574211225.561,19.531,44.922,-386.230,13.672,-245.117
1574211225.565,32.227,35.156,-83.984,16.113,-171.875
1574211225.569,50.293,23.926,425.781,30.762,239.258
1574211225.573,35.645,33.203,243.652,28.809,234.375
1574211225.577,12.695,39.551,-345.703,6.348,-165.527
1574211225.581,14.648,33.203,-254.395,0.488,-212.402
1574211225.584,38.574,20.508,346.680,19.043,192.383
1574211225.588,38.574,15.137,405.273,21.484,366.211
1574211225.592,14.648,24.902,-264.160,3.418,-29.297
1574211225.596,5.859,21.484,-470.703,-6.348,-262.207
1574211225.600,26.855,11.230,254.395,17.090,46.875
1574211225.604,41.504,19.043,484.863,34.668,361.328
1574211225.608,12.695,31.738,-111.328,12.207,64.941
1574211225.612,-8.301,28.809,-398.926,-8.301,-246.582
1574211225.616,13.184,16.113,120.117,5.371,-49.805
1574211225.620,43.945,19.531,489.746,33.691,356.934
1574211225.623,27.344,32.227,34.668,20.020,181.641
1574211225.627,-4.883,33.691,-439.453,-6.348,-195.312
1574211225.631,16.602,28.320,-121.582,9.277,-149.902
1574211225.635,48.828,22.949,443.848,33.691,227.539
1574211225.639,40.527,32.227,188.965,28.320,271.973
1574211225.643,17.090,35.156,-364.258,1.465,-134.766
1574211225.647,25.391,29.297,-116.699,15.137,-240.723
1574211225.651,67.871,31.250,411.621,53.223,128.418
1574211225.655,64.941,34.668,416.992,44.922,355.469
1574211225.659,29.297,44.922,-133.301,20.020,-14.160
1574211225.663,24.414,43.945,-302.734,17.578,-307.617
1574211225.666,53.711,33.203,226.562,38.574,-23.926
1574211225.670,82.520,37.109,465.820,60.059,340.332
1574211225.674,69.336,49.805,-20.020,46.387,109.375
1574211225.678,43.457,51.758,-354.004,32.227,-187.988
1574211225.682,63.965,42.480,9.277,51.270,-96.680
1574211225.686,82.031,35.645,369.629,63.965,249.512
1574211225.690,57.617,35.156,197.754,45.410,168.457
1574211225.694,40.039,38.574,-222.168,27.344,-180.664
1574211225.698,50.293,40.527,-85.938,36.133,-187.988
1574211225.702,70.801,28.320,442.871,49.316,194.824
1574211225.706,76.172,26.367,347.656,52.734,260.742
1574211225.709,48.828,43.457,-231.445,41.016,-117.188
1574211225.713,31.738,39.062,-214.844,15.137,-186.035
1574211225.717,49.805,24.414,345.703,24.902,131.836
1574211225.721,59.082,30.273,371.094,45.410,301.270
1574211225.725,39.062,41.504,-175.293,32.227,-18.555
1574211225.729,18.555,37.598,-422.852,8.789,-239.746
1574211225.733,31.250,16.602,98.145,11.719,-28.809
1574211225.737,51.758,8.301,517.090,28.809,319.336
1574211225.741,33.203,21.973,49.805,17.578,117.676
1574211225.745,0.000,24.902,-372.070,0.000,-229.980
1574211225.748,11.230,12.207,27.344,10.742,-144.531
1574211225.752,39.062,6.836,507.324,30.273,276.367
1574211225.756,38.574,18.555,146.484,33.691,228.516
1574211225.760,10.254,25.879,-401.367,9.277,-188.965
1574211225.764,7.324,21.484,-175.293,4.395,-253.906
1574211225.768,40.039,6.348,366.211,36.133,167.969
1574211225.772,40.039,11.230,210.938,38.086,267.090
1574211225.776,13.184,30.762,-372.559,5.859,-118.164
1574211225.780,1.953,28.809,-247.559,-0.977,-242.188
1574211225.784,22.949,19.531,338.379,25.391,33.691
1574211225.788,49.316,25.391,404.785,45.410,307.617
1574211225.791,31.738,39.551,-168.457,30.273,-22.461
1574211225.795,-0.488,36.621,-389.160,4.395,-341.309
1574211225.799,20.020,25.879,153.320,23.926,-105.957
1574211225.803,50.781,27.832,463.379,53.223,312.012
1574211225.807,38.574,34.668,41.016,37.109,117.188
1574211225.811,12.207,36.621,-368.164,2.930,-285.156
1574211225.815,29.297,26.367,-100.586,15.625,-217.773
1574211225.819,60.547,20.508,365.234,45.410,221.680
1574211225.823,54.199,33.691,227.051,46.875,233.887
1574211225.827,33.691,44.434,-241.211,33.691,-148.926
1574211225.831,38.574,39.062,-142.578,41.504,-185.547
1574211225.834,65.430,29.785,280.273,66.895,142.090
1574211225.838,68.359,34.668,321.289,54.688,299.316
1574211225.842,39.551,45.898,-148.438,24.414,-93.750
1574211225.846,32.227,41.992,-316.895,21.484,-310.547
1574211225.850,54.199,34.180,197.754,52.734,27.344
1574211225.854,59.570,38.086,471.680,56.152,371.094
1574211225.858,38.086,48.340,-14.160,34.180,74.219
1574211225.862,22.949,47.363,-468.750,17.090,-285.645
1574211225.866,35.645,39.551,-29.297,27.344,-97.656
1574211225.870,61.523,35.645,498.535,52.734,312.012
1574211225.873,48.340,41.992,167.480,39.062,200.195
1574211225.877,20.508,47.852,-434.570,13.184,-206.543
1574211225.881,28.320,38.086,-232.422,18.555,-218.262
1574211225.885,52.246,23.438,455.078,40.039,213.379
1574211225.889,39.551,23.438,320.312,33.691,300.781
1574211225.893,0.000,35.156,-299.805,3.418,-92.285
1574211225.897,1.465,38.574,-256.836,7.812,-258.789
1574211225.901,34.180,28.809,346.680,22.949,86.426
1574211225.905,34.180,26.855,403.320,14.648,372.070
1574211225.909,4.883,34.668,-208.984,-1.465,50.293
1574211225.913,-1.465,36.133,-392.090,-4.395,-260.742
1574211225.916,20.508,25.391,213.867,15.137,-21.484
1574211225.920,42.969,25.879,500.977,22.949,357.910
1574211225.924,26.367,36.621,-112.793,-1.465,115.723
1574211225.928,-6.348,28.320,-434.570,-12.695,-229.492
1574211225.932,-5.371,15.137,95.703,0.977,-98.145
1574211225.936,22.461,16.602,461.914,17.090,298.340
1574211225.940,24.414,23.438,148.438,25.391,261.230
1574211225.944,-10.742,30.762,-323.242,0.977,-151.367
1574211225.948,-2.930,34.668,-122.559,-13.184,-221.191
1574211225.952,39.062,25.879,401.855,17.578,211.914
1574211225.956,30.273,19.531,239.258,36.133,305.176
1574211225.959,8.301,32.227,-335.449,22.949,-145.996
1574211225.963,20.508,37.109,-246.582,11.719,-279.297
1574211225.967,53.223,29.297,306.641,34.180,95.703
1574211225.971,61.523,26.855,340.820,52.246,334.961
1574211225.975,33.691,36.133,-42.480,34.180,37.598
1574211225.979,25.391,45.898,-255.371,26.367,-203.613
1574211225.983,57.617,36.621,126.953,52.246,-29.785
1574211225.987,78.125,36.133,472.656,56.152,323.730
1574211225.991,51.758,51.758,82.031,17.578,137.695
1574211225.995,32.715,55.176,-340.820,8.301,-213.867
1574211225.998,46.387,40.527,-46.875,38.086,-139.160
1574211226.002,64.941,30.273,382.324,60.547,250.977
1574211226.006,60.059,41.992,150.391,62.012,240.234
1574211226.010,28.320,50.293,-331.055,27.832,-167.480
1574211226.014,32.715,44.922,-277.832,14.648,-266.602
1574211226.018,64.453,40.527,271.973,43.457,138.184
1574211226.022,68.359,41.016,407.227,43.945,319.824
1574211226.026,38.574,47.363,-199.707,16.113,-83.008
1574211226.030,17.578,47.363,-331.055,17.090,-274.902
1574211226.034,38.086,34.180,285.156,42.480,56.641
1574211226.038,59.570,33.203,473.633,47.363,368.652
1574211226.041,36.621,49.316,-104.980,36.621,63.477
1574211226.045,8.789,47.852,-424.316,14.160,-283.203
1574211226.049,23.926,25.879,51.758,15.137,-83.496
1574211226.053,49.316,17.578,459.961,31.250,348.145
1574211226.057,41.992,31.738,32.715,23.926,179.688
1574211226.061,6.836,41.992,-529.785,3.906,-206.543
1574211226.065,1.465,26.855,-101.074,0.488,-179.199
1574211226.069,34.180,15.625,511.719,21.973,243.652
1574211226.073,24.414,24.414,192.383,18.555,253.418
1574211226.077,-11.230,30.762,-370.605,-4.883,-158.203
1574211226.081,-8.301,26.367,-168.457,-8.789,-230.469
1574211226.084,24.414,18.066,421.387,16.113,177.246
1574211226.088,36.621,26.367,313.477,21.973,327.637
1574211226.092,5.859,34.180,-251.465,-7.324,-68.848
1574211226.096,-12.207,33.203,-309.082,-14.160,-227.051
1574211226.100,9.766,26.855,189.941,10.742,20.020
1574211226.104,23.926,23.438,342.773,25.879,324.707
1574211226.108,2.441,22.949,-127.441,-2.441,29.785
1574211226.112,-25.879,20.020,-304.199,-21.484,-310.059
1574211226.116,-6.836,15.625,107.422,9.277,-112.793
1574211226.120,26.855,12.695,466.309,27.344,322.754
1574211226.123,16.113,17.090,133.301,11.230,187.500
1574211226.127,-17.090,24.414,-311.035,-6.836,-187.500
1574211226.131,-4.883,24.902,-99.609,7.324,-130.859
1574211226.135,38.086,24.414,395.508,29.785,252.441
1574211226.139,36.133,29.785,301.758,18.555,322.266
1574211226.143,10.254,42.480,-301.758,2.930,-79.590
1574211226.147,18.066,44.922,-333.496,15.137,-234.863
1574211226.151,50.781,30.762,191.895,34.180,72.754
1574211226.155,54.199,25.391,399.414,31.738,312.012
1574211226.159,22.949,36.621,-56.152,15.137,4.883
1574211226.163,12.695,42.480,-337.402,9.766,-258.301
1574211226.166,35.156,31.250,171.387,25.879,-11.719
1574211226.170,55.176,28.809,507.324,38.086,351.074
1574211226.174,33.203,43.457,35.645,27.344,117.676
1574211226.178,9.277,48.828,-365.723,12.207,-220.703
1574211226.182,31.250,36.621,25.879,10.742,-99.609
1574211226.186,44.922,27.832,499.512,29.297,316.895
1574211226.190,28.320,36.133,161.621,33.691,250.000
1574211226.194,8.301,48.828,-473.145,0.000,-172.363
1574211226.198,13.184,41.016,-229.492,-0.488,-221.191
1574211226.202,42.480,29.297,488.770,30.273,174.805
1574211226.206,45.898,30.762,360.840,30.762,291.992
1574211226.209,12.207,37.109,-264.648,0.488,-114.746
1574211226.213,-0.488,36.133,-229.492,-15.137,-250.000
1574211226.217,22.949,21.484,360.352,7.324,103.027
1574211226.221,33.203,21.973,419.434,19.043,362.305
1574211226.225,8.301,30.762,-154.785,5.859,12.207
1574211226.229,-14.160,28.809,-339.844,-10.254,-294.922
1574211226.233,14.648,17.578,151.855,11.719,-91.309
1574211226.237,44.434,16.113,392.578,38.086,290.039
1574211226.241,25.879,29.297,-54.199,15.137,138.672
1574211226.245,1.465,31.250,-361.816,1.953,-224.609
1574211226.248,5.371,20.996,37.109,21.973,-148.438
1574211226.252,33.203,15.625,465.332,30.273,264.160
1574211226.256,37.598,26.855,220.703,21.484,264.648
1574211226.260,6.836,33.691,-247.070,6.836,-92.773
1574211226.264,11.230,20.020,-130.859,11.719,-154.785
1574211226.268,51.270,16.602,363.770,41.016,184.082
1574211226.272,60.059,28.809,327.148,48.340,323.730
1574211226.276,28.320,39.062,-191.406,19.043,-18.555
1574211226.280,14.160,41.992,-304.688,13.672,-226.562
1574211226.284,46.875,33.691,179.199,45.410,29.297
1574211226.288,65.430,29.785,367.188,56.641,321.777
1574211226.291,43.457,40.527,-59.570,36.621,17.090
1574211226.295,30.762,46.875,-300.293,25.391,-273.438
1574211226.299,51.758,39.062,3.418,38.574,-90.820
1574211226.303,67.871,33.203,365.723,52.734,282.227
1574211226.307,52.246,38.086,177.734,40.039,167.969
1574211226.311,27.832,44.434,-305.664,21.973,-168.457
1574211226.315,36.621,40.527,-101.074,33.691,-157.227
1574211226.319,57.617,36.133,434.570,48.828,208.008
1574211226.323,47.363,35.645,293.945,36.621,256.836
1574211226.327,22.949,35.645,-277.832,21.484,-107.422
1574211226.331,20.996,33.203,-264.648,17.090,-240.723
1574211226.334,46.387,23.438,333.984,32.715,116.699
1574211226.338,57.129,25.391,430.176,36.133,330.566
1574211226.342,34.668,40.527,-187.500,20.020,-12.695
1574211226.346,9.766,37.109,-433.594,8.789,-261.719
1574211226.350,20.508,18.066,242.676,17.578,-28.320
1574211226.354,38.086,19.043,541.504,26.855,338.379
1574211226.358,16.602,31.738,-67.383,4.883,58.594
1574211226.362,-4.883,31.738,-392.578,-8.789,-297.852
1574211226.366,7.812,19.531,79.102,10.742,-149.414
1574211226.370,32.227,13.184,490.723,28.809,285.156
1574211226.373,29.297,20.020,141.113,20.020,209.961
1574211226.377,1.465,28.320,-407.715,5.371,-221.191
1574211226.381,2.930,24.902,-166.992,3.906,-247.070
1574211226.385,32.227,16.113,472.656,28.320,203.613
1574211226.389,42.969,25.391,223.145,34.180,284.668
1574211226.393,14.648,33.691,-350.586,11.230,-123.535
1574211226.397,0.488,23.438,-134.277,4.883,-225.586
1574211226.401,33.691,11.719,322.266,31.250,65.430
1574211226.405,58.594,22.461,383.301,48.340,300.781
1574211226.409,20.996,36.621,-51.270,18.066,26.367
1574211226.413,-19.043,30.273,-289.062,-9.766,-248.047
1574211226.416,6.836,20.020,101.074,3.906,-71.289
1574211226.420,33.691,16.602,421.387,32.227,297.363
1574211226.424,12.695,28.809,4.395,6.348,111.816
1574211226.428,-16.113,41.016,-384.277,-34.668,-241.699
1574211226.432,7.324,38.086,-32.227,-13.672,-172.363
1574211226.436,33.691,31.738,316.406,13.672,230.957
1574211226.440,9.766,31.250,179.199,-1.953,217.773
1574211226.444,-22.461,33.203,-225.586,-21.484,-167.969
1574211226.448,-20.020,20.020,-153.320,-19.043,-224.121
1574211226.452,2.930,8.789,406.250,-7.324,184.082
1574211226.456,4.395,22.461,376.953,-7.812,314.941
1574211226.459,-23.926,35.156,-208.984,-19.043,-63.477
1574211226.463,-34.668,34.668,-291.504,-30.273,-218.262
1574211226.467,-2.930,24.902,251.953,-17.578,74.707
1574211226.471,19.043,30.273,391.602,0.488,354.004
1574211226.475,-8.301,41.992,-158.203,-8.789,26.367
1574211226.479,-21.484,35.645,-526.367,-16.113,-327.637
1574211226.483,5.859,20.508,0.488,-5.371,-130.371
1574211226.487,25.879,22.949,563.965,12.207,321.289
1574211226.491,20.508,41.016,111.816,12.695,158.203
1574211226.495,2.441,46.387,-395.020,-6.348,-238.770
1574211226.498,5.859,35.156,-19.531,-0.977,-138.184
1574211226.502,34.668,25.879,483.887,28.320,284.180
1574211226.506,37.109,26.855,187.012,26.855,279.297
1574211226.510,10.742,36.621,-361.816,-3.418,-77.637
1574211226.514,12.695,37.109,-216.797,-3.418,-207.031
1574211226.518,41.504,21.484,308.594,30.762,116.211
1574211226.522,45.898,14.648,266.113,36.621,305.176
1574211226.526,18.555,20.996,-331.055,4.883,-53.223
1574211226.530,6.836,20.020,-344.727,-2.930,-260.742
1574211226.534,31.250,19.043,288.574,20.020,5.371
1574211226.538,50.781,29.297,433.594,34.668,321.777
1574211226.541,29.297,37.109,-89.355,16.602,41.016
1574211226.545,7.324,36.621,-340.820,-2.930,-262.695
1574211226.549,25.391,31.250,78.125,13.672,-93.262
1574211226.553,48.828,29.785,450.684,41.504,328.125
1574211226.557,38.574,35.156,101.074,36.133,211.426
1574211226.561,13.672,38.086,-374.023,7.812,-227.051
1574211226.565,20.508,29.297,-179.199,9.766,-217.285
1574211226.569,44.434,17.578,372.070,34.668,231.934
1574211226.573,40.527,23.926,282.227,33.691,298.828
1574211226.577,11.230,34.668,-274.414,12.695,-97.168
1574211226.581,14.160,32.227,-230.957,13.184,-217.285
1574211226.584,53.711,28.809,178.223,33.691,90.820
1574211226.588,60.059,31.738,273.438,40.039,309.082
1574211226.592,24.414,40.039,-86.914,20.508,8.789
1574211226.596,11.230,42.480,-327.637,4.395,-238.770
1574211226.600,37.598,30.762,145.508,26.855,-19.043
1574211226.604,51.758,26.367,517.090,42.969,357.910
1574211226.608,34.668,36.621,87.402,29.785,145.996
1574211226.612,17.578,41.992,-395.020,14.648,-210.449
1574211226.616,28.809,35.645,-50.781,15.137,-126.953
1574211226.620,52.246,31.250,524.414,33.203,279.785
1574211226.623,38.574,42.480,272.949,28.809,211.914
1574211226.627,10.254,51.270,-366.211,10.254,-231.445
1574211226.631,18.066,46.875,-205.566,13.672,-270.996
1574211226.635,30.273,32.227,494.629,21.484,177.246
1574211226.639,20.020,34.180,364.258,18.066,312.988
1574211226.643,-5.859,43.945,-252.441,3.418,-64.453
1574211226.647,-27.832,36.621,-216.797,-21.484,-238.281
1574211226.651,-10.254,25.391,374.512,-12.695,92.285
1574211226.655,2.441,25.391,482.422,1.465,381.348
1574211226.659,-22.461,39.551,-135.254,-15.137,62.500
1574211226.663,-36.621,41.504,-368.652,-28.320,-229.492
1574211226.666,-28.809,29.785,201.660,-29.785,-41.016
1574211226.670,-14.648,21.973,542.480,-16.113,339.355
1574211226.674,-25.391,25.391,-17.090,-25.391,152.344
1574211226.678,-57.617,29.785,-404.785,-66.406,-217.285
1574211226.682,-48.340,27.832,93.750,-60.547,-107.910
1574211226.686,-25.879,22.461,483.398,-39.551,270.996
1574211226.690,-38.086,26.367,196.289,-50.293,250.488
1574211226.694,-54.199,41.504,-246.094,-64.941,-101.562
1574211226.698,-55.176,36.133,-143.555,-67.383,-197.754
1574211226.702,-33.203,25.879,343.262,-45.898,168.457
1574211226.706,-20.996,35.645,285.645,-38.086,291.504
1574211226.709,-43.457,49.316,-236.328,-58.594,-58.594
1574211226.713,-60.547,44.922,-220.215,-68.359,-214.844
1574211226.717,-25.391,30.762,243.164,-36.621,29.297
1574211226.721,-1.953,29.297,328.613,-22.461,310.059
1574211226.725,-31.738,36.621,-44.922,-46.387,15.137
1574211226.729,-41.016,41.992,-279.785,-45.898,-282.227
1574211226.733,-18.066,33.691,79.102,-25.879,-120.117
1574211226.737,-8.301,20.020,446.777,-12.695,273.926
1574211226.741,-16.113,30.273,135.742,-18.066,171.387
1574211226.745,-24.902,40.527,-307.617,-38.574,-177.734
1574211226.748,-7.812,35.645,-72.754,-29.297,-178.223
1574211226.752,21.973,34.180,416.016,7.812,237.793
1574211226.756,13.672,35.156,231.445,8.789,267.578
1574211226.760,-20.020,35.156,-319.336,-20.508,-166.992
1574211226.764,-17.578,32.227,-296.387,-20.020,-241.211
1574211226.768,17.090,24.902,309.082,10.742,141.113
1574211226.772,25.391,27.344,459.961,16.602,330.078
1574211226.776,0.977,35.156,-143.555,-8.789,-15.625
1574211226.780,-8.789,32.227,-345.703,-14.648,-255.859
1574211226.784,10.254,18.555,222.168,10.254,-3.418
1574211226.788,27.832,16.113,493.652,26.367,357.422
1574211226.791,11.230,33.203,-46.875,4.883,108.887
1574211226.795,-8.301,35.156,-428.711,-10.254,-270.996
1574211226.799,5.859,14.160,1.953,5.371,-127.930
1574211226.803,26.855,6.348,461.914,23.926,298.340
1574211226.807,27.344,20.508,97.168,22.949,198.242
1574211226.811,3.418,31.738,-452.637,-6.836,-168.945
1574211226.815,2.441,23.438,-75.195,-3.906,-195.312
1574211226.819,35.645,8.789,515.625,30.762,202.148
1574211226.823,31.738,14.160,259.766,28.809,250.977
1574211226.827,-0.488,23.438,-291.504,10.254,-125.488
1574211226.831,4.395,21.484,-209.473,17.578,-262.207
1574211226.834,39.062,18.066,318.848,43.457,47.363
1574211226.838,50.293,17.090,376.953,49.316,319.824
1574211226.842,21.973,22.461,-155.273,22.461,-8.301
1574211226.846,10.254,28.320,-365.723,10.742,-221.680
1574211226.850,37.109,23.438,118.164,33.691,-13.184
1574211226.854,55.176,20.996,355.469,54.199,298.340
1574211226.858,39.062,32.227,-47.363,38.086,111.328
1574211226.862,22.461,39.062,-270.508,14.160,-226.562
1574211226.866,44.434,34.668,17.090,30.273,-161.133
1574211226.870,73.242,28.809,415.527,57.129,248.047
1574211226.873,69.336,31.738,185.059,47.852,175.293
1574211226.877,42.969,39.551,-266.113,21.973,-192.871
1574211226.881,43.945,37.109,-122.559,28.320,-205.566
1574211226.885,71.777,28.320,381.836,49.805,170.898
1574211226.889,75.684,36.621,362.305,53.223,325.195
1574211226.893,47.363,46.387,-266.113,40.039,-88.867
1574211226.897,38.574,38.086,-371.094,33.691,-297.852
1574211226.901,63.965,26.855,176.270,48.828,24.414
1574211226.905,75.684,28.809,442.383,62.988,315.430
1574211226.909,46.387,36.621,-5.371,43.945,51.270
1574211226.913,19.531,30.273,-346.680,20.996,-213.379
1574211226.916,41.016,19.043,117.188,39.062,-35.156
1574211226.920,68.848,16.113,483.398,65.430,321.777
1574211226.924,55.176,21.973,33.691,55.664,132.324
1574211226.928,20.020,28.320,-369.141,27.832,-219.727
1574211226.932,33.203,26.367,-6.836,38.574,-156.738
1574211226.936,63.965,16.113,473.633,65.430,250.488
1574211226.940,54.688,19.531,182.129,64.453,249.023
1574211226.944,24.902,30.273,-451.660,30.762,-162.109
1574211226.948,19.531,23.926,-281.250,15.625,-270.508
1574211226.952,42.480,9.277,452.637,40.527,123.535
1574211226.956,50.781,12.695,407.715,53.711,317.871
1574211226.959,20.996,21.973,-216.309,30.273,-63.965
1574211226.963,2.930,14.648,-253.906,21.484,-260.254
1574211226.967,31.250,9.277,311.035,44.434,30.273
1574211226.971,53.223,20.020,433.105,45.898,324.219
1574211226.975,28.320,30.762,-80.078,22.461,37.598
1574211226.979,0.488,29.297,-372.070,5.371,-312.012
1574211226.983,20.996,19.531,81.055,26.855,-131.836
1574211226.987,52.246,18.066,453.125,48.828,313.477
1574211226.991,44.922,33.691,-26.855,26.855,166.992
1574211226.995,12.207,42.480,-349.609,9.766,-211.914
1574211226.998,13.672,32.227,58.594,20.020,-157.715
1574211227.002,47.363,27.344,469.238,34.180,254.395
1574211227.006,47.852,37.598,260.254,29.785,286.133
1574211227.010,20.996,46.387,-241.211,8.301,-129.883
1574211227.014,25.391,46.875,-173.828,9.277,-236.328
1574211227.018,52.246,43.945,348.633,31.250,132.812
1574211227.022,58.105,46.875,379.395,32.715,337.891
1574211227.026,37.109,58.594,-119.141,18.066,-21.484
1574211227.030,26.367,62.500,-283.691,9.766,-288.086
1574211227.034,43.945,48.828,188.477,19.043,-11.230
1574211227.038,60.059,44.922,429.688,35.645,359.863
1574211227.041,34.668,55.664,-24.414,17.090,95.215
1574211227.045,11.230,58.594,-296.387,-3.418,-247.070
1574211227.049,36.621,52.734,-30.273,10.742,-147.949
1574211227.053,48.340,40.527,391.113,21.484,278.809
1574211227.057,30.273,42.480,252.930,12.207,228.027
1574211227.061,7.324,49.316,-304.688,-4.395,-191.895
1574211227.065,14.648,35.156,-124.023,5.859,-206.543
1574211227.069,49.805,25.879,439.453,37.109,211.914
1574211227.073,54.199,40.527,311.523,41.016,294.434
1574211227.077,25.879,45.410,-283.203,20.508,-129.395
1574211227.081,17.578,33.203,-302.734,27.832,-265.625
1574211227.084,51.758,22.461,278.320,59.082,89.355
1574211227.088,72.754,17.578,468.750,72.266,367.676
1574211227.092,58.594,32.715,-135.742,55.176,35.645
1574211227.096,56.641,38.574,-472.656,37.598,-286.133
1574211227.100,85.938,22.461,195.801,62.012,-32.715
1574211227.104,111.328,20.996,547.852,94.727,359.375
1574211227.108,100.098,28.320,35.156,83.496,185.547
1574211227.112,80.566,28.320,-354.492,65.918,-182.129
1574211227.116,98.633,16.602,6.348,84.473,-161.621
1574211227.120,134.766,11.719,469.238,115.723,291.504
1574211227.123,130.859,23.438,180.664,104.980,241.699
1574211227.127,99.121,28.809,-333.984,81.055,-165.527
1574211227.131,99.609,17.090,-110.840,97.168,-191.406
1574211227.135,132.812,7.812,518.555,129.395,217.285
1574211227.139,144.043,19.043,341.309,128.418,372.559
1574211227.143,117.676,29.785,-252.930,94.238,-68.848
1574211227.147,104.492,22.949,-131.836,88.867,-278.809
1574211227.151,141.113,16.113,354.004,118.652,53.711
1574211227.155,158.203,19.043,488.770,128.906,374.512
1574211227.159,131.348,29.297,28.320,105.957,43.457
1574211227.163,119.141,36.133,-249.023,92.773,-300.293
1574211227.166,132.812,28.809,159.668,112.305,-92.773
1574211227.170,154.297,23.438,503.418,135.254,347.168
1574211227.174,144.043,35.156,103.027,126.953,199.707
1574211227.178,117.676,41.016,-314.453,98.145,-198.242
1574211227.182,125.488,30.762,-53.711,94.238,-178.711
1574211227.186,148.926,24.902,334.961,111.328,239.746
1574211227.190,133.789,30.762,264.160,104.004,291.992
1574211227.194,91.797,40.039,-217.773,75.684,-103.027
1574211227.198,84.961,37.109,-248.535,72.266,-234.863
1574211227.202,105.469,25.879,289.062,92.773,141.113
1574211227.206,109.375,26.367,302.734,92.773,351.562
1574211227.209,82.520,36.621,-295.898,70.312,-33.203
1574211227.213,67.383,36.621,-376.465,56.152,-269.043
1574211227.217,85.449,27.344,149.902,71.777,-20.508
1574211227.221,97.168,25.391,323.242,84.961,314.453
1574211227.225,76.172,29.785,-95.215,59.570,85.449
1574211227.229,53.223,32.227,-488.281,37.598,-251.465
1574211227.233,62.012,26.367,-103.516,50.293,-126.465
1574211227.237,81.055,18.066,487.305,71.289,319.336
1574211227.241,71.289,24.414,83.008,62.500,203.125
1574211227.245,39.551,34.668,-477.539,37.598,-215.332
1574211227.248,39.062,23.926,-194.336,39.062,-225.586
1574211227.252,71.289,16.113,348.145,63.477,182.617
1574211227.256,75.684,28.809,174.805,59.570,291.992
1574211227.260,43.945,38.086,-405.273,35.156,-74.219
1574211227.264,29.785,30.762,-396.484,34.180,-256.836
1574211227.268,54.688,19.531,157.715,61.035,37.109
1574211227.272,65.918,23.926,222.656,68.359,264.648
1574211227.276,35.156,29.785,-344.727,37.109,-27.832
1574211227.280,13.672,26.367,-406.250,20.996,-272.949
1574211227.284,41.016,20.508,187.500,38.086,-63.477
1574211227.288,53.711,17.578,405.762,63.477,327.637
1574211227.291,36.621,24.902,-89.844,54.688,87.402
1574211227.295,27.344,30.273,-406.250,29.785,-244.141
1574211227.299,39.062,23.926,-8.789,32.227,-117.188
1574211227.303,67.383,22.461,407.227,52.734,279.785
1574211227.307,56.152,28.320,115.723,42.480,228.027
1574211227.311,26.367,34.668,-396.484,16.602,-170.410
1574211227.315,33.691,31.738,-228.516,11.230,-210.449
1574211227.319,62.012,21.973,270.020,33.691,177.734
1574211227.323,62.988,23.926,229.004,43.457,247.559
1574211227.327,30.273,30.273,-166.504,18.066,-90.332
1574211227.331,18.555,33.691,-186.035,20.508,-191.895
1574211227.334,50.781,28.320,331.055,61.035,64.941
1574211227.338,66.895,27.832,488.281,51.758,306.152
1574211227.342,27.832,36.621,-55.176,20.020,-28.809
1574211227.346,0.000,35.645,-354.492,6.836,-319.824
1574211227.350,29.785,25.391,147.949,23.438,-94.238
1574211227.354,62.012,20.020,546.387,49.316,296.387
1574211227.358,44.922,30.762,112.305,36.133,94.727
1574211227.362,15.625,37.109,-427.734,7.324,-300.781
1574211227.366,26.855,28.809,-123.535,6.836,-211.426
1574211227.370,44.922,21.973,572.754,36.133,242.676
1574211227.373,35.156,28.809,394.531,30.273,249.023
1574211227.377,17.090,32.715,-284.668,7.812,-103.516
1574211227.381,17.578,26.855,-147.949,11.230,-187.500
1574211227.385,48.340,18.555,522.461,35.156,144.043
1574211227.389,59.082,22.949,488.770,53.223,301.270
1574211227.393,33.691,35.156,-187.988,22.461,-87.891
1574211227.397,21.484,29.785,-276.367,7.324,-277.832
1574211227.401,44.922,14.160,360.352,41.504,6.348
1574211227.405,64.453,14.648,563.477,55.176,315.918
1574211227.409,44.434,27.832,-47.363,40.527,62.012
1574211227.413,17.090,31.738,-385.254,17.090,-192.383
1574211227.416,31.738,22.949,184.082,35.156,-52.734
1574211227.420,66.406,20.020,619.629,70.312,313.477
1574211227.424,61.035,34.180,37.598,51.270,123.535
1574211227.428,31.250,40.039,-438.477,19.531,-254.395
1574211227.432,38.086,30.273,0.000,26.855,-159.668
1574211227.436,76.660,24.902,498.535,61.035,223.633
1574211227.440,72.266,32.715,310.059,58.594,254.883
1574211227.444,36.133,38.574,-309.082,24.414,-162.598
1574211227.448,25.391,34.180,-236.816,17.578,-264.160
1574211227.452,55.664,25.879,373.047,49.805,102.539
1574211227.456,66.895,30.273,371.094,55.176,303.223
1574211227.459,39.551,41.992,-287.598,26.367,-76.660
1574211227.463,25.879,36.621,-405.273,14.160,-319.336
1574211227.467,47.852,27.832,186.035,37.109,-73.730
1574211227.471,64.453,31.250,448.242,56.641,283.691
1574211227.475,39.551,39.062,46.387,29.297,101.562
1574211227.479,16.113,44.434,-351.074,2.441,-198.242
1574211227.483,38.086,38.086,-22.949,31.250,-130.859
1574211227.487,59.570,28.809,468.262,46.875,265.137
1574211227.491,40.039,35.645,188.965,18.066,188.477
1574211227.495,11.230,43.457,-359.375,9.766,-139.160
1574211227.498,13.184,29.785,-130.371,24.414,-142.090
1574211227.502,44.922,20.508,441.406,41.992,184.082
1574211227.506,49.316,29.785,343.262,37.598,285.156
1574211227.510,17.090,41.016,-269.531,0.000,-102.051
1574211227.514,9.277,41.504,-392.578,-4.395,-284.668
1574211227.518,41.504,27.344,303.223,28.320,46.387
1574211227.522,51.270,19.531,612.305,39.551,302.734
1574211227.526,23.438,31.250,-99.609,5.859,-40.039
1574211227.530,8.301,26.855,-403.809,-5.371,-254.883
1574211227.534,25.391,9.277,248.535,20.508,-34.668
1574211227.538,46.387,15.137,634.277,37.109,309.570
1574211227.541,31.738,31.250,30.762,31.738,80.566
1574211227.545,10.254,32.227,-500.488,2.441,-225.098
1574211227.549,26.367,21.484,-24.902,22.949,-97.656
1574211227.553,53.223,18.066,560.059,52.734,265.625
1574211227.557,48.828,26.367,187.988,42.969,230.469
1574211227.561,24.902,35.645,-516.113,14.160,-137.207
1574211227.565,22.949,26.367,-197.266,16.602,-244.141
1574211227.569,55.176,12.695,580.078,61.035,125.488
1574211227.573,58.594,20.996,456.543,57.129,331.543
1574211227.577,20.996,33.203,-292.480,20.020,-56.641
1574211227.581,12.695,30.273,-352.051,20.020,-294.434
1574211227.584,48.340,19.043,393.555,50.293,42.480
1574211227.588,67.383,18.066,581.055,68.848,336.914
1574211227.592,47.852,30.273,-99.609,44.434,-13.184
1574211227.596,34.668,35.645,-445.312,20.996,-222.656
1574211227.600,55.664,27.832,171.387,47.363,-29.297
1574211227.604,75.195,26.855,617.676,66.406,329.590
1574211227.608,61.035,39.062,135.254,47.363,173.340
1574211227.612,30.273,48.828,-360.840,12.695,-192.383
1574211227.616,39.551,38.086,8.301,20.996,-142.578
1574211227.620,74.219,26.855,548.340,57.617,261.230
1574211227.623,66.406,36.133,294.922,45.410,233.398
1574211227.627,32.227,47.363,-298.828,13.184,-143.066
1574211227.631,34.668,42.480,-210.449,16.602,-186.035
1574211227.635,59.082,28.320,497.559,51.270,178.223
1574211227.639,59.082,33.203,541.016,49.316,376.465
1574211227.643,36.133,47.852,-289.551,13.672,-44.922
1574211227.647,22.461,38.574,-517.578,12.695,-281.250
1574211227.651,46.387,25.879,176.758,37.598,-16.602
1574211227.655,60.059,28.809,614.258,46.387,339.355
1574211227.659,35.156,42.969,-20.996,29.785,43.457
1574211227.663,10.742,45.898,-557.129,2.930,-264.648
1574211227.666,32.715,31.250,50.781,22.461,-60.059
1574211227.670,49.805,21.973,649.902,43.945,364.258
1574211227.674,35.156,27.344,166.992,23.926,216.797
1574211227.678,12.207,35.645,-564.453,-2.441,-213.379
1574211227.682,13.672,24.414,-213.867,5.859,-220.703
1574211227.686,48.828,17.090,540.527,41.504,205.566
1574211227.690,48.340,26.855,318.848,36.621,310.547
1574211227.694,14.648,35.156,-557.617,-0.977,-92.773
1574211227.698,5.859,26.855,-482.422,-9.277,-251.953
1574211227.702,29.297,10.742,475.098,27.344,108.398
1574211227.706,47.363,11.230,539.551,51.270,348.633
1574211227.709,23.438,24.414,-276.855,18.066,-6.836
1574211227.713,8.789,21.484,-517.090,-10.742,-254.395
1574211227.717,31.250,7.812,184.570,16.113,-45.898
1574211227.721,45.898,7.324,588.379,37.598,367.676
1574211227.725,28.320,19.043,-51.758,22.461,135.254
1574211227.729,4.883,23.438,-551.270,0.000,-173.340
1574211227.733,19.043,19.043,-33.203,15.137,-78.125
1574211227.737,57.129,18.555,492.188,51.270,320.312
1574211227.741,54.688,22.949,-1.953,36.621,251.465
1574211227.745,19.531,27.344,-608.398,-1.953,-172.363
1574211227.748,22.949,25.391,-253.906,8.301,-213.867
1574211227.752,65.430,22.461,438.477,46.387,216.309
1574211227.756,71.777,30.762,301.758,46.387,349.121
1574211227.760,37.109,45.410,-479.004,10.254,-81.543
1574211227.764,29.785,45.898,-562.988,16.602,-288.574
1574211227.768,59.570,34.668,232.910,50.781,46.875
1574211227.772,81.055,34.668,415.527,59.082,366.211
1574211227.776,54.199,46.875,-365.723,22.949,-13.672
1574211227.780,27.832,47.852,-734.863,0.977,-338.379
1574211227.784,49.805,34.668,-37.598,27.344,-99.121
1574211227.788,78.125,29.785,554.688,51.270,420.410
1574211227.791,54.199,48.340,-44.922,23.438,194.824
1574211227.795,11.230,55.176,-802.734,-13.184,-267.578
1574211227.799,19.043,41.992,-402.832,-1.953,-193.848
1574211227.803,53.223,26.367,522.949,33.203,312.500
1574211227.807,42.480,27.344,340.332,26.367,365.723
1574211227.811,1.465,47.852,-739.258,-17.090,-168.945
1574211227.815,-1.465,44.922,-651.855,-8.789,-347.656
1574211227.819,41.992,21.484,532.227,28.809,176.270
1574211227.823,52.734,22.949,641.113,28.809,456.543
1574211227.827,4.883,33.691,-503.418,-3.906,-24.902
1574211227.831,-13.184,32.227,-870.605,-14.160,-332.520
1574211227.834,26.855,18.066,195.312,21.973,-27.832
1574211227.838,54.688,10.254,814.453,42.969,453.125
1574211227.842,20.020,27.344,-145.508,11.719,111.816
1574211227.846,-13.184,35.156,-900.391,-25.391,-286.133
1574211227.850,13.672,9.277,24.902,-5.859,-126.953
1574211227.854,52.734,-4.395,962.402,40.039,410.645
1574211227.858,37.598,20.508,182.617,20.020,261.230
1574211227.862,-15.625,40.039,-907.227,-32.715,-288.574
1574211227.866,-8.301,18.066,-286.621,-9.277,-281.250
1574211227.870,41.992,-2.441,894.043,39.551,322.266
1574211227.873,45.410,13.184,600.586,32.715,416.992
1574211227.877,2.441,33.203,-710.938,-14.648,-189.941
1574211227.881,-5.371,24.414,-727.051,-17.578,-397.461
1574211227.885,31.250,0.488,607.422,25.391,140.625
1574211227.889,57.129,7.812,822.266,38.086,553.223
1574211227.893,18.555,35.156,-457.520,-1.465,-8.301
1574211227.897,-12.695,39.062,-871.582,-22.461,-411.133
1574211227.901,41.016,22.461,333.008,25.391,-20.508
1574211227.905,80.078,20.020,-915.039,51.270,593.750
1574211227.909,41.504,42.969,41.504,11.230,216.797
1574211227.913,4.395,53.223,-1000.000,-13.672,-325.195
1574211227.916,30.273,33.203,-139.160,15.137,-199.707
1574211227.920,76.660,20.508,-916.504,59.082,539.062
1574211227.924,64.941,43.457,396.973,46.875,464.844
1574211227.928,14.648,59.570,-943.359,-7.324,-252.930
1574211227.932,20.020,38.574,-492.676,0.488,-361.328
1574211227.936,78.125,20.020,843.750,54.199,363.281
1574211227.940,80.078,31.738,746.094,52.246,655.273
1574211227.944,18.066,59.082,-631.836,-5.371,-128.418
1574211227.948,-0.977,57.617,-843.750,-29.785,-495.117
1574211227.952,52.734,24.414,491.699,32.227,118.164
1574211227.956,77.637,17.578,997.559,66.895,709.473
1574211227.959,32.227,50.781,-278.320,12.207,104.004
1574211227.963,-15.137,56.152,-1000.000,-30.762,-455.078
1574211227.967,25.391,26.367,215.332,17.090,-115.723
1574211227.971,80.078,14.648,-854.492,61.035,706.055
1574211227.975,40.527,33.691,101.562,23.438,342.773
1574211227.979,-15.625,49.805,-1000.000,-28.809,-409.668
1574211227.983,1.953,27.344,-208.984,-16.113,-295.898
1574211227.987,61.035,-0.488,-851.074,50.293,564.941
1574211227.991,58.105,19.531,478.027,37.109,557.617
1574211227.995,-7.324,44.434,-942.871,-27.832,-265.137
1574211227.998,-14.160,25.879,-568.848,-20.996,-464.355
1574211228.002,46.387,-0.488,895.020,38.574,346.191
1574211228.006,62.012,15.137,767.090,50.781,732.910
1574211228.010,-0.488,45.898,-657.715,-16.113,-104.492
1574211228.014,-27.832,40.039,-856.934,-38.574,-516.113
1574211228.018,30.762,7.812,491.211,31.738,42.480
1574211228.022,73.730,4.883,-993.652,66.895,752.441
1574211228.026,27.832,40.527,-302.246,8.301,131.836
1574211228.030,-26.855,44.434,-1000.000,-45.410,-469.727
1574211228.034,12.695,12.695,164.551,-4.395,-142.578
1574211228.038,74.707,1.953,-847.168,54.688,682.617
1574211228.041,49.805,30.762,191.406,31.250,412.598
1574211228.045,-11.719,52.734,-1000.000,-33.203,-409.180
1574211228.049,-2.441,27.832,-312.500,-21.973,-415.039
1574211228.053,65.430,4.395,-911.621,51.270,483.398
1574211228.057,81.055,26.855,524.902,53.223,582.031
1574211228.061,15.137,54.688,-897.949,-8.301,-333.008
1574211228.065,3.418,38.086,-667.969,-17.578,-553.223
1574211228.069,74.219,14.648,740.234,47.363,222.656
1574211228.073,100.586,28.320,896.973,64.941,693.848
1574211228.077,38.086,57.617,-459.961,3.418,-104.980
1574211228.081,4.395,59.570,-910.645,-26.855,-598.633
1574211228.084,57.129,29.297,387.207,37.598,-40.527
1574211228.088,101.562,23.438,-926.270,84.473,754.395
1574211228.092,56.152,46.875,-103.027,40.527,208.984
1574211228.096,-0.977,57.617,-1000.000,-13.672,-499.512
1574211228.100,30.762,32.227,-41.016,17.578,-261.230
1574211228.104,89.355,14.160,-825.684,69.336,648.438
1574211228.108,65.918,40.039,291.992,45.410,439.453
1574211228.112,-1.465,64.453,-1000.000,-10.254,-461.426
1574211228.116,6.836,43.457,-444.336,-4.883,-524.902
1574211228.120,69.336,15.625,-980.957,58.594,415.527
1574211228.123,64.453,25.391,673.340,54.199,648.926
1574211228.127,-7.812,51.270,-794.922,-14.648,-250.000
1574211228.131,-15.137,42.480,-691.895,-32.715,-550.293
1574211228.135,45.410,6.348,742.188,32.715,175.293
1574211228.139,73.242,13.672,940.918,68.359,759.277
1574211228.143,13.672,49.316,-402.832,6.836,-29.297
1574211228.147,-30.273,47.363,-958.008,-42.480,-555.664
1574211228.151,22.461,15.137,318.359,8.789,-85.938
1574211228.155,71.777,2.441,-862.305,62.500,762.695
1574211228.159,33.691,25.391,-33.203,11.230,290.039
1574211228.163,-27.832,42.480,-1000.000,-49.316,-536.621
1574211228.166,1.953,18.066,-78.125,-17.090,-395.996
1574211228.170,65.430,-1.465,-821.777,49.805,587.402
1574211228.174,53.711,23.926,297.852,32.227,505.859
1574211228.178,-16.602,50.781,-1000.000,-46.387,-479.492
1574211228.182,-15.625,32.227,-419.922,-41.504,-588.379
1574211228.186,60.059,3.906,-993.164,39.062,400.391
1574211228.190,68.848,18.555,710.449,59.570,745.605
1574211228.194,4.395,48.340,-715.820,-8.789,-239.258
1574211228.198,-18.066,43.945,-772.461,-28.320,-626.953
1574211228.202,46.875,14.160,629.883,40.039,122.070
1574211228.206,91.309,6.836,979.004,78.613,816.406
1574211228.209,37.109,38.574,-337.891,19.531,78.125
1574211228.213,-13.672,48.828,-1000.000,-27.344,-601.562
1574211228.217,36.133,11.719,192.871,28.320,-216.309
1574211228.221,97.656,0.977,-813.477,75.195,732.910
1574211228.225,60.059,42.969,150.391,25.879,361.816
1574211228.229,2.930,68.848,-1000.000,-24.414,-519.531
1574211228.233,20.020,41.016,-206.543,6.348,-439.941
1574211228.237,84.473,16.113,-870.117,59.082,570.312
1574211228.241,81.543,38.574,502.441,61.035,666.016
1574211228.245,12.695,72.754,-949.707,6.836,-323.242
1574211228.248,7.324,58.594,-577.148,-16.113,-554.199
1574211228.252,73.730,25.391,877.441,51.758,344.238
1574211228.256,99.609,35.645,789.551,75.684,776.855
1574211228.260,33.203,65.430,-583.496,-2.930,-114.258
1574211228.264,-11.230,53.223,-934.570,-32.715,-611.328
1574211228.268,51.758,13.672,386.719,33.203,-9.766
1574211228.272,93.262,9.277,-934.082,67.871,796.875
1574211228.276,33.203,43.457,-193.359,10.254,115.234
1574211228.280,-23.438,51.270,-1000.000,-41.992,-674.805
1574211228.284,16.113,15.625,61.035,7.324,-311.035
1574211228.288,79.102,0.977,-805.176,56.641,709.961
1574211228.291,53.223,33.203,233.398,36.133,472.168
1574211228.295,-21.973,51.270,-1000.000,-22.949,-497.559
1574211228.299,-7.812,22.461,-366.211,-18.555,-562.988
1574211228.303,72.754,-3.906,-905.762,56.152,499.512
1574211228.307,77.637,22.461,521.973,59.082,638.672
1574211228.311,-3.906,59.570,-975.586,-20.508,-389.160
1574211228.315,-22.949,37.109,-592.285,-39.062,-629.395
1574211228.319,54.688,-2.930,861.816,37.598,257.324
1574211228.323,87.891,6.348,827.148,66.406,821.289
1574211228.327,28.320,45.898,-539.551,0.000,-58.594
1574211228.331,-20.508,49.805,-929.199,-41.016,-648.926
1574211228.334,34.180,13.184,374.023,15.625,-90.820
1574211228.338,88.379,6.836,-895.508,60.059,847.168
1574211228.342,35.156,41.992,-98.633,20.996,227.539
1574211228.346,-19.531,55.664,-1000.000,-30.273,-636.230
1574211228.350,19.531,24.414,-25.879,3.418,-354.492
1574211228.354,83.984,6.348,-833.008,59.082,672.363
1574211228.358,62.988,34.668,279.297,31.738,484.863
1574211228.362,-11.230,53.711,-1000.000,-26.367,-459.473
1574211228.366,0.000,29.297,-410.156,-9.277,-532.227
1574211228.370,72.266,1.953,-980.957,60.059,407.715
1574211228.373,79.102,19.531,667.480,63.477,688.965
1574211228.377,11.719,59.570,-751.953,-2.930,-294.434
1574211228.381,-7.812,54.688,-778.320,-15.137,-684.570
1574211228.385,55.176,18.555,599.609,49.316,82.031
1574211228.389,85.938,21.484,948.242,78.125,790.527
1574211228.393,34.668,57.617,-368.164,22.461,-2.930
1574211228.397,-7.324,61.523,-1000.000,-28.809,-691.895
1574211228.401,33.203,26.855,129.395,16.113,-233.887
1574211228.405,79.590,11.230,-845.703,72.266,732.910
1574211228.409,28.320,35.645,74.219,22.461,270.020
1574211228.413,-17.090,44.922,-1000.000,-27.344,-561.523
1574211228.416,22.461,26.855,-170.898,9.277,-392.578
1574211228.420,69.336,11.719,-856.445,58.105,554.199
1574211228.424,56.641,32.227,428.223,37.598,542.480
1574211228.428,-11.719,59.082,-980.469,-33.203,-356.934
1574211228.432,-9.277,43.457,-549.316,-30.273,-518.555
1574211228.436,60.059,10.254,890.625,37.109,295.410
1574211228.440,76.660,24.414,720.703,56.641,684.570
1574211228.444,9.766,59.082,-694.824,-12.695,-209.473
1574211228.448,-20.996,52.246,-837.402,-56.152,-687.012
1574211228.452,42.480,21.973,499.023,4.395,-45.898
1574211228.456,80.566,12.207,-981.934,47.852,742.188
1574211228.459,33.203,40.527,-265.625,-5.371,93.262
1574211228.463,-17.578,51.758,-1000.000,-42.480,-602.539
1574211228.467,21.484,21.973,158.203,11.230,-227.051
1574211228.471,88.379,11.230,-871.094,65.918,661.621
1574211228.475,60.059,41.016,115.723,35.645,340.332
1574211228.479,0.000,52.734,-1000.000,-31.250,-487.793
1574211228.483,19.043,30.273,-302.246,-18.066,-433.594
1574211228.487,85.938,13.672,-952.637,49.316,445.801
1574211228.491,86.914,34.180,478.516,58.594,532.227
1574211228.495,20.508,56.152,-914.062,0.000,-354.980
1574211228.498,13.184,41.016,-611.816,-11.719,-609.375
1574211228.502,74.707,17.090,800.781,57.129,178.223
1574211228.506,91.797,20.996,839.844,68.359,696.289
1574211228.510,29.785,46.387,-534.180,-3.906,-112.793
1574211228.514,-5.371,47.363,-888.672,-16.113,-602.051
1574211228.518,55.664,20.020,394.531,54.199,-73.730
1574211228.522,94.238,17.578,-925.781,104.004,690.430
1574211228.526,49.805,42.969,-73.730,36.621,198.730
1574211228.530,3.418,58.594,-1000.000,-27.344,-527.832
1574211228.534,39.062,38.574,-40.039,29.297,-314.941
1574211228.538,88.867,19.531,-864.746,80.566,563.965
1574211228.541,65.430,37.109,380.859,46.387,394.531
1574211228.545,13.672,59.570,-971.680,-10.254,-448.730
1574211228.549,33.203,42.969,-462.402,14.160,-496.582
1574211228.553,72.266,9.277,934.570,60.059,388.672
1574211228.557,53.711,22.949,708.008,49.805,580.566
1574211228.561,-9.277,52.734,-704.590,-11.230,-255.859
1574211228.565,-23.438,41.504,-721.191,-26.367,-534.668
1574211228.569,40.527,15.137,670.898,32.715,145.508
1574211228.573,50.781,16.602,945.801,41.992,686.523
1574211228.577,-6.348,37.598,-358.887,-17.578,-5.859
1574211228.581,-30.762,42.480,-957.520,-33.691,-530.762
1574211228.584,13.672,19.531,272.949,17.578,-106.445
1574211228.588,57.129,11.719,-861.328,51.270,705.078
1574211228.592,22.461,38.086,23.926,15.625,246.582
1574211228.596,-30.273,50.293,-1000.000,-41.992,-540.039
1574211228.600,-9.277,25.879,-47.852,-4.395,-380.371
1574211228.604,55.176,6.836,-835.938,62.500,578.125
1574211228.608,45.898,28.320,366.699,43.945,461.914
1574211228.612,-20.996,46.875,-1000.000,-24.414,-456.055
1574211228.616,-17.578,24.902,-470.703,-16.602,-514.648
1574211228.620,51.758,5.371,924.805,44.434,333.984
1574211228.623,60.547,16.113,720.215,41.016,661.133
1574211228.627,1.465,41.016,-669.434,-14.648,-157.227
1574211228.631,-11.719,40.039,-804.688,-25.391,-577.637
1574211228.635,48.828,13.184,575.684,27.344,80.078
1574211228.639,88.379,16.113,910.156,52.734,752.441
1574211228.643,37.598,40.527,-379.395,6.348,11.230
1574211228.647,-14.648,44.922,-985.352,-31.250,-594.238
1574211228.651,32.227,28.320,194.336,14.648,-187.012
1574211228.655,86.914,19.043,-841.797,64.941,716.797
1574211228.659,50.781,39.062,159.180,34.668,373.535
1574211228.663,-14.648,52.246,-1000.000,-23.926,-478.516
1574211228.666,4.395,32.227,-239.746,2.930,-400.879
1574211228.670,81.543,13.672,-912.598,70.801,544.922
1574211228.674,78.613,36.133,462.891,62.012,590.820
1574211228.678,10.254,62.988,-928.711,-5.859,-361.816
1574211228.682,4.883,45.410,-600.586,-10.254,-576.660
1574211228.686,72.754,18.555,770.020,61.523,269.043
1574211228.690,81.055,20.508,831.055,74.707,695.312
1574211228.694,18.555,41.504,-524.414,10.254,-111.328
1574211228.698,-8.789,42.969,-936.035,-19.043,-630.859
1574211228.702,38.574,14.648,395.508,32.227,-60.547
1574211228.706,80.078,7.324,-943.848,75.684,776.855
1574211228.709,35.156,34.668,-191.406,32.227,114.746
1574211228.713,-17.090,45.410,-1000.000,-22.949,-565.430
1574211228.717,17.578,17.578,62.500,12.695,-203.125
1574211228.721,69.824,2.441,-853.027,67.871,668.945
1574211228.725,39.062,23.438,218.262,32.715,440.430
1574211228.729,-18.555,39.062,-1000.000,-30.762,-427.734
1574211228.733,-9.277,17.578,-397.461,-17.090,-466.309
1574211228.737,48.828,-6.836,-970.703,44.434,430.664
1574211228.741,53.223,8.789,620.117,47.363,612.793
1574211228.745,-13.672,36.133,-828.613,-19.043,-245.605
1574211228.748,-25.391,27.832,-705.078,-35.645,-572.754
1574211228.752,40.527,2.441,730.957,32.715,202.637
1574211228.756,66.895,-0.488,823.730,64.941,768.555
1574211228.760,10.254,27.344,-558.594,2.441,-87.891
1574211228.764,-29.297,34.180,-966.309,-32.715,-655.762
1574211228.768,23.926,6.348,313.477,20.996,-104.492
1574211228.772,79.102,-4.395,-953.613,70.801,747.070
1574211228.776,39.551,28.809,-195.312,26.367,188.477
1574211228.780,-5.371,59.570,-1000.000,-22.949,-577.148
1574211228.784,34.180,34.180,14.648,28.320,-333.008
1574211228.788,86.426,2.441,-843.262,81.055,680.176
1574211228.791,72.266,33.203,264.160,52.734,522.461
1574211228.795,20.508,73.242,-1000.000,8.789,-477.539
1574211228.799,23.438,57.129,-398.926,22.461,-542.969
1574211228.803,72.266,27.344,-964.844,56.641,458.984
1574211228.807,41.992,35.156,636.719,23.926,672.363
1574211228.811,-37.109,58.594,-797.363,-47.363,-307.617
1574211228.815,-41.504,53.711,-781.250,-62.500,-690.430
1574211228.819,-18.555,18.555,613.281,-37.109,116.211
1574211228.823,8.789,24.414,950.195,-5.859,844.238
1574211228.827,-41.992,56.152,-384.277,-65.430,20.508
1574211228.831,-117.188,56.152,-1000.000,-133.789,-628.418
1574211228.834,-77.148,33.203,226.074,-94.238,-148.438
1574211228.838,-25.391,29.785,-865.723,-57.129,788.086
1574211228.842,-62.500,56.152,34.180,-89.355,323.242
1574211228.846,-134.766,64.941,-1000.000,-149.414,-613.281
1574211228.850,-120.117,22.949,-148.926,-136.230,-435.059
1574211228.854,-46.875,5.859,-814.453,-64.453,681.641
1574211228.858,-64.453,47.852,372.070,-83.496,596.191
1574211228.862,-126.465,63.965,-1000.000,-145.996,-442.871
1574211228.866,-110.352,22.949,-518.066,-132.324,-609.863
1574211228.870,-58.105,-17.578,970.215,-69.336,408.203
1574211228.873,-36.621,6.836,725.586,-43.945,789.062
1574211228.877,-79.590,42.480,-735.352,-95.215,-232.910
1574211228.881,-100.586,37.598,-776.855,-107.910,-722.168
1574211228.885,-35.645,0.000,631.348,-37.598,71.777
1574211228.889,24.902,-4.883,980.957,9.766,890.625
1574211228.893,-14.160,38.574,-338.379,-34.668,78.125
1574211228.897,-65.918,45.410,-1000.000,-74.707,-664.062
1574211228.901,-10.742,13.672,201.660,-9.766,-219.238
1574211228.905,73.242,-7.812,-829.102,69.824,809.082
1574211228.909,46.387,19.043,48.828,32.715,373.535
1574211228.913,-21.973,42.969,-1000.000,-41.016,-624.512
1574211228.916,7.324,15.137,-184.570,6.348,-538.574
1574211228.920,87.402,-1.465,-846.680,69.824,550.293
1574211228.924,99.609,30.273,392.090,61.523,577.148
1574211228.928,39.551,66.895,-1000.000,20.020,-455.566
1574211228.932,39.551,50.781,-579.590,12.695,-638.672
1574211228.936,117.188,18.555,854.004,83.984,278.809
1574211228.940,137.695,33.203,815.430,115.723,774.902
1574211228.944,64.453,67.383,-586.914,40.527,-131.348
1574211228.948,30.762,65.430,-883.301,4.395,-643.066
1574211228.952,101.074,25.879,468.750,68.359,-5.859
1574211228.956,134.766,18.555,-961.426,103.027,844.238
1574211228.959,70.312,61.523,-239.746,45.898,157.227
1574211228.963,15.137,68.359,-1000.000,-12.207,-660.156
1574211228.967,53.223,33.691,87.402,27.344,-302.734
1574211228.971,118.652,15.625,-801.270,83.496,738.281
1574211228.975,84.961,37.598,266.602,63.965,460.938
1574211228.979,6.348,54.199,-1000.000,-2.441,-531.738
1574211228.983,21.484,38.574,-330.566,3.418,-562.500
1574211228.987,90.332,18.066,-921.387,70.312,502.441
1574211228.991,85.938,31.738,569.824,75.684,697.266
1574211228.995,25.879,62.012,-890.625,11.230,-341.309
1574211228.998,5.859,53.223,-693.848,-10.742,-687.500
1574211229.002,54.688,18.066,755.859,58.105,215.332
1574211229.006,97.168,19.043,853.027,94.727,871.582
1574211229.010,35.156,47.852,-520.508,41.016,-65.430
1574211229.014,-11.719,45.898,-998.047,-4.883,-700.684
1574211229.018,50.781,20.508,279.297,50.293,-96.680
1574211229.022,101.562,6.836,-870.605,94.727,861.816
1574211229.026,61.523,32.715,-72.266,45.898,254.883
1574211229.030,-3.418,48.340,-1000.000,0.000,-685.059
1574211229.034,28.809,13.184,-20.020,30.273,-409.668
1574211229.038,91.309,-0.488,-805.664,82.031,722.168
1574211229.041,73.242,29.785,274.414,63.477,538.574
1574211229.045,2.930,45.410,-1000.000,-2.930,-516.602
1574211229.049,4.395,30.273,-444.824,-1.465,-588.867
1574211229.053,77.637,11.230,-966.309,69.824,456.055
1574211229.057,90.820,20.996,620.117,79.102,759.766
1574211229.061,25.391,54.199,-879.395,6.836,-241.211
1574211229.065,-0.488,45.898,-721.191,-17.578,-711.914
1574211229.069,64.941,11.230,731.934,46.875,119.629
1574211229.073,97.168,12.207,882.812,89.355,888.672
1574211229.077,40.039,43.945,-482.422,29.785,3.906
1574211229.081,5.371,41.992,-996.582,-15.625,-742.188
1574211229.084,50.781,0.488,270.020,36.621,-213.867
1574211229.088,99.121,-2.441,-862.793,83.984,869.141
1574211229.092,61.035,41.992,4.883,47.852,343.750
1574211229.096,0.000,66.406,-1000.000,-14.160,-675.293
1574211229.100,12.695,29.785,-138.672,0.977,-472.656
1574211229.104,82.031,9.277,-833.984,60.547,642.090
1574211229.108,79.102,46.875,419.434,48.828,601.562
1574211229.112,0.000,71.777,-995.117,-19.043,-423.340
1574211229.116,-5.859,50.781,-527.344,-17.090,-626.465
1574211229.120,72.754,22.461,916.992,48.828,303.223
1574211229.123,82.031,26.367,766.113,55.664,759.766
1574211229.127,7.324,56.641,-642.578,-9.277,-200.195
1574211229.131,-10.254,60.547,-859.375,-33.691,-719.238
1574211229.135,52.246,24.902,498.047,33.691,6.836
1574211229.139,95.703,15.625,-979.492,73.242,842.773
1574211229.143,36.133,51.270,-259.766,15.625,125.000
1574211229.147,-12.207,52.734,-1000.000,-31.738,-639.648
1574211229.151,35.645,6.836,25.879,12.207,-298.340
1574211229.155,87.891,-0.488,-836.914,51.758,722.168
1574211229.159,55.664,41.992,199.219,28.320,423.828
1574211229.163,-5.859,64.941,-1000.000,-23.926,-527.344
1574211229.166,9.277,42.969,-290.039,-13.672,-510.254
1574211229.170,70.312,19.531,-907.227,44.922,483.887
1574211229.174,73.730,35.156,538.086,45.898,605.469
1574211229.178,8.789,54.688,-894.531,-9.766,-360.840
1574211229.182,-6.348,38.086,-646.484,-19.531,-626.953
1574211229.186,60.059,0.977,777.344,43.945,182.617
1574211229.190,83.496,10.742,841.797,67.871,706.055
1574211229.194,17.090,40.039,-525.391,7.324,-93.750
1574211229.198,-21.973,40.039,-901.855,-23.926,-607.422
1574211229.202,24.414,26.367,395.020,22.949,-114.258
1574211229.206,62.988,19.531,-907.715,56.152,712.402
1574211229.209,30.762,48.828,-126.953,18.066,163.574
1574211229.213,-17.578,58.105,-1000.000,-23.926,-615.723
1574211229.217,12.695,27.344,-4.395,15.137,-352.539
1574211229.221,69.824,8.789,-867.188,66.895,570.312
1574211229.225,53.711,27.344,298.340,45.410,409.668
1574211229.229,0.977,41.016,-1000.000,-10.254,-447.266
1574211229.233,8.301,27.832,-446.777,-2.441,-504.395
1574211229.237,69.336,20.996,924.805,61.523,354.004
1574211229.241,75.195,40.527,579.102,62.012,593.262
1574211229.245,15.137,59.570,-805.176,-1.953,-278.320
1574211229.248,-0.488,49.316,-714.355,-9.277,-625.000
1574211229.252,61.035,24.902,646.973,53.223,103.516
1574211229.256,91.797,26.367,936.035,80.078,714.355
1574211229.260,42.480,54.199,-363.770,34.180,-43.457
1574211229.264,7.324,51.758,-984.863,2.930,-655.273
1574211229.268,55.176,15.625,227.539,41.504,-197.754
1574211229.272,102.051,1.465,-889.648,79.102,681.152
1574211229.276,62.012,37.598,26.367,45.898,242.188
1574211229.280,-2.441,58.594,-1000.000,-3.906,-585.449
1574211229.284,26.855,22.949,-270.508,12.207,-434.570
1574211229.288,96.680,7.812,-977.051,65.430,523.438
1574211229.291,70.801,41.504,470.703,56.152,453.613
1574211229.295,0.488,64.941,-934.082,-4.883,-416.992
1574211229.299,8.301,47.852,-577.637,-0.977,-532.227
1574211229.303,67.871,13.184,851.562,59.570,321.777
1574211229.307,72.754,13.184,754.395,67.871,648.438
1574211229.311,15.625,54.199,-642.578,17.578,-184.082
1574211229.315,-8.789,55.664,-805.664,-4.883,-531.738
1574211229.319,38.574,14.160,540.039,34.668,90.332
1574211229.323,68.848,14.160,982.910,62.012,749.023
1574211229.327,25.879,48.340,-281.250,17.578,47.852
1574211229.331,-21.484,49.316,-1000.000,-23.926,-621.582
1574211229.334,2.930,18.555,123.535,-0.977,-217.285
1574211229.338,49.805,6.348,-845.215,45.898,666.992
1574211229.342,35.645,27.344,126.465,35.156,294.434
1574211229.346,-13.672,47.852,-1000.000,-20.020,-500.488
1574211229.350,0.000,29.785,-177.734,-4.883,-395.996
1574211229.354,64.941,8.301,-914.551,53.711,451.660
1574211229.358,67.383,28.320,497.559,56.641,481.934
1574211229.362,5.859,52.734,-869.141,0.488,-372.070
1574211229.366,1.465,41.504,-582.520,-0.977,-542.480
1574211229.370,66.895,16.602,803.711,60.059,257.812
1574211229.373,91.797,22.461,792.480,75.195,677.246
1574211229.377,38.574,49.805,-560.059,24.902,-125.000
1574211229.381,10.742,48.340,-896.484,-2.930,-594.727
1574211229.385,65.430,16.113,416.504,49.316,-47.363
1574211229.389,105.957,12.207,961.426,77.637,669.922
1574211229.393,55.176,42.480,-236.816,23.438,102.051
1574211229.397,2.930,54.688,-1000.000,-12.695,-605.957
1574211229.401,25.879,30.273,50.781,22.949,-307.129
1574211229.405,73.242,20.996,-862.793,65.430,604.980
1574211229.409,56.641,40.527,321.777,42.480,366.699
1574211229.413,-2.441,46.387,-978.027,-6.348,-458.496
1574211229.416,12.207,35.156,-418.457,7.324,-457.520
1574211229.420,64.941,16.113,934.082,54.688,372.559
1574211229.424,62.500,25.391,608.887,53.711,541.504
1574211229.428,8.789,48.340,-747.559,2.441,-273.438
1574211229.432,-8.301,35.645,-729.980,-4.395,-570.312
1574211229.436,48.828,18.555,565.430,49.805,105.957
1574211229.440,75.684,24.902,925.293,62.500,646.484
1574211229.444,20.996,46.875,-332.520,14.648,-63.477
1574211229.448,-8.789,51.270,-979.980,-15.625,-615.723
1574211229.452,40.039,28.809,242.676,30.273,-146.484
1574211229.456,78.613,20.020,-917.480,67.383,624.512
1574211229.459,41.504,40.039,13.184,29.297,196.777
1574211229.463,-8.789,50.781,-1000.000,-18.555,-503.906
1574211229.467,16.113,29.297,-120.117,2.441,-325.195
1574211229.471,76.660,12.207,-955.078,62.500,495.117
1574211229.475,62.988,26.855,385.254,46.387,382.324
1574211229.479,7.324,53.223,-950.195,-15.137,-440.430
1574211229.483,20.508,39.551,-476.074,-12.207,-509.277
1574211229.487,82.031,14.648,924.316,41.504,324.219
1574211229.491,72.754,27.832,751.465,51.758,586.426
1574211229.495,11.230,43.457,-627.441,-5.371,-183.594
1574211229.498,13.184,38.086,-763.672,-14.648,-559.570
1574211229.502,59.082,26.367,585.449,38.574,62.012
1574211229.506,79.102,24.902,947.266,62.988,692.383
1574211229.510,30.762,47.363,-309.570,20.996,11.230
1574211229.514,4.395,53.223,-939.941,-25.879,-558.105
1574211229.518,53.711,25.391,220.215,15.625,-126.465
1574211229.522,84.473,23.926,-903.320,62.012,647.461
1574211229.526,51.758,55.176,65.918,29.297,258.301
1574211229.530,-3.906,62.012,-956.543,-10.742,-471.191
1574211229.534,29.297,42.480,-47.852,10.742,-305.176
1574211229.538,84.473,27.832,-941.895,62.988,492.188
1574211229.541,72.754,40.039,521.484,60.059,471.191
1574211229.545,24.414,59.570,-769.043,17.578,-341.309
1574211229.549,23.438,49.805,-509.277,22.461,-505.371
1574211229.553,60.547,20.508,813.477,56.152,258.789
1574211229.557,61.523,21.973,794.922,56.152,594.727
1574211229.561,14.648,48.828,-517.090,9.277,-165.039
1574211229.565,-7.812,45.410,-849.121,-16.113,-549.805
1574211229.569,44.434,21.973,386.230,34.180,-4.395
1574211229.573,74.219,16.602,959.473,71.289,602.539
1574211229.577,21.973,39.062,-103.516,27.344,69.336
1574211229.581,-13.672,44.922,-952.148,-13.184,-530.762
1574211229.584,22.461,27.344,20.020,18.555,-246.582
1574211229.588,64.453,25.879,-921.875,58.594,578.125
1574211229.592,42.969,41.504,245.117,40.039,272.949
1574211229.596,-6.348,47.852,-945.312,-6.836,-493.164
1574211229.600,11.719,33.203,-332.520,-3.418,-382.324
1574211229.604,72.754,15.137,943.848,51.758,397.461
1574211229.608,60.059,22.461,591.309,49.805,461.426
1574211229.612,10.742,48.340,-760.254,-1.465,-308.594
1574211229.616,11.719,43.945,-725.098,-6.836,-503.906
1574211229.620,55.176,18.555,645.508,34.668,198.730
1574211229.623,65.430,20.020,883.301,52.246,608.887
1574211229.627,19.043,42.969,-436.523,10.254,-93.750
1574211229.631,1.465,45.898,-846.191,-8.789,-541.504
1574211229.635,40.527,15.625,424.805,33.691,-6.348
1574211229.639,64.941,5.859,-980.469,55.176,689.941
1574211229.643,23.926,37.109,-128.906,16.602,175.781
1574211229.647,1.953,45.898,-1000.000,-17.090,-566.895
1574211229.651,25.879,15.137,-18.066,10.742,-327.637
1574211229.655,68.359,2.930,-890.137,49.805,611.816
1574211229.659,57.129,32.227,276.855,35.645,447.266
1574211229.663,12.695,54.688,-992.188,-0.488,-373.047
1574211229.666,21.973,38.086,-411.621,5.371,-448.730
1574211229.670,65.918,20.508,939.941,57.617,382.324
1574211229.674,72.754,35.156,566.895,72.266,577.637
1574211229.678,24.902,61.035,-805.176,19.043,-253.418
1574211229.682,7.324,51.758,-672.363,0.000,-526.855
1574211229.686,56.152,20.020,662.109,45.410,186.523
1574211229.690,80.078,25.391,896.973,71.289,724.121
1574211229.694,28.809,50.293,-391.113,26.367,-13.672
1574211229.698,1.465,46.387,-939.453,2.930,-573.730
1574211229.702,44.434,20.508,294.434,41.992,-83.008
1574211229.706,79.590,20.508,-910.156,74.219,691.895
1574211229.709,52.734,50.781,2.930,42.480,265.137
1574211229.713,1.465,56.641,-1000.000,-1.953,-514.160
1574211229.717,24.902,34.180,-148.438,17.090,-373.047
1574211229.721,82.031,21.484,-949.707,64.453,546.875
1574211229.725,62.500,36.133,514.160,52.246,511.719
1574211229.729,0.488,55.664,-866.699,-3.906,-361.816
1574211229.733,1.465,37.109,-554.199,-3.418,-528.809
1574211229.737,62.500,7.812,862.305,49.316,378.906
1574211229.741,66.895,14.648,729.980,49.316,706.055
1574211229.745,1.953,43.945,-662.598,-6.836,-170.410
1574211229.748,-17.578,41.016,-844.727,-19.043,-591.797
1574211229.752,38.086,9.277,498.047,33.203,67.383
1574211229.756,69.336,10.254,963.867,59.570,775.391
1574211229.760,16.602,41.992,-328.125,15.625,78.125
1574211229.764,-24.902,45.898,-1000.000,-27.832,-592.285
1574211229.768,21.973,9.766,184.082,7.324,-170.410
1574211229.772,62.012,-1.953,-848.145,52.246,727.051
1574211229.776,31.250,31.738,92.285,28.320,331.543
1574211229.780,-16.113,50.293,-1000.000,-23.438,-508.789
1574211229.784,-3.418,24.414,-158.203,-16.113,-401.367
1574211229.788,54.688,3.906,-877.441,42.480,530.762
1574211229.791,59.570,27.344,495.605,46.387,546.387
1574211229.795,-3.906,51.270,-930.176,-9.277,-369.141
1574211229.799,-12.695,40.039,-611.816,-10.742,-591.309
1574211229.803,57.129,18.555,821.777,47.852,232.910
1574211229.807,74.707,23.438,792.969,60.059,686.035
1574211229.811,13.184,47.363,-625.000,-0.488,-147.461
1574211229.815,-9.277,43.457,-804.199,-25.879,-608.398
1574211229.819,54.688,14.648,555.176,28.809,26.855
1574211229.823,87.891,5.371,-998.535,66.895,770.020
1574211229.827,33.203,40.039,-211.914,24.902,140.625
1574211229.831,-16.602,57.129,-1000.000,-23.438,-566.895
1574211229.834,31.250,29.297,92.773,9.277,-246.582
1574211229.838,87.891,19.531,-841.309,65.430,676.270
1574211229.842,60.547,43.945,241.211,37.598,389.648
1574211229.846,8.301,62.500,-1000.000,-14.160,-488.770
1574211229.850,18.555,43.457,-352.539,12.207,-484.863
1574211229.854,75.684,23.438,-997.070,62.988,415.527
1574211229.858,74.219,39.062,614.258,51.270,563.477
1574211229.862,10.254,62.012,-752.441,-7.324,-314.453
1574211229.866,-1.953,53.711,-704.102,-4.395,-625.000
1574211229.870,52.246,24.902,681.152,48.828,148.926
1574211229.873,74.707,26.855,906.250,62.012,739.258
1574211229.877,19.531,57.129,-436.523,11.719,-57.129
1574211229.881,-10.254,60.547,-927.246,-23.926,-611.328
1574211229.885,45.898,30.762,351.074,25.391,-49.805
1574211229.889,80.566,16.113,-919.922,67.383,782.715
1574211229.893,33.691,41.016,-99.121,24.414,231.934
1574211229.897,-11.719,48.828,-1000.000,-21.973,-592.773
1574211229.901,20.996,22.949,-111.328,16.113,-336.914
1574211229.905,74.707,12.695,-864.258,64.453,660.645
1574211229.909,63.477,34.180,355.469,43.457,469.238
1574211229.913,-1.465,54.199,-1000.000,-9.277,-496.582
1574211229.916,-2.441,33.691,-400.879,3.418,-515.137
1574211229.920,76.172,10.742,-990.234,72.754,439.453
1574211229.924,84.961,27.832,654.297,73.730,659.180
1574211229.928,15.137,53.223,-753.418,15.625,-280.273
1574211229.932,1.953,41.016,-718.262,1.465,-606.934
1574211229.936,57.617,11.719,678.223,63.965,157.715
1574211229.940,98.633,16.602,906.738,105.469,781.738
1574211229.944,60.059,47.852,-434.082,50.781,-9.766
1574211229.948,14.160,48.340,-943.359,11.719,-678.711
1574211229.952,61.523,16.602,325.684,63.965,-146.484
1574211229.956,113.281,11.719,-875.977,114.746,795.410
1574211229.959,80.078,45.898,-31.738,78.613,319.336
1574211229.963,19.043,55.664,-1000.000,17.578,-565.430
1574211229.967,42.969,26.855,-80.566,38.574,-395.508
1574211229.971,115.723,10.254,-854.492,99.609,646.484
1574211229.975,102.051,38.086,316.406,82.520,550.781
1574211229.979,30.762,62.500,-1000.000,18.555,-415.527
1574211229.983,34.668,36.621,-458.008,25.879,-533.203
1574211229.987,112.305,15.137,952.148,94.727,395.996
1574211229.991,121.582,31.738,662.109,119.629,734.863
1574211229.995,43.457,61.523,-736.816,39.062,-217.285
1574211229.998,19.043,53.223,-781.738,-2.441,-638.184
1574211230.002,86.914,19.043,583.984,75.195,102.539
1574211230.006,117.188,19.531,979.004,109.863,857.910
1574211230.010,51.758,56.152,-326.172,44.434,83.008
1574211230.014,7.812,64.941,-1000.000,3.418,-622.559
1574211230.018,54.199,19.531,179.688,45.410,-176.758
1574211230.022,111.328,0.000,-856.445,93.750,832.031
1574211230.026,71.289,34.668,65.918,48.340,408.691
1574211230.030,4.395,58.105,-1000.000,-7.324,-556.152
1574211230.034,32.227,39.062,-321.777,31.738,-461.426
1574211230.038,91.309,14.648,-940.918,87.402,607.422
1574211230.041,76.660,30.762,489.258,73.242,692.383
1574211230.045,7.812,61.035,-977.051,-4.395,-312.988
1574211230.049,4.883,45.410,-598.145,-10.254,-582.520
1574211230.053,70.312,10.254,875.000,67.383,354.004
1574211230.057,88.867,20.508,793.945,79.590,878.906
1574211230.061,20.508,53.711,-634.277,3.906,-51.270
1574211230.065,-17.578,45.898,-858.398,-32.715,-654.785
1574211230.069,41.992,11.719,514.648,24.414,39.551
1574211230.073,93.750,6.836,-973.633,67.871,943.848
1574211230.077,35.156,46.875,-256.348,19.043,216.309
1574211230.081,-23.438,62.988,-1000.000,-30.273,-654.785
1574211230.084,24.902,28.809,88.867,14.648,-285.156
1574211230.088,86.426,11.719,-815.918,74.707,826.172
1574211230.092,69.824,37.109,132.812,45.410,512.207
1574211230.096,1.465,60.547,-1000.000,-25.879,-535.156
1574211230.100,5.371,41.504,-199.219,-0.977,-527.344
1574211230.104,84.473,14.648,-829.590,80.566,570.312
1574211230.108,90.332,35.156,468.262,74.707,744.141
1574211230.112,11.719,70.312,-998.047,-2.441,-352.051
1574211230.116,-10.742,53.711,-609.863,-6.348,-719.238
1574211230.120,67.383,19.043,865.723,70.801,270.508
1574211230.123,102.539,27.344,807.617,90.820,904.785
1574211230.127,37.598,64.453,-622.070,20.020,-110.840
1574211230.131,-6.836,62.988,-911.621,-16.602,-771.973
1574211230.135,54.199,22.461,444.824,48.340,-54.199
1574211230.139,108.398,12.207,-970.703,91.797,945.801
1574211230.143,60.547,48.828,-222.168,35.156,249.023
1574211230.147,-2.441,66.406,-1000.000,-16.602,-722.656
1574211230.151,36.133,28.809,12.695,29.297,-386.719
1574211230.155,110.840,0.000,-789.062,97.656,791.992
1574211230.159,86.426,33.203,273.438,67.383,563.965
1574211230.163,6.836,65.430,-1000.000,-11.230,-560.547
1574211230.166,8.789,40.039,-371.582,-3.418,-614.258
1574211230.170,87.891,1.953,-917.480,67.383,486.328
1574211230.174,99.609,22.461,553.223,77.637,758.789
1574211230.178,10.742,61.035,-910.645,1.953,-360.840
1574211230.182,-10.254,46.875,-708.984,-29.297,-781.738
1574211230.186,72.754,11.230,698.242,54.688,162.598
1574211230.190,89.844,15.625,941.895,84.473,927.734
1574211230.194,15.137,46.875,-413.574,4.395,-0.488
1574211230.198,-19.531,44.922,-1000.000,-38.574,-794.922
1574211230.202,41.504,10.742,286.133,20.508,-185.059
1574211230.206,84.473,0.488,-843.262,79.102,941.895
1574211230.209,37.109,30.762,-20.020,28.809,353.516
1574211230.213,-17.090,45.410,-1000.000,-38.086,-721.680
1574211230.217,11.719,20.020,-81.055,3.906,-502.930
1574211230.221,84.961,2.930,-793.457,88.867,717.773
1574211230.225,71.289,37.109,340.820,73.242,614.258
1574211230.229,0.977,63.965,-1000.000,-13.184,-519.531
1574211230.233,-1.465,32.227,-427.734,-17.578,-656.738
1574211230.237,63.965,-0.488,-948.730,72.266,416.504
1574211230.241,83.496,17.578,679.199,87.402,816.406
1574211230.245,13.184,56.641,-790.039,7.812,-245.605
1574211230.248,-21.973,53.711,-789.551,-19.531,-793.945
1574211230.252,52.246,4.395,648.438,50.293,66.895
1574211230.256,104.492,-4.395,956.543,106.934,961.914
1574211230.260,41.504,44.434,-401.855,45.410,71.777
1574211230.264,-16.602,47.852,-1000.000,-20.996,-778.809
1574211230.268,24.902,5.859,201.172,27.832,-282.715
1574211230.272,79.590,-7.324,-855.957,84.473,877.441
1574211230.276,47.852,37.109,-23.926,36.621,410.645
1574211230.280,-27.832,68.359,-1000.000,-49.316,-699.707
